____Time[ps] Energy[ kJ/mol ]_____Bond _______Angle ____Dihedral ___Planarity _____Coulomb _________VdW _Your result _Your result _Your result _Your result _Your result _Your result _Your result _Your result _Your result _Your result _Your result _Your result _Your result _Your result _Your result _Your result _Your result _Your result _Your result _Your result _Your result _Your result _Your result _Your result _Your result _Your result _Your result _Your result _Your result _Your result _Your result _Your result _Your result _Your result _Your result _Your result _Your result _Your result _Your result _Your result _Your result _Your result _Your result _Your result _Your result _Your result _Your result _Your result _Your result _Your result _Your result _Your result _Your result _Your result _Your result _Your result _Your result _RMSDs[A]:CA ____Backbone __HeavyAtoms
       0.000  -359593.955     7266.028     4888.574    44400.970       12.672  -485629.834    69467.635       25.503       25.348        2.491        3.035        2.524        2.591        2.563        3.046        2.608        2.539        3.200        2.640        3.067        2.668        3.075        2.895        2.493        2.557        0.488        0.000        1.000        0.000        2.000        1.000        6.000        0.000        0.000        0.000        1.000        0.000        0.000        0.000        1.000        0.000        0.000        0.000        0.000        0.000        1.000        0.000        0.000        0.000        0.000        0.000        4.000        0.000        3.000        0.000        4.000        0.000        0.000        0.000        0.000        0.000      100.000        0.000        0.000        0.462        0.506        0.643
      10.000  -271700.224    31020.424    15924.281    44216.068       91.170  -416527.842    53575.675       25.966       26.009        2.689        3.086        2.530        2.551        2.559        3.000        2.704        2.451        3.231        2.661        3.099        2.701        3.061        2.940        2.523        2.537        0.468        0.000        0.000        0.000        1.000        1.000        4.000        0.000        0.000        0.000        0.000        0.000        0.000        0.000        0.000        0.000        0.000        0.000        0.000        0.000        1.000        0.000        0.000        0.000        0.000        2.000        3.000        0.000        5.000        2.000        3.000        0.000        0.000        0.000        4.494        0.000       95.506        0.000        0.000        1.172        1.202        1.418
      20.000  -271236.833    29551.071    16291.130    44245.496       81.621  -413775.026    52368.875       25.993       25.926        2.677        3.055        2.561        2.580        2.569        3.066        2.635        2.476        3.181        2.640        3.128        2.678        3.015        2.874        2.509        2.572        0.482        0.000        2.000        0.000        1.000        1.000        3.000        0.000        0.000        0.000        1.000        0.000        0.000        0.000        2.000        0.000        0.000        0.000        0.000        0.000        1.000        0.000        0.000        0.000        0.000        2.000        7.000        0.000        4.000        2.000        7.000        0.000        0.000        0.000        0.000        0.000      100.000        0.000        0.000        1.382        1.414        1.707
      30.000  -270782.782    30124.707    16545.582    43883.210       68.790  -412599.749    51194.678       26.102       25.862        2.597        3.037        2.614        2.570        2.587        3.028        2.665        2.491        3.256        2.629        3.064        2.669        3.028        2.883        2.486        2.520        0.513        0.000        1.000        0.000        1.000        1.000        4.000        0.000        0.000        0.000        0.000        0.000        0.000        0.000        0.000        0.000        0.000        0.000        0.000        0.000        0.000        0.000        0.000        0.000        0.000        1.000        8.000        0.000        4.000        2.000        8.000        0.000        0.000        0.000        0.000        0.000      100.000        0.000        0.000        1.392        1.416        1.737
      40.000  -270596.181    29677.263    16536.042    44128.586       97.240  -412429.529    51394.216       26.098       25.853        2.685        3.005        2.588        2.589        2.619        3.020        2.631        2.504        3.236        2.717        3.128        2.661        3.124        2.940        2.484        2.578        0.504        0.000        1.000        0.000        1.000        1.000        3.000        0.000        0.000        0.000        0.000        0.000        0.000        0.000        0.000        0.000        0.000        0.000        0.000        0.000        0.000        0.000        0.000        0.000        0.000        2.000        3.000        0.000        3.000        2.000        4.000        0.000        0.000        0.000        4.494        0.000       95.506        0.000        0.000        1.306        1.317        1.584
      50.000  -269912.694    29237.093    16542.102    44076.995       70.338  -410693.947    50854.725       26.107       25.970        2.606        3.059        2.568        2.561        2.595        3.057        2.688        2.533        3.251        2.681        3.155        2.637        3.111        2.855        2.480        2.585        0.473        0.000        1.000        0.000        1.000        1.000        3.000        0.000        0.000        0.000        0.000        0.000        0.000        0.000        0.000        0.000        0.000        0.000        0.000        0.000        0.000        0.000        0.000        0.000        0.000        0.000        2.000        0.000        2.000        1.000        6.000        0.000        0.000        0.000        0.000        0.000      100.000        0.000        0.000        1.483        1.496        1.806
      60.000  -269782.528    28680.203    16409.962    43934.387       80.906  -410194.215    51306.228       26.141       25.955        2.673        3.036        2.563        2.566        2.598        3.020        2.711        2.461        3.296        2.659        3.142        2.655        3.046        2.880        2.530        2.563        0.478        0.000        1.000        0.000        1.000        1.000        4.000        0.000        0.000        0.000        1.000        0.000        0.000        0.000        1.000        0.000        0.000        0.000        0.000        0.000        0.000        0.000        0.000        0.000        0.000        1.000        4.000        0.000        2.000        1.000        2.000        0.000        0.000        0.000        0.000        0.000      100.000        0.000        0.000        1.494        1.518        1.792
      70.000  -268955.442    30010.672    16822.069    43852.029       81.797  -409291.879    49569.870       26.037       26.022        2.506        3.053        2.620        2.583        2.638        3.119        2.726        2.479        3.201        2.623        3.054        2.700        3.104        2.886        2.524        2.572        0.484        0.000        1.000        0.000        1.000        1.000        3.000        0.000        0.000        0.000        0.000        0.000        0.000        0.000        1.000        0.000        0.000        0.000        0.000        0.000        0.000        0.000        0.000        0.000        0.000        0.000        4.000        0.000        1.000        1.000        4.000        0.000        0.000        0.000        0.000        0.000      100.000        0.000        0.000        1.553        1.586        1.883
      80.000  -269152.673    28019.051    16257.325    43971.114       87.874  -409600.517    52112.480       25.896       25.570        2.597        3.033        2.605        2.593        2.634        3.079        2.688        2.543        3.200        2.620        3.165        2.695        3.061        2.873        2.507        2.655        0.467        0.000        1.000        0.000        1.000        1.000        3.000        0.000        0.000        0.000        0.000        0.000        0.000        0.000        1.000        0.000        0.000        0.000        0.000        0.000        0.000        0.000        0.000        0.000        0.000        1.000        3.000        0.000        2.000        2.000        5.000        0.000        0.000        0.000        4.494        0.000       95.506        0.000        0.000        1.601        1.625        1.969
      90.000  -268861.742    27442.834    16633.867    44014.423       71.624  -408536.901    51512.411       26.198       25.859        2.629        3.009        2.536        2.582        2.574        3.079        2.726        2.561        3.180        2.628        3.051        2.643        3.027        2.927        2.544        2.660        0.493        0.000        1.000        0.000        1.000        1.000        5.000        0.000        0.000        0.000        0.000        0.000        0.000        0.000        0.000        0.000        0.000        0.000        0.000        0.000        0.000        0.000        0.000        0.000        0.000        0.000        7.000        0.000        4.000        2.000        4.000        0.000        0.000        0.000        0.000        0.000      100.000        0.000        0.000        1.934        1.974        2.393
     100.000  -268280.999    27970.403    16492.059    44183.685       83.431  -407745.839    50735.263       26.094       25.947        2.673        3.100        2.521        2.563        2.545        3.091        2.716        2.475        3.194        2.637        3.084        2.698        2.950        2.948        2.538        2.601        0.484        0.000        0.000        0.000        1.000        1.000        3.000        0.000        0.000        0.000        1.000        0.000        0.000        0.000        0.000        0.000        0.000        0.000        0.000        0.000        0.000        0.000        0.000        0.000        0.000        3.000        4.000        0.000        3.000        1.000        7.000        0.000        0.000        0.000        0.000        0.000      100.000        0.000        0.000        1.587        1.624        2.087
     110.000  -269103.646    27486.824    16378.895    43995.077       88.274  -408416.130    51363.413       26.199       26.101        2.574        3.001        2.499        2.566        2.627        3.044        2.652        2.430        3.249        2.646        3.154        2.680        3.013        2.865        2.554        2.612        0.487        0.000        1.000        0.000        1.000        1.000        2.000        0.000        0.000        0.000        0.000        0.000        0.000        0.000        0.000        0.000        0.000        0.000        0.000        0.000        0.000        0.000        0.000        0.000        0.000        2.000        2.000        0.000        4.000        1.000        3.000        0.000        0.000        0.000        0.000        0.000      100.000        0.000        0.000        1.968        2.007        2.507
     120.000  -268550.922    28213.671    16239.107    43935.900       78.277  -407852.742    50834.865       25.931       25.838        2.573        3.002        2.554        2.620        2.645        2.996        2.709        2.467        3.238        2.615        3.162        2.682        3.003        2.890        2.538        2.671        0.479        0.000        1.000        0.000        0.000        1.000        1.000        0.000        0.000        0.000        0.000        0.000        0.000        0.000        0.000        0.000        0.000        0.000        0.000        0.000        0.000        0.000        0.000        0.000        0.000        2.000        3.000        0.000        2.000        1.000        5.000        0.000        0.000        0.000        0.000        0.000      100.000        0.000        0.000        1.688        1.723        2.376
     130.000  -267731.840    28514.195    16157.504    44194.425       81.882  -405876.541    49196.696       25.774       25.621        2.586        3.007        2.576        2.600        2.661        3.016        2.700        2.462        3.160        2.615        3.105        2.657        3.063        2.948        2.529        2.606        0.495        0.000        1.000        0.000        0.000        1.000        2.000        0.000        0.000        0.000        1.000        0.000        0.000        0.000        1.000        0.000        0.000        0.000        0.000        0.000        0.000        0.000        0.000        0.000        0.000        2.000        3.000        0.000        3.000        1.000        5.000        0.000        0.000        0.000        0.000        0.000      100.000        0.000        0.000        1.785        1.832        2.449
     140.000  -267768.192    27873.323    16742.944    43832.381       85.209  -405851.492    49549.444       26.063       25.914        2.622        3.078        2.586        2.568        2.622        2.992        2.715        2.527        3.181        2.664        3.125        2.629        3.003        2.898        2.497        2.580        0.486        0.000        1.000        0.000        0.000        1.000        2.000        0.000        0.000        0.000        0.000        0.000        0.000        0.000        0.000        0.000        0.000        0.000        0.000        0.000        0.000        0.000        0.000        0.000        0.000        1.000        3.000        0.000        5.000        1.000        6.000        0.000        0.000        0.000        0.000        0.000      100.000        0.000        0.000        1.959        1.996        2.596
     150.000  -267886.059    27477.053    16443.924    44062.736       85.604  -408163.302    52207.925       25.734       25.499        2.603        3.017        2.616        2.592        2.595        3.022        2.664        2.413        3.256        2.635        3.098        2.689        3.097        2.874        2.475        2.606        0.483        0.000        1.000        0.000        0.000        1.000        3.000        0.000        0.000        0.000        0.000        0.000        0.000        0.000        1.000        0.000        0.000        0.000        0.000        0.000        0.000        0.000        0.000        0.000        0.000        0.000        2.000        0.000        2.000        1.000        7.000        0.000        0.000        0.000        0.000        0.000      100.000        0.000        0.000        2.052        2.083        2.843
     160.000  -267534.183    27230.328    15878.017    44099.889       73.781  -404819.324    50003.125       25.779       25.624        2.654        3.085        2.564        2.609        2.581        3.007        2.647        2.553        3.220        2.636        3.119        2.669        3.090        2.881        2.512        2.589        0.478        0.000        1.000        0.000        0.000        1.000        3.000        0.000        0.000        0.000        0.000        0.000        0.000        0.000        0.000        0.000        0.000        0.000        0.000        0.000        0.000        0.000        0.000        0.000        0.000        2.000        8.000        0.000        3.000        0.000        7.000        0.000        0.000        0.000        0.000        0.000      100.000        0.000        0.000        2.081        2.099        2.768
     170.000  -267431.230    27616.984    16417.730    44053.055       84.848  -405332.527    49728.680       25.775       25.716        2.572        3.035        2.590        2.617        2.636        3.007        2.650        2.530        3.167        2.648        3.153        2.657        3.013        2.934        2.484        2.645        0.509        0.000        1.000        0.000        0.000        1.000        3.000        0.000        0.000        0.000        0.000        0.000        0.000        0.000        0.000        0.000        0.000        0.000        0.000        0.000        0.000        0.000        0.000        0.000        0.000        1.000        2.000        0.000        2.000        1.000        9.000        0.000        0.000        0.000        0.000        0.000      100.000        0.000        0.000        1.987        2.005        2.632
     180.000  -266860.120    27643.092    16099.150    43944.534       76.690  -404256.399    49632.813       26.012       25.754        2.675        3.037        2.637        2.592        2.619        3.124        2.690        2.538        3.217        2.648        3.123        2.652        3.050        2.961        2.494        2.576        0.531        0.000        0.000        0.000        0.000        1.000        4.000        0.000        0.000        0.000        0.000        0.000        0.000        0.000        0.000        0.000        0.000        0.000        0.000        0.000        0.000        0.000        0.000        0.000        0.000        0.000        4.000        0.000        2.000        3.000        8.000        0.000        0.000        0.000        0.000        0.000      100.000        0.000        0.000        2.118        2.156        2.881
     190.000  -267329.704    27433.430    16336.884    43990.092       91.555  -405559.738    50378.073       25.841       25.369        2.571        3.022        2.580        2.552        2.585        3.077        2.675        2.446        3.239        2.646        3.174        2.562        3.006        2.947        2.498        2.569        0.484        0.000        1.000        0.000        0.000        1.000        4.000        0.000        0.000        0.000        1.000        0.000        0.000        0.000        1.000        0.000        0.000        0.000        0.000        0.000        0.000        0.000        0.000        0.000        0.000        0.000        1.000        0.000        2.000        2.000        4.000        0.000        0.000        0.000        0.000        0.000      100.000        0.000        0.000        2.179        2.228        2.927
     200.000  -267393.000    27007.749    16023.502    44124.430      106.430  -403134.672    48479.560       25.926       25.742        2.613        3.047        2.567        2.559        2.602        3.000        2.725        2.489        3.206        2.631        3.177        2.517        3.068        3.043        2.543        2.606        0.461        0.000        1.000        0.000        0.000        1.000        3.000        0.000        0.000        0.000        0.000        0.000        0.000        0.000        0.000        0.000        0.000        0.000        0.000        0.000        0.000        0.000        0.000        0.000        0.000        1.000        2.000        0.000        3.000        0.000        7.000        0.000        0.000        0.000        0.000        0.000      100.000        0.000        0.000        1.836        1.876        2.802
     210.000  -266891.263    27506.968    16021.125    43742.331       86.306  -401677.712    47429.719       26.140       25.686        2.577        2.989        2.567        2.590        2.625        2.989        2.734        2.468        3.206        2.637        3.232        2.526        3.050        3.080        2.526        2.599        0.460        0.000        1.000        0.000        0.000        1.000        3.000        0.000        0.000        0.000        0.000        0.000        0.000        0.000        0.000        0.000        0.000        0.000        0.000        0.000        0.000        0.000        0.000        0.000        0.000        1.000        3.000        0.000        2.000        2.000        6.000        0.000        0.000        0.000        0.000        0.000      100.000        0.000        0.000        1.662        1.688        2.755
     220.000  -266515.399    26466.120    16004.694    43972.461       76.388  -403911.794    50876.732       26.216       26.025        2.604        2.948        2.558        2.544        2.564        3.057        2.717        2.487        3.152        2.634        3.206        2.512        2.973        2.999        2.503        2.625        0.495        0.000        0.000        0.000        0.000        1.000        2.000        0.000        0.000        0.000        1.000        0.000        0.000        0.000        0.000        0.000        0.000        0.000        0.000        0.000        0.000        0.000        0.000        0.000        0.000        2.000        1.000        0.000        3.000        2.000        5.000        0.000        0.000        0.000        0.000        0.000      100.000        0.000        0.000        2.125        2.163        3.080
     230.000  -266791.252    27030.786    15830.994    43876.927       91.889  -402914.522    49292.675       26.345       26.069        2.588        3.041        2.601        2.575        2.621        2.958        2.710        2.546        3.188        2.603        3.136        2.549        3.019        3.017        2.498        2.565        0.483        0.000        0.000        0.000        0.000        1.000        2.000        0.000        0.000        0.000        0.000        0.000        0.000        0.000        1.000        0.000        0.000        0.000        0.000        0.000        0.000        0.000        0.000        0.000        0.000        0.000        0.000        0.000        1.000        1.000        9.000        0.000        0.000        0.000        4.494        0.000       95.506        0.000        0.000        2.218        2.263        3.088
     240.000  -266993.482    27203.457    16024.826    44077.262       84.969  -404121.808    49737.812       26.129       25.966        2.554        3.016        2.574        2.597        2.659        2.995        2.671        2.492        3.238        2.636        3.212        2.508        3.052        2.988        2.528        2.608        0.477        0.000        0.000        0.000        0.000        1.000        1.000        0.000        0.000        0.000        0.000        0.000        0.000        0.000        1.000        0.000        0.000        0.000        0.000        0.000        0.000        0.000        0.000        0.000        0.000        1.000        2.000        0.000        2.000        1.000        5.000        0.000        0.000        0.000        0.000        0.000      100.000        0.000        0.000        2.043        2.063        3.096
     250.000  -266036.278    26567.798    15630.687    44154.278       82.900  -402224.673    49752.732       26.032       25.843        2.550        3.096        2.545        2.617        2.590        3.021        2.699        2.473        3.219        2.651        3.167        2.520        3.076        2.985        2.545        2.629        0.458        0.000        0.000        0.000        0.000        1.000        1.000        0.000        0.000        0.000        0.000        0.000        0.000        0.000        0.000        0.000        0.000        0.000        0.000        0.000        0.000        0.000        0.000        0.000        0.000        1.000        4.000        0.000        1.000        2.000        7.000        0.000        0.000        0.000        0.000        0.000      100.000        0.000        0.000        1.731        1.753        2.911
     260.000  -266390.535    26085.587    15678.240    44175.028       85.946  -402852.474    50437.139       25.856       25.766        2.576        2.961        2.520        2.616        2.615        3.059        2.690        2.552        3.220        2.626        3.091        2.524        3.055        3.018        2.516        2.617        0.503        0.000        1.000        0.000        0.000        1.000        2.000        0.000        0.000        0.000        0.000        0.000        0.000        0.000        0.000        0.000        0.000        0.000        0.000        0.000        0.000        0.000        0.000        0.000        0.000        0.000        3.000        0.000        1.000        0.000        8.000        0.000        0.000        0.000        0.000        0.000      100.000        0.000        0.000        1.440        1.455        2.573
     270.000  -267227.752    26767.080    15745.423    44108.016      101.396  -402590.343    48640.677       26.053       26.051        2.560        3.039        2.572        2.632        2.546        3.090        2.639        2.585        3.229        2.657        3.059        2.488        3.032        2.962        2.531        2.622        0.497        0.000        0.000        0.000        0.000        1.000        1.000        0.000        0.000        0.000        0.000        0.000        0.000        0.000        1.000        0.000        0.000        0.000        0.000        0.000        0.000        0.000        0.000        0.000        0.000        0.000        2.000        0.000        2.000        3.000        3.000        0.000        0.000        0.000        0.000        0.000      100.000        0.000        0.000        1.679        1.690        2.920
     280.000  -266727.021    27159.959    15587.936    44227.872       80.159  -401944.120    48161.174       25.816       25.728        2.595        3.000        2.561        2.597        2.566        2.970        2.629        2.529        3.242        2.657        3.156        2.538        3.072        3.030        2.607        2.578        0.479        0.000        1.000        0.000        0.000        1.000        1.000        0.000        0.000        0.000        0.000        0.000        0.000        0.000        0.000        0.000        0.000        0.000        0.000        0.000        0.000        0.000        0.000        0.000        0.000        1.000        2.000        0.000        3.000        1.000        1.000        0.000        0.000        0.000        0.000        0.000      100.000        0.000        0.000        1.946        1.954        3.065
     290.000  -266697.460    26613.301    15901.440    44074.869      118.499  -401711.496    48305.927       25.562       25.514        2.616        3.056        2.540        2.609        2.654        3.009        2.671        2.497        3.267        2.683        3.050        2.536        3.122        2.979        2.595        2.659        0.486        0.000        0.000        0.000        0.000        1.000        0.000        0.000        0.000        0.000        0.000        0.000        0.000        0.000        0.000        0.000        0.000        0.000        0.000        0.000        0.000        0.000        0.000        0.000        0.000        0.000        1.000        0.000        4.000        2.000        6.000        0.000        0.000        0.000        4.494        0.000       95.506        0.000        0.000        2.441        2.476        3.220
     300.000  -266189.512    27170.763    15849.506    44012.658       79.199  -400031.939    46730.301       25.994       25.994        2.567        2.922        2.565        2.641        2.605        3.007        2.661        2.522        3.264        2.698        3.051        2.529        3.082        2.973        2.601        2.622        0.493        0.000        0.000        0.000        0.000        1.000        0.000        0.000        0.000        0.000        0.000        0.000        0.000        0.000        0.000        0.000        0.000        0.000        0.000        0.000        0.000        0.000        0.000        0.000        0.000        0.000        2.000        0.000        1.000        2.000        5.000        0.000        0.000        0.000        0.000        0.000      100.000        0.000        0.000        2.761        2.789        3.519
     310.000  -266412.972    26256.062    15910.859    43961.878       76.375  -401818.672    49200.527       25.953       26.000        2.582        3.080        2.540        2.629        2.637        3.055        2.656        2.540        3.261        2.674        3.066        2.480        3.150        3.000        2.628        2.605        0.493        0.000        1.000        0.000        0.000        1.000        1.000        0.000        0.000        0.000        0.000        0.000        0.000        0.000        0.000        0.000        0.000        0.000        0.000        0.000        0.000        0.000        0.000        0.000        0.000        0.000        1.000        0.000        3.000        1.000        4.000        0.000        0.000        0.000        0.000        0.000      100.000        0.000        0.000        2.319        2.338        3.022
     320.000  -265703.813    26026.704    15833.047    43846.213       67.530  -400944.865    49467.558       25.915       25.787        2.587        3.036        2.585        2.597        2.548        3.014        2.731        2.530        3.225        2.623        3.120        2.545        3.103        3.008        2.646        2.592        0.471        0.000        0.000        0.000        0.000        2.000        0.000        0.000        0.000        0.000        0.000        0.000        0.000        0.000        1.000        0.000        0.000        0.000        0.000        0.000        0.000        0.000        0.000        0.000        0.000        2.000        4.000        0.000        3.000        1.000       10.000        0.000        0.000        0.000        0.000        0.000      100.000        0.000        0.000        2.152        2.165        2.863
     330.000  -265913.728    26356.317    15839.041    44001.377       85.328  -401061.539    48865.748       26.115       25.764        2.570        2.997        2.551        2.622        2.602        3.060        2.655        2.450        3.216        2.674        3.017        2.477        3.139        3.048        2.617        2.598        0.486        0.000        1.000        0.000        0.000        1.000        1.000        0.000        0.000        0.000        0.000        0.000        0.000        1.000        1.000        0.000        0.000        0.000        0.000        0.000        0.000        0.000        0.000        0.000        0.000        0.000        1.000        0.000        5.000        1.000        3.000        0.000        0.000        0.000        0.000        0.000      100.000        0.000        0.000        2.134        2.143        3.002
     340.000  -265697.389    25336.735    15499.126    43915.687       71.182  -399285.753    48765.634       26.138       26.163        2.627        2.989        2.550        2.583        2.619        2.966        2.670        2.504        3.214        2.605        3.036        2.513        3.104        2.965        2.612        2.598        0.490        0.000        0.000        0.000        0.000        1.000        1.000        0.000        0.000        0.000        0.000        0.000        0.000        0.000        0.000        0.000        0.000        0.000        0.000        0.000        0.000        0.000        0.000        0.000        0.000        0.000        1.000        0.000        2.000        1.000        7.000        0.000        0.000        0.000        0.000        0.000      100.000        0.000        0.000        2.255        2.248        3.320
     350.000  -265244.479    25506.623    16096.129    44106.818       79.853  -399963.764    48929.862       25.894       25.688        2.631        3.013        2.544        2.619        2.597        3.049        2.697        2.477        3.162        2.661        3.089        2.485        3.136        3.072        2.654        2.648        0.474        0.000        1.000        0.000        0.000        1.000        1.000        0.000        0.000        0.000        0.000        0.000        0.000        0.000        0.000        0.000        0.000        0.000        0.000        0.000        0.000        0.000        0.000        0.000        0.000        1.000        2.000        0.000        2.000        0.000        8.000        0.000        0.000        0.000        0.000        0.000      100.000        0.000        0.000        2.348        2.351        3.441
     360.000  -266624.514    24890.955    15797.209    44189.766       83.096  -401667.708    50082.168       25.624       25.711        2.612        3.074        2.566        2.614        2.520        3.126        2.646        2.503        3.241        2.700        3.133        2.600        3.082        3.023        2.620        2.567        0.478        0.000        1.000        0.000        0.000        2.000        2.000        0.000        0.000        0.000        0.000        0.000        0.000        0.000        0.000        0.000        0.000        0.000        0.000        0.000        0.000        0.000        0.000        0.000        0.000        0.000        1.000        0.000        1.000        0.000        1.000        0.000        0.000        0.000        0.000        0.000      100.000        0.000        0.000        2.423        2.428        3.435
     370.000  -265682.727    25595.789    15638.757    44131.801       84.857  -400175.750    49041.818       25.638       25.640        2.651        3.047        2.613        2.645        2.545        3.062        2.638        2.529        3.212        2.602        3.084        2.539        3.103        2.938        2.606        2.602        0.479        0.000        0.000        0.000        0.000        2.000        1.000        0.000        0.000        0.000        0.000        0.000        0.000        0.000        0.000        0.000        0.000        0.000        0.000        0.000        0.000        0.000        0.000        0.000        0.000        0.000        5.000        0.000        2.000        0.000        4.000        0.000        0.000        0.000        0.000        0.000      100.000        0.000        0.000        2.389        2.401        3.394
     380.000  -265366.535    26728.669    15642.287    44134.870       79.980  -400267.830    48315.489       25.614       25.711        2.656        3.042        2.566        2.669        2.602        3.015        2.704        2.520        3.194        2.654        3.086        2.543        3.140        2.909        2.624        2.616        0.471        0.000        1.000        0.000        1.000        2.000        1.000        0.000        0.000        0.000        0.000        0.000        0.000        0.000        0.000        0.000        0.000        0.000        0.000        0.000        0.000        0.000        0.000        0.000        0.000        1.000        1.000        0.000        0.000        0.000        5.000        0.000        0.000        0.000        0.000        0.000      100.000        0.000        0.000        2.179        2.202        3.207
     390.000  -265421.713    26689.390    15692.366    44088.861       86.742  -398857.683    46878.610       25.773       25.630        2.585        2.907        2.555        2.591        2.609        3.067        2.734        2.510        3.235        2.639        3.041        2.479        3.029        3.026        2.687        2.609        0.474        0.000        0.000        0.000        1.000        2.000        1.000        0.000        0.000        0.000        0.000        0.000        0.000        0.000        0.000        0.000        0.000        0.000        0.000        0.000        0.000        0.000        0.000        0.000        0.000        1.000        1.000        0.000        2.000        2.000        6.000        0.000        0.000        0.000        0.000        0.000      100.000        0.000        0.000        2.018        2.042        2.973
     400.000  -265509.481    26115.535    15794.803    43977.485       74.256  -399619.830    48148.271       26.120       25.729        2.589        3.004        2.549        2.596        2.510        3.009        2.668        2.547        3.210        2.639        3.076        2.564        3.082        2.958        2.572        2.661        0.481        0.000        1.000        0.000        1.000        2.000        1.000        0.000        0.000        0.000        0.000        0.000        0.000        1.000        0.000        0.000        0.000        0.000        0.000        0.000        0.000        0.000        0.000        0.000        0.000        2.000        0.000        0.000        2.000        0.000        7.000        0.000        0.000        0.000        0.000        0.000      100.000        0.000        0.000        1.796        1.801        2.795
     410.000  -265586.520    26558.168    15767.659    44251.465       82.596  -400596.979    48350.572       26.216       26.195        2.572        2.966        2.552        2.605        2.509        2.916        2.737        2.545        3.211        2.628        3.063        2.548        3.011        2.941        2.691        2.635        0.497        0.000        0.000        0.000        1.000        1.000        0.000        0.000        0.000        0.000        0.000        0.000        0.000        0.000        1.000        0.000        0.000        0.000        0.000        0.000        0.000        0.000        0.000        0.000        0.000        2.000        1.000        0.000        2.000        0.000        9.000        0.000        0.000        0.000        0.000        0.000      100.000        0.000        0.000        1.867        1.844        2.908
     420.000  -265122.869    26586.174    15909.019    44083.729       74.930  -399614.001    47837.279       25.760       25.935        2.573        3.048        2.560        2.593        2.580        3.051        2.645        2.508        3.204        2.647        3.024        2.503        3.007        3.004        2.689        2.657        0.483        1.000        1.000        0.000        1.000        2.000        0.000        0.000        0.000        0.000        0.000        0.000        0.000        0.000        1.000        0.000        0.000        0.000        0.000        0.000        0.000        0.000        0.000        0.000        0.000        0.000        0.000        0.000        3.000        0.000        6.000        0.000        0.000        0.000        0.000        0.000      100.000        0.000        0.000        1.858        1.870        3.080
     430.000  -265717.611    26387.282    15755.122    44066.291       60.852  -398974.706    46987.547       25.961       25.969        2.579        2.996        2.582        2.606        2.535        3.031        2.693        2.525        3.214        2.639        3.083        2.558        3.070        3.005        2.657        2.574        0.489        0.000        0.000        0.000        1.000        2.000        0.000        0.000        0.000        0.000        0.000        0.000        0.000        0.000        0.000        0.000        0.000        0.000        0.000        0.000        0.000        0.000        0.000        0.000        0.000        0.000        0.000        0.000        1.000        1.000        7.000        0.000        0.000        0.000        0.000        0.000      100.000        0.000        0.000        1.862        1.889        2.947
     440.000  -264791.866    25353.625    15858.056    44252.848       78.387  -399090.450    48755.669       25.858       25.990        2.570        2.897        2.545        2.628        2.512        3.025        2.721        2.528        3.207        2.662        3.010        2.550        3.115        2.988        2.636        2.580        0.488        0.000        0.000        0.000        1.000        2.000        1.000        0.000        0.000        0.000        0.000        0.000        1.000        0.000        0.000        0.000        0.000        0.000        0.000        0.000        0.000        0.000        0.000        0.000        0.000        1.000        1.000        0.000        3.000        0.000        5.000        0.000        0.000        0.000        0.000        0.000      100.000        0.000        0.000        2.326        2.324        3.230
     450.000  -264488.311    26151.704    15775.506    44246.755      109.687  -399783.007    49011.043       26.091       25.721        2.512        2.973        2.597        2.596        2.528        3.047        2.680        2.565        3.234        2.652        3.120        2.523        3.030        3.012        2.684        2.597        0.474        0.000        1.000        0.000        0.000        2.000        0.000        0.000        0.000        0.000        0.000        0.000        0.000        0.000        0.000        0.000        0.000        0.000        0.000        0.000        0.000        0.000        0.000        0.000        0.000        1.000        1.000        0.000        0.000        1.000        6.000        0.000        0.000        0.000        0.000        0.000      100.000        0.000        0.000        2.147        2.160        3.227
     460.000  -264983.418    25303.204    15538.059    43890.518       79.703  -398744.873    48949.972       25.878       25.710        2.572        2.950        2.529        2.617        2.578        3.020        2.699        2.528        3.241        2.637        3.064        2.549        3.042        3.039        2.657        2.606        0.506        0.000        1.000        0.000        1.000        2.000        0.000        0.000        0.000        0.000        0.000        0.000        0.000        0.000        1.000        0.000        0.000        0.000        0.000        0.000        0.000        0.000        0.000        0.000        0.000        3.000        3.000        0.000        0.000        1.000       13.000        0.000        0.000        0.000        0.000        0.000      100.000        0.000        0.000        2.462        2.456        3.483
     470.000  -265437.282    25712.591    15718.856    44122.749       91.219  -400465.660    49382.963       25.834       25.826        2.587        2.949        2.561        2.656        2.508        3.069        2.718        2.517        3.215        2.649        3.020        2.549        3.009        3.002        2.683        2.605        0.491        0.000        1.000        0.000        1.000        2.000        0.000        0.000        0.000        0.000        0.000        0.000        0.000        0.000        1.000        0.000        0.000        0.000        0.000        0.000        0.000        0.000        0.000        0.000        0.000        1.000        0.000        0.000        0.000        1.000        5.000        0.000        0.000        0.000        0.000        0.000      100.000        0.000        0.000        2.009        1.997        3.247
     480.000  -265183.016    27113.186    15459.836    43915.627       98.557  -398935.452    47165.229       25.812       25.953        2.531        3.020        2.585        2.591        2.598        2.981        2.681        2.512        3.237        2.678        3.047        2.529        3.025        2.976        2.675        2.544        0.478        0.000        1.000        0.000        1.000        2.000        0.000        0.000        0.000        0.000        0.000        0.000        0.000        0.000        0.000        0.000        0.000        0.000        0.000        0.000        0.000        0.000        0.000        0.000        0.000        2.000        1.000        0.000        1.000        1.000        5.000        0.000        0.000        0.000        0.000        0.000      100.000        0.000        0.000        2.205        2.203        3.414
     490.000  -265556.525    25908.536    15617.334    44030.732       71.120  -398360.137    47175.888       26.124       25.999        2.546        3.011        2.555        2.583        2.626        2.995        2.673        2.436        3.291        2.588        3.059        2.528        3.023        3.014        2.657        2.587        0.490        1.000        1.000        0.000        1.000        2.000        0.000        0.000        0.000        0.000        0.000        0.000        1.000        0.000        1.000        0.000        0.000        0.000        0.000        0.000        0.000        0.000        0.000        0.000        0.000        0.000        6.000        0.000        1.000        0.000        5.000        0.000        0.000        0.000        0.000        0.000      100.000        0.000        0.000        2.251        2.244        3.313
     500.000  -265980.815    26398.533    15474.451    43969.714       86.050  -401073.022    49163.459       25.796       25.723        2.545        3.064        2.585        2.642        2.574        2.992        2.653        2.509        3.250        2.608        2.996        2.585        3.072        3.037        2.685        2.575        0.491        0.000        1.000        0.000        1.000        2.000        1.000        0.000        0.000        0.000        0.000        0.000        0.000        0.000        0.000        0.000        0.000        0.000        0.000        0.000        0.000        0.000        0.000        0.000        0.000        2.000        1.000        0.000        2.000        0.000        7.000        0.000        0.000        0.000        0.000        0.000      100.000        0.000        0.000        2.266        2.273        3.473
     510.000  -265404.658    25021.738    16021.478    43897.276       85.137  -399144.938    48714.651       25.696       25.899        2.570        3.051        2.562        2.649        2.512        2.973        2.661        2.508        3.223        2.622        3.010        2.563        3.033        3.022        2.696        2.655        0.492        1.000        1.000        0.000        1.000        2.000        1.000        0.000        0.000        0.000        0.000        0.000        0.000        0.000        1.000        0.000        0.000        0.000        0.000        0.000        0.000        0.000        0.000        0.000        0.000        0.000        1.000        0.000        1.000        0.000        2.000        0.000        0.000        0.000        0.000        0.000      100.000        0.000        0.000        2.067        2.073        3.193
     520.000  -266354.648    25615.304    15823.397    43910.318       84.658  -400584.249    48795.923       25.767       25.925        2.552        3.028        2.585        2.663        2.573        3.031        2.686        2.500        3.207        2.672        3.049        2.538        3.031        3.048        2.623        2.613        0.472        1.000        1.000        0.000        1.000        2.000        1.000        0.000        0.000        0.000        0.000        0.000        0.000        0.000        0.000        0.000        0.000        0.000        0.000        0.000        0.000        0.000        0.000        0.000        0.000        0.000        4.000        0.000        2.000        0.000        4.000        0.000        0.000        0.000        0.000        0.000      100.000        0.000        0.000        1.982        1.966        3.335
     530.000  -264742.648    26288.827    15914.448    43909.018       78.194  -399370.712    48437.577       25.893       25.782        2.573        3.065        2.592        2.571        2.566        2.965        2.644        2.514        3.241        2.635        2.999        2.452        3.138        3.010        2.688        2.595        0.483        1.000        1.000        0.000        1.000        2.000        2.000        0.000        0.000        0.000        0.000        0.000        0.000        0.000        0.000        0.000        0.000        0.000        0.000        0.000        0.000        0.000        0.000        0.000        0.000        0.000        2.000        0.000        0.000        1.000        6.000        0.000        0.000        0.000        0.000        0.000      100.000        0.000        0.000        1.903        1.896        3.184
     540.000  -265200.231    26222.636    15797.150    44166.041       90.326  -399890.085    48413.701       26.024       26.157        2.572        3.075        2.583        2.577        2.535        3.041        2.696        2.535        3.259        2.638        3.054        2.548        3.071        3.003        2.619        2.595        0.482        0.000        1.000        0.000        1.000        2.000        0.000        0.000        0.000        0.000        0.000        0.000        0.000        0.000        1.000        0.000        0.000        0.000        0.000        0.000        0.000        0.000        0.000        0.000        0.000        0.000        1.000        0.000        1.000        1.000        5.000        0.000        0.000        0.000        0.000        0.000      100.000        0.000        0.000        1.902        1.912        3.403
     550.000  -264441.478    25810.439    15929.418    43935.633       91.985  -400388.265    50179.311       26.031       25.913        2.606        3.095        2.572        2.621        2.590        2.996        2.650        2.363        3.254        2.639        3.044        2.543        3.062        2.992        2.636        2.556        0.456        0.000        1.000        0.000        1.000        2.000        1.000        0.000        0.000        0.000        0.000        0.000        0.000        0.000        0.000        0.000        0.000        0.000        0.000        0.000        0.000        0.000        0.000        0.000        0.000        1.000        2.000        0.000        1.000        0.000        0.000        0.000        0.000        0.000        0.000        0.000      100.000        0.000        0.000        1.655        1.656        3.246
     560.000  -265132.863    25162.266    15673.877    44006.392      106.036  -400008.450    49927.016       25.961       25.703        2.599        3.110        2.524        2.661        2.626        3.034        2.634        2.532        3.238        2.684        3.076        2.518        3.021        2.997        2.630        2.586        0.472        1.000        1.000        0.000        1.000        2.000        2.000        0.000        0.000        0.000        0.000        0.000        1.000        0.000        1.000        0.000        0.000        0.000        0.000        0.000        0.000        0.000        0.000        0.000        0.000        2.000        1.000        0.000        1.000        1.000        6.000        0.000        0.000        0.000        0.000        0.000      100.000        0.000        0.000        1.838        1.832        3.235
     570.000  -265832.704    25476.867    15499.248    44299.532       83.172  -400094.518    48902.996       25.675       25.521        2.603        3.154        2.538        2.592        2.569        2.973        2.689        2.512        3.227        2.669        3.113        2.468        2.967        3.032        2.698        2.588        0.497        0.000        1.000        0.000        1.000        2.000        2.000        0.000        0.000        0.000        0.000        0.000        0.000        0.000        0.000        0.000        0.000        0.000        0.000        0.000        0.000        0.000        0.000        0.000        0.000        0.000        2.000        0.000        1.000        0.000        4.000        0.000        0.000        0.000        0.000        0.000      100.000        0.000        0.000        1.741        1.759        3.349
     580.000  -265207.884    25565.772    15783.105    44096.954       87.068  -400832.767    50091.984       25.872       25.800        2.569        3.215        2.549        2.590        2.608        3.015        2.718        2.525        3.252        2.626        3.138        2.484        3.074        3.007        2.655        2.653        0.484        0.000        1.000        0.000        1.000        2.000        2.000        0.000        0.000        0.000        0.000        0.000        0.000        0.000        0.000        0.000        0.000        0.000        0.000        0.000        0.000        0.000        0.000        0.000        0.000        0.000        3.000        0.000        3.000        0.000        6.000        0.000        0.000        0.000        0.000        0.000      100.000        0.000        0.000        1.754        1.769        3.373
     590.000  -265489.991    25444.242    15811.173    44444.716       79.465  -401406.433    50136.846       25.999       25.426        2.564        3.147        2.509        2.566        2.464        3.015        2.682        2.532        3.170        2.680        3.143        2.552        3.063        3.010        2.641        2.637        0.500        0.000        1.000        0.000        1.000        2.000        1.000        0.000        0.000        0.000        0.000        0.000        0.000        0.000        1.000        0.000        0.000        0.000        0.000        0.000        0.000        0.000        0.000        0.000        0.000        1.000        1.000        0.000        1.000        0.000        7.000        0.000        0.000        0.000        0.000        0.000      100.000        0.000        0.000        1.703        1.692        3.294
     600.000  -266168.505    25704.156    15942.080    44113.083       81.885  -400038.764    48029.055       26.026       25.836        2.548        3.128        2.533        2.599        2.549        3.047        2.731        2.550        3.250        2.703        3.184        2.514        3.092        3.060        2.640        2.609        0.486        0.000        1.000        0.000        1.000        2.000        0.000        0.000        0.000        0.000        0.000        0.000        0.000        0.000        0.000        0.000        0.000        0.000        0.000        0.000        0.000        0.000        0.000        0.000        0.000        1.000        2.000        0.000        2.000        0.000        1.000        0.000        0.000        0.000        0.000        0.000      100.000        0.000        0.000        1.813        1.777        3.430
     610.000  -265280.842    25189.499    15940.639    44026.919       67.220  -399248.282    48743.163       26.072       25.923        2.558        3.121        2.543        2.578        2.530        3.020        2.605        2.551        3.166        2.681        3.146        2.449        3.078        2.988        2.684        2.588        0.481        0.000        1.000        0.000        1.000        2.000        1.000        0.000        0.000        0.000        0.000        0.000        0.000        0.000        0.000        0.000        0.000        0.000        0.000        0.000        0.000        0.000        0.000        0.000        0.000        1.000        0.000        0.000        1.000        0.000        6.000        0.000        0.000        0.000        0.000        0.000      100.000        0.000        0.000        1.794        1.796        3.264
     620.000  -265066.927    24670.299    15831.045    44160.458       93.529  -398212.884    48390.626       25.761       25.688        2.509        3.104        2.493        2.595        2.493        3.031        2.686        2.497        3.247        2.675        3.089        2.514        3.066        2.941        2.661        2.611        0.464        0.000        1.000        0.000        1.000        2.000        0.000        0.000        0.000        0.000        0.000        0.000        0.000        0.000        0.000        0.000        0.000        0.000        0.000        0.000        0.000        0.000        0.000        0.000        0.000        1.000        0.000        0.000        1.000        0.000        3.000        0.000        0.000        0.000        0.000        0.000      100.000        0.000        0.000        1.416        1.402        2.956
     630.000  -265846.564    26654.188    15879.570    43910.110       86.646  -400155.828    47778.751       26.062       25.861        2.529        3.092        2.615        2.588        2.496        3.070        2.673        2.444        3.243        2.663        3.140        2.525        3.104        3.027        2.625        2.632        0.480        0.000        1.000        0.000        1.000        2.000        0.000        0.000        0.000        0.000        0.000        0.000        0.000        0.000        2.000        0.000        0.000        0.000        0.000        0.000        0.000        0.000        0.000        0.000        0.000        1.000        2.000        0.000        1.000        0.000        6.000        0.000        0.000        0.000        0.000        0.000      100.000        0.000        0.000        1.667        1.648        3.170
     640.000  -265658.611    26452.538    15473.018    44023.406       71.613  -400195.347    48516.160       25.990       25.861        2.521        3.114        2.533        2.609        2.519        3.015        2.671        2.545        3.226        2.632        3.173        2.523        3.099        2.988        2.679        2.674        0.477        1.000        1.000        0.000        1.000        2.000        0.000        0.000        0.000        0.000        0.000        0.000        0.000        1.000        1.000        0.000        0.000        0.000        0.000        0.000        0.000        0.000        0.000        0.000        0.000        0.000        2.000        0.000        0.000        0.000        5.000        0.000        0.000        0.000        0.000        0.000      100.000        0.000        0.000        1.635        1.604        3.096
     650.000  -265040.930    26043.330    15635.390    44133.051       65.565  -398717.042    47798.776       26.227       25.747        2.554        3.129        2.536        2.613        2.530        3.094        2.617        2.516        3.217        2.626        3.168        2.545        3.022        2.998        2.648        2.592        0.525        1.000        1.000        0.000        1.000        2.000        0.000        0.000        0.000        0.000        0.000        0.000        0.000        0.000        1.000        0.000        0.000        0.000        0.000        0.000        0.000        0.000        0.000        0.000        0.000        1.000        2.000        0.000        1.000        0.000        4.000        0.000        0.000        0.000        0.000        0.000      100.000        0.000        0.000        1.845        1.843        3.351
     660.000  -265587.068    26829.188    15618.209    43922.302       88.127  -399780.004    47735.110       26.260       25.910        2.618        3.001        2.591        2.592        2.556        3.066        2.731        2.551        3.204        2.652        3.110        2.524        3.195        3.040        2.688        2.579        0.470        0.000        1.000        0.000        1.000        2.000        0.000        0.000        0.000        0.000        0.000        0.000        0.000        0.000        1.000        0.000        0.000        0.000        0.000        0.000        0.000        0.000        0.000        0.000        0.000        1.000        1.000        0.000        1.000        1.000        4.000        0.000        0.000        0.000        0.000        0.000      100.000        0.000        0.000        2.033        2.036        3.411
     670.000  -266142.366    26387.650    15301.874    43970.566       80.092  -400884.803    49002.256       25.570       25.001        2.564        3.081        2.560        2.558        2.534        2.949        2.644        2.549        3.216        2.637        3.193        2.545        3.110        3.031        2.644        2.557        0.468        0.000        1.000        0.000        1.000        2.000        0.000        0.000        0.000        0.000        0.000        0.000        0.000        0.000        1.000        0.000        0.000        0.000        0.000        0.000        0.000        0.000        0.000        0.000        0.000        1.000        1.000        0.000        1.000        0.000        3.000        0.000        0.000        0.000        0.000        0.000      100.000        0.000        0.000        2.378        2.386        3.582
     680.000  -265209.123    25756.996    15499.069    44142.344       77.775  -399861.539    49176.232       25.722       25.483        2.572        3.077        2.522        2.620        2.569        3.070        2.663        2.437        3.236        2.678        3.101        2.531        3.061        2.963        2.650        2.577        0.490        0.000        1.000        0.000        1.000        2.000        0.000        0.000        0.000        0.000        0.000        0.000        0.000        0.000        1.000        0.000        0.000        0.000        0.000        0.000        0.000        0.000        0.000        0.000        0.000        1.000        1.000        0.000        1.000        0.000        5.000        0.000        0.000        0.000        0.000        0.000      100.000        0.000        0.000        2.114        2.093        3.475
     690.000  -265952.151    26353.375    15633.600    44060.676       95.089  -399080.679    46985.789       25.869       25.548        2.542        3.133        2.534        2.646        2.547        3.035        2.673        2.587        3.181        2.666        3.104        2.517        3.048        2.988        2.653        2.607        0.487        1.000        1.000        0.000        1.000        2.000        0.000        0.000        0.000        0.000        0.000        0.000        0.000        0.000        1.000        0.000        0.000        0.000        0.000        0.000        0.000        0.000        0.000        0.000        0.000        0.000        2.000        0.000        2.000        1.000        2.000        0.000        0.000        0.000        0.000        0.000      100.000        0.000        0.000        1.982        1.953        3.369
     700.000  -265660.370    25697.559    15766.295    44122.433       76.770  -400836.454    49513.026       25.790       25.746        2.539        3.134        2.540        2.653        2.589        3.008        2.706        2.521        3.205        2.657        3.124        2.515        2.973        3.055        2.618        2.633        0.506        0.000        1.000        0.000        1.000        2.000        0.000        0.000        0.000        0.000        0.000        0.000        0.000        0.000        0.000        0.000        0.000        0.000        0.000        0.000        0.000        0.000        0.000        0.000        0.000        1.000        3.000        0.000        1.000        0.000        2.000        0.000        0.000        0.000        0.000        0.000      100.000        0.000        0.000        1.872        1.889        3.238
     710.000  -264705.656    26072.278    16036.190    43980.801       69.779  -399625.118    48760.414       25.855       25.790        2.535        3.109        2.502        2.612        2.631        3.011        2.653        2.520        3.185        2.677        3.160        2.499        3.015        3.057        2.597        2.642        0.476        1.000        1.000        0.000        1.000        2.000        2.000        0.000        0.000        0.000        0.000        0.000        0.000        0.000        1.000        0.000        0.000        0.000        0.000        0.000        0.000        0.000        0.000        0.000        0.000        0.000        3.000        0.000        2.000        0.000        5.000        0.000        0.000        0.000        0.000        0.000      100.000        0.000        0.000        1.942        1.923        3.204
     720.000  -265286.803    25578.040    15991.852    44057.249       88.515  -399383.181    48380.721       25.894       25.692        2.559        3.108        2.525        2.607        2.603        3.063        2.664        2.471        3.206        2.674        3.214        2.612        3.144        3.035        2.587        2.673        0.507        1.000        1.000        0.000        1.000        2.000        0.000        0.000        0.000        0.000        0.000        0.000        1.000        0.000        1.000        0.000        0.000        0.000        0.000        0.000        0.000        0.000        0.000        0.000        0.000        0.000        2.000        0.000        2.000        0.000        7.000        0.000        0.000        0.000        0.000        0.000      100.000        0.000        0.000        1.721        1.722        3.139
     730.000  -265783.096    26946.842    15312.202    44186.021       95.696  -399820.834    47496.976       25.795       25.733        2.501        3.079        2.540        2.639        2.564        3.000        2.631        2.457        3.225        2.668        3.190        2.496        3.133        2.944        2.594        2.656        0.496        0.000        1.000        0.000        1.000        2.000        0.000        0.000        0.000        0.000        0.000        0.000        0.000        0.000        2.000        0.000        0.000        0.000        0.000        0.000        0.000        0.000        0.000        0.000        0.000        0.000        0.000        0.000        1.000        0.000        5.000        0.000        0.000        0.000        0.000        0.000      100.000        0.000        0.000        2.162        2.166        3.216
     740.000  -266124.778    27124.939    15578.688    43958.396       71.398  -400551.404    47693.204       25.906       26.091        2.595        3.068        2.527        2.683        2.584        2.930        2.619        2.515        3.198        2.651        3.173        2.563        3.043        2.986        2.652        2.589        0.500        0.000        1.000        0.000        1.000        2.000        0.000        0.000        0.000        0.000        0.000        0.000        0.000        0.000        1.000        0.000        0.000        0.000        0.000        0.000        0.000        0.000        0.000        0.000        0.000        0.000        4.000        0.000        0.000        0.000        5.000        0.000        0.000        0.000        0.000        0.000      100.000        0.000        0.000        2.157        2.165        3.344
     750.000  -265342.471    26258.051    15579.401    44066.004      100.590  -400708.290    49361.773       25.752       25.610        2.550        3.124        2.521        2.675        2.602        3.033        2.641        2.411        3.204        2.616        3.133        2.552        3.122        3.018        2.662        2.611        0.493        0.000        1.000        0.000        1.000        1.000        0.000        0.000        0.000        0.000        0.000        0.000        0.000        0.000        0.000        0.000        0.000        0.000        0.000        0.000        0.000        0.000        0.000        0.000        0.000        1.000        1.000        0.000        2.000        0.000        5.000        0.000        0.000        0.000        0.000        0.000      100.000        0.000        0.000        2.081        2.087        3.281
     760.000  -265657.833    25857.829    15513.056    44085.912       72.454  -399029.771    47842.687       25.823       25.481        2.515        3.106        2.565        2.603        2.575        2.968        2.679        2.447        3.205        2.656        3.134        2.542        3.066        2.936        2.582        2.611        0.468        0.000        1.000        0.000        1.000        2.000        0.000        0.000        0.000        0.000        0.000        0.000        0.000        0.000        0.000        0.000        0.000        0.000        0.000        0.000        0.000        0.000        0.000        0.000        0.000        0.000        2.000        0.000        3.000        0.000        4.000        0.000        0.000        0.000        0.000        0.000      100.000        0.000        0.000        2.161        2.167        3.380
     770.000  -265078.412    25823.337    15157.178    44273.204       82.024  -399646.436    49232.281       25.835       25.415        2.526        3.060        2.509        2.568        2.535        3.031        2.668        2.473        3.267        2.650        3.117        2.458        3.020        2.792        2.623        2.652        0.493        0.000        1.000        0.000        1.000        2.000        0.000        0.000        0.000        0.000        0.000        0.000        0.000        0.000        2.000        0.000        0.000        0.000        0.000        0.000        0.000        0.000        0.000        0.000        0.000        0.000        2.000        0.000        1.000        1.000        6.000        0.000        0.000        0.000        0.000        0.000      100.000        0.000        0.000        1.876        1.889        3.063
     780.000  -265574.541    27115.449    15254.251    43878.922       84.756  -399313.347    47405.428       26.276       25.930        2.505        3.119        2.525        2.585        2.604        2.935        2.733        2.521        3.211        2.690        3.097        2.524        2.992        2.965        2.643        2.612        0.478        1.000        0.000        0.000        1.000        2.000        0.000        0.000        0.000        0.000        0.000        0.000        0.000        1.000        1.000        0.000        0.000        0.000        0.000        0.000        0.000        0.000        0.000        0.000        0.000        0.000        1.000        0.000        2.000        0.000        5.000        0.000        0.000        0.000        0.000        0.000      100.000        0.000        0.000        2.264        2.257        3.250
     790.000  -265686.929    26996.849    15426.930    44151.429       74.823  -400766.421    48429.460       25.821       25.919        2.507        3.153        2.545        2.567        2.590        3.032        2.673        2.477        3.198        2.691        3.147        2.517        3.100        2.946        2.592        2.633        0.462        1.000        1.000        0.000        1.000        2.000        0.000        0.000        0.000        0.000        0.000        0.000        0.000        0.000        2.000        0.000        0.000        0.000        0.000        0.000        0.000        0.000        0.000        0.000        0.000        1.000        0.000        0.000        2.000        1.000        5.000        0.000        0.000        0.000        0.000        0.000      100.000        0.000        0.000        2.106        2.117        3.118
     800.000  -265440.273    25920.772    15283.697    44069.290       73.137  -399399.781    48612.612       25.850       25.676        2.600        3.030        2.600        2.607        2.558        2.949        2.664        2.490        3.298        2.625        3.148        2.500        3.002        2.860        2.614        2.563        0.498        0.000        1.000        0.000        1.000        2.000        1.000        0.000        0.000        0.000        0.000        0.000        0.000        0.000        0.000        0.000        0.000        0.000        0.000        0.000        0.000        0.000        0.000        0.000        0.000        1.000        1.000        0.000        1.000        1.000        2.000        0.000        0.000        0.000        0.000        0.000      100.000        0.000        0.000        2.039        2.034        3.161
     810.000  -265157.407    25899.720    15670.505    43986.244       96.664  -398859.631    48049.091       26.081       25.992        2.604        3.047        2.537        2.608        2.567        3.012        2.635        2.437        3.236        2.662        3.156        2.501        3.095        3.005        2.629        2.626        0.476        1.000        1.000        0.000        1.000        2.000        2.000        0.000        0.000        0.000        0.000        0.000        1.000        0.000        2.000        0.000        0.000        0.000        0.000        0.000        0.000        0.000        0.000        0.000        0.000        0.000        1.000        0.000        1.000        1.000        4.000        0.000        0.000        0.000        0.000        0.000      100.000        0.000        0.000        1.911        1.917        2.994
     820.000  -265396.046    26264.796    15433.143    43883.389      102.249  -398788.364    47708.741       26.137       25.895        2.570        3.039        2.607        2.600        2.566        3.017        2.644        2.478        3.236        2.697        3.080        2.501        3.217        3.023        2.599        2.618        0.490        1.000        0.000        0.000        1.000        2.000        1.000        0.000        0.000        1.000        0.000        0.000        0.000        0.000        0.000        0.000        0.000        0.000        0.000        0.000        0.000        0.000        0.000        0.000        0.000        0.000        0.000        0.000        4.000        1.000        4.000        0.000        0.000        0.000        0.000        0.000      100.000        0.000        0.000        2.120        2.143        3.275
     830.000  -265636.066    26748.018    15279.575    44053.020       88.606  -399045.241    47239.956       25.913       25.817        2.597        3.076        2.577        2.557        2.606        2.995        2.689        2.513        3.202        2.626        3.120        2.603        3.055        2.951        2.576        2.592        0.521        1.000        1.000        0.000        1.000        2.000        1.000        0.000        0.000        0.000        0.000        0.000        1.000        0.000        1.000        0.000        0.000        0.000        0.000        0.000        0.000        0.000        0.000        0.000        0.000        0.000        3.000        0.000        2.000        1.000        4.000        0.000        0.000        0.000        0.000        0.000      100.000        0.000        0.000        2.356        2.376        3.393
     840.000  -264951.104    25371.491    15451.585    44144.364       78.954  -399719.587    49722.090       26.099       25.932        2.558        2.998        2.598        2.690        2.572        2.974        2.623        2.492        3.226        2.658        3.144        2.491        3.088        2.972        2.663        2.630        0.480        0.000        1.000        0.000        1.000        2.000        1.000        0.000        0.000        0.000        0.000        0.000        0.000        0.000        1.000        0.000        0.000        0.000        0.000        0.000        0.000        0.000        0.000        0.000        0.000        0.000        0.000        0.000        2.000        1.000        5.000        0.000        0.000        0.000        0.000        0.000      100.000        0.000        0.000        2.082        2.088        3.209
     850.000  -265424.361    26064.684    15582.651    44053.786       90.974  -397775.240    46558.785       26.060       25.986        2.570        2.963        2.484        2.583        2.640        3.006        2.699        2.434        3.222        2.604        3.064        2.556        3.075        2.934        2.661        2.619        0.514        1.000        1.000        0.000        1.000        2.000        1.000        0.000        0.000        0.000        0.000        0.000        0.000        1.000        1.000        0.000        0.000        0.000        0.000        0.000        0.000        0.000        0.000        0.000        0.000        1.000        2.000        0.000        0.000        0.000       10.000        0.000        0.000        0.000        0.000        0.000      100.000        0.000        0.000        2.017        2.050        3.096
     860.000  -264981.763    24946.375    15337.597    44158.561       86.143  -398680.075    49169.636       26.078       25.797        2.532        3.064        2.544        2.588        2.550        3.021        2.617        2.490        3.246        2.695        3.085        2.529        3.136        2.961        2.599        2.584        0.464        1.000        0.000        0.000        1.000        2.000        1.000        0.000        0.000        0.000        0.000        0.000        1.000        0.000        2.000        0.000        0.000        0.000        0.000        0.000        0.000        0.000        0.000        0.000        0.000        0.000        1.000        0.000        1.000        0.000        5.000        0.000        0.000        0.000        0.000        0.000      100.000        0.000        0.000        1.891        1.905        3.058
     870.000  -265387.165    25914.481    15110.595    44180.003       83.032  -398749.958    48074.682       25.872       25.818        2.538        3.083        2.540        2.580        2.621        3.157        2.648        2.492        3.209        2.660        3.139        2.510        3.096        2.898        2.568        2.571        0.484        0.000        1.000        0.000        0.000        2.000        2.000        0.000        0.000        0.000        0.000        0.000        0.000        0.000        1.000        0.000        0.000        0.000        0.000        0.000        0.000        0.000        0.000        0.000        0.000        1.000        0.000        0.000        2.000        0.000        3.000        0.000        0.000        0.000        0.000        0.000      100.000        0.000        0.000        2.440        2.481        3.485
     880.000  -265103.541    26921.557    15443.334    44082.643       80.427  -398431.884    46800.383       25.875       25.931        2.574        3.103        2.552        2.592        2.626        3.034        2.665        2.515        3.253        2.673        3.134        2.495        3.141        2.953        2.696        2.606        0.493        1.000        0.000        0.000        1.000        2.000        2.000        0.000        0.000        0.000        0.000        0.000        0.000        0.000        2.000        0.000        0.000        0.000        0.000        0.000        0.000        0.000        0.000        0.000        0.000        0.000        3.000        0.000        3.000        0.000        5.000        0.000        0.000        0.000        0.000        0.000      100.000        0.000        0.000        2.218        2.278        3.386
     890.000  -264913.204    25692.661    15342.627    44059.337       97.086  -397465.226    47360.312       25.774       25.520        2.565        3.104        2.540        2.604        2.599        3.017        2.652        2.466        3.173        2.669        3.133        2.478        3.056        2.959        2.679        2.617        0.490        1.000        0.000        0.000        1.000        2.000        1.000        0.000        0.000        0.000        0.000        0.000        0.000        0.000        0.000        0.000        0.000        0.000        0.000        0.000        0.000        0.000        0.000        0.000        0.000        1.000        2.000        0.000        0.000        1.000        6.000        0.000        0.000        0.000        0.000        0.000      100.000        0.000        0.000        1.873        1.916        3.112
     900.000  -265209.526    24817.029    15176.508    44490.418       87.000  -399265.048    49484.567       25.514       25.484        2.585        3.105        2.572        2.661        2.629        3.040        2.684        2.514        3.193        2.592        3.193        2.512        3.120        2.930        2.694        2.619        0.518        0.000        1.000        0.000        1.000        2.000        3.000        0.000        0.000        0.000        0.000        0.000        0.000        1.000        1.000        0.000        0.000        0.000        0.000        0.000        0.000        0.000        0.000        0.000        0.000        1.000        0.000        0.000        0.000        0.000        5.000        0.000        0.000        0.000        0.000        0.000      100.000        0.000        0.000        1.549        1.617        2.946
     910.000  -264526.841    26910.513    15620.296    44136.407       84.900  -397126.368    45847.411       25.403       25.549        2.562        3.065        2.578        2.591        2.632        2.987        2.702        2.550        3.273        2.634        3.139        2.545        3.061        2.947        2.668        2.628        0.497        1.000        1.000        0.000        1.000        1.000        1.000        0.000        0.000        0.000        0.000        0.000        0.000        0.000        1.000        0.000        0.000        0.000        0.000        0.000        0.000        0.000        0.000        0.000        0.000        0.000        0.000        0.000        2.000        1.000        6.000        0.000        0.000        0.000        0.000        0.000      100.000        0.000        0.000        2.033        2.090        3.147
     920.000  -264834.503    26776.128    15206.072    44063.067       80.950  -398091.707    47130.986       25.551       25.780        2.609        3.109        2.468        2.674        2.525        3.039        2.672        2.547        3.229        2.685        3.117        2.504        3.047        2.969        2.704        2.611        0.491        1.000        0.000        0.000        1.000        2.000        1.000        0.000        0.000        0.000        0.000        0.000        0.000        0.000        1.000        0.000        0.000        0.000        0.000        0.000        0.000        0.000        0.000        0.000        0.000        0.000        3.000        0.000        0.000        0.000        7.000        0.000        0.000        0.000        0.000        0.000      100.000        0.000        0.000        2.169        2.211        3.278
     930.000  -265413.891    26229.618    16008.527    43891.378       76.239  -399080.440    47460.786       25.881       25.922        2.580        3.085        2.521        2.705        2.590        3.004        2.640        2.569        3.245        2.691        3.126        2.531        3.128        2.919        2.637        2.625        0.497        0.000        1.000        0.000        1.000        2.000        2.000        0.000        0.000        0.000        0.000        0.000        0.000        0.000        1.000        0.000        0.000        0.000        0.000        0.000        0.000        0.000        0.000        0.000        0.000        0.000        6.000        0.000        0.000        0.000        4.000        0.000        0.000        0.000        0.000        0.000      100.000        0.000        0.000        1.668        1.689        3.201
     940.000  -263929.271    25616.440    15808.003    44034.374       69.138  -397211.052    47753.826       26.083       25.971        2.572        3.031        2.496        2.686        2.547        2.922        2.705        2.530        3.277        2.701        3.133        2.515        3.061        2.981        2.613        2.642        0.477        1.000        0.000        0.000        1.000        2.000        3.000        0.000        0.000        0.000        0.000        0.000        0.000        0.000        2.000        0.000        0.000        0.000        0.000        0.000        0.000        0.000        0.000        0.000        0.000        1.000        4.000        0.000        1.000        0.000        5.000        0.000        0.000        0.000        0.000        0.000      100.000        0.000        0.000        1.495        1.518        3.082
     950.000  -264706.919    25281.526    15405.038    44429.959       80.750  -397786.881    47882.689       26.016       25.820        2.546        3.104        2.502        2.592        2.545        2.954        2.731        2.561        3.186        2.650        3.187        2.487        2.999        2.950        2.675        2.598        0.481        1.000        1.000        0.000        1.000        2.000        2.000        0.000        0.000        0.000        0.000        0.000        0.000        0.000        2.000        0.000        0.000        0.000        0.000        0.000        0.000        0.000        0.000        0.000        0.000        0.000        1.000        0.000        0.000        0.000        6.000        0.000        0.000        0.000        0.000        0.000      100.000        0.000        0.000        1.638        1.627        3.211
     960.000  -264672.857    26123.803    15757.540    44312.404       94.518  -399215.634    48254.512       25.910       25.681        2.576        3.136        2.552        2.565        2.574        3.045        2.685        2.510        3.198        2.661        3.122        2.507        3.096        2.870        2.592        2.590        0.497        0.000        0.000        0.000        1.000        2.000        2.000        0.000        0.000        0.000        0.000        0.000        0.000        0.000        0.000        0.000        0.000        0.000        0.000        0.000        0.000        0.000        0.000        0.000        0.000        2.000        1.000        0.000        1.000        0.000        4.000        0.000        0.000        0.000        0.000        0.000      100.000        0.000        0.000        1.507        1.514        3.133
     970.000  -265154.616    26244.108    15479.821    44108.410      117.445  -399374.903    48270.503       25.754       25.645        2.600        3.171        2.569        2.668        2.611        3.081        2.661        2.551        3.243        2.654        3.179        2.492        3.146        2.939        2.648        2.584        0.483        0.000        1.000        0.000        1.000        2.000        2.000        0.000        0.000        0.000        0.000        0.000        0.000        0.000        2.000        0.000        0.000        0.000        0.000        0.000        0.000        0.000        0.000        0.000        0.000        0.000        3.000        0.000        1.000        0.000        5.000        0.000        0.000        0.000        0.000        0.000      100.000        0.000        0.000        1.642        1.639        3.163
     980.000  -264952.624    25082.615    15704.853    44229.721       97.352  -399987.738    49920.572       26.040       25.950        2.579        3.095        2.544        2.600        2.564        2.965        2.688        2.483        3.243        2.671        3.127        2.521        3.106        2.939        2.651        2.623        0.470        1.000        1.000        0.000        0.000        2.000        2.000        0.000        0.000        0.000        0.000        0.000        0.000        0.000        1.000        0.000        0.000        0.000        0.000        0.000        0.000        0.000        0.000        0.000        0.000        0.000        2.000        0.000        1.000        0.000        5.000        0.000        0.000        0.000        0.000        0.000      100.000        0.000        0.000        1.696        1.694        3.023
     990.000  -265161.657    25689.834    15597.897    43981.113       78.760  -397226.363    46717.102       25.946       25.809        2.544        3.086        2.531        2.635        2.629        3.001        2.660        2.581        3.263        2.702        3.112        2.499        3.090        2.926        2.616        2.659        0.500        0.000        1.000        0.000        1.000        2.000        2.000        0.000        0.000        0.000        0.000        0.000        0.000        0.000        2.000        0.000        0.000        0.000        0.000        0.000        0.000        0.000        0.000        0.000        0.000        0.000        1.000        0.000        0.000        0.000        5.000        0.000        0.000        0.000        0.000        0.000      100.000        0.000        0.000        1.562        1.551        2.970
    1000.000  -264468.056    25157.000    15418.668    44361.105       93.588  -398244.119    48745.701       26.015       25.805        2.536        3.039        2.528        2.652        2.588        2.869        2.677        2.554        3.225        2.598        3.136        2.506        3.098        2.920        2.608        2.587        0.470        1.000        0.000        0.000        1.000        2.000        2.000        0.000        0.000        0.000        0.000        0.000        0.000        0.000        1.000        0.000        0.000        0.000        0.000        0.000        0.000        0.000        0.000        0.000        0.000        0.000        1.000        0.000        1.000        0.000        4.000        0.000        0.000        0.000        0.000        0.000      100.000        0.000        0.000        1.512        1.513        3.045
     Average  -267103.102    26364.729    15690.054    44072.718       83.547  -402442.305    49128.155       25.926       25.794        2.578        3.054        2.555        2.606        2.580        3.021        2.676        2.506        3.223        2.651        3.113        2.550        3.068        2.969        2.606        2.606        0.486        0.257        0.752        0.000        0.723        1.624        1.416        0.000        0.000        0.010        0.069        0.000        0.069        0.059        0.644        0.000        0.000        0.000        0.000        0.000        0.030        0.000        0.000        0.000        0.000        0.703        2.109        0.000        1.752        0.673        5.198        0.000        0.000        0.000        0.222        0.000       99.778        0.000        0.000        1.914        1.928        2.981

