____Time[ps] Energy[ kJ/mol ]_____Bond _______Angle ____Dihedral ___Planarity _____Coulomb _________VdW _Your result _Your result _Your result _Your result _Your result _Your result _Your result _Your result _Your result _Your result _Your result _Your result _Your result _Your result _Your result _Your result _Your result _Your result _Your result _Your result _Your result _Your result _Your result _Your result _Your result _Your result _Your result _Your result _Your result _Your result _Your result _Your result _Your result _Your result _Your result _Your result _Your result _Your result _Your result _Your result _Your result _Your result _Your result _Your result _Your result _Your result _Your result _Your result _Your result _Your result _Your result _Your result _Your result _Your result _Your result _Your result _Your result _RMSDs[A]:CA ____Backbone __HeavyAtoms
       0.000  -357625.904    12725.512     5298.507    43907.004        9.428  -488486.857    68920.503       25.457       25.348        2.616        3.036        2.583        2.679        2.693        2.994        2.703        2.573        3.223        2.647        3.038        2.564        3.096        2.998        2.633        2.593        0.485        1.000        0.000        2.000        0.000        1.000        7.000        0.000        0.000        1.000        0.000        0.000        0.000        0.000        0.000        0.000        0.000        0.000        0.000        0.000        0.000        0.000        0.000        0.000        0.000        0.000        0.000        0.000        0.000        0.000        4.000        0.000        0.000        0.000        0.000        0.000      100.000        0.000        0.000        0.444        0.485        0.567
      10.000  -268446.344    30628.495    16063.533    43693.886       82.373  -409510.948    50596.318       26.289       26.067        2.684        3.134        2.541        2.684        2.634        3.066        2.737        2.598        3.260        2.725        3.102        2.674        3.095        3.044        2.700        2.616        0.474        0.000        0.000        2.000        0.000        1.000        5.000        0.000        0.000        0.000        0.000        0.000        0.000        0.000        0.000        0.000        0.000        0.000        0.000        0.000        0.000        0.000        0.000        0.000        0.000        0.000        0.000        0.000        0.000        0.000        3.000        0.000        0.000        0.000        0.000        0.000      100.000        0.000        0.000        1.403        1.422        1.511
      20.000  -268552.118    30000.550    15998.651    43737.004       72.087  -408459.089    50098.680       26.312       25.961        2.686        3.102        2.551        2.617        2.617        3.048        2.680        2.609        3.280        2.605        3.127        2.635        3.096        3.066        2.685        2.623        0.484        1.000        0.000        2.000        0.000        1.000        6.000        0.000        0.000        0.000        0.000        0.000        0.000        0.000        1.000        0.000        0.000        0.000        0.000        0.000        0.000        0.000        0.000        0.000        0.000        0.000        0.000        2.000        0.000        0.000        5.000        0.000        0.000        0.000        0.000        0.000      100.000        0.000        0.000        1.438        1.445        1.653
      30.000  -267243.327    30277.223    15700.586    43724.863       78.998  -407637.638    50612.641       26.346       26.144        2.698        3.128        2.542        2.672        2.628        3.098        2.728        2.539        3.218        2.710        3.083        2.647        3.111        2.991        2.689        2.598        0.480        1.000        0.000        1.000        0.000        1.000        6.000        0.000        0.000        0.000        0.000        0.000        0.000        0.000        1.000        0.000        0.000        0.000        0.000        0.000        0.000        0.000        0.000        0.000        0.000        0.000        0.000        0.000        0.000        0.000        4.000        2.000        0.000        0.000        0.000        0.000      100.000        0.000        0.000        1.430        1.440        1.726
      40.000  -267878.799    30319.911    16037.077    43609.215       82.265  -408202.977    50275.709       26.033       25.875        2.687        3.192        2.602        2.647        2.638        3.101        2.674        2.536        3.185        2.674        3.104        2.630        3.080        3.023        2.697        2.626        0.485        1.000        0.000        1.000        0.000        0.000        5.000        0.000        0.000        0.000        0.000        0.000        0.000        0.000        1.000        0.000        0.000        0.000        0.000        0.000        0.000        0.000        0.000        0.000        0.000        0.000        0.000        0.000        0.000        0.000        7.000        0.000        0.000        0.000        0.000        0.000      100.000        0.000        0.000        1.238        1.257        1.584
      50.000  -267643.949    27999.000    16410.244    43752.983       85.754  -407762.248    51870.318       25.966       25.764        2.601        3.095        2.516        2.684        2.622        3.107        2.689        2.557        3.276        2.645        3.121        2.589        3.101        3.017        2.665        2.601        0.508        1.000        0.000        1.000        0.000        1.000        6.000        0.000        0.000        0.000        0.000        0.000        0.000        0.000        0.000        0.000        0.000        0.000        0.000        0.000        0.000        0.000        0.000        0.000        0.000        0.000        0.000        2.000        0.000        0.000        9.000        0.000        0.000        0.000        0.000        0.000      100.000        0.000        0.000        1.234        1.245        1.627
      60.000  -267218.479    29008.554    16281.540    43659.419       92.250  -405912.091    49651.849       25.938       25.768        2.667        3.177        2.542        2.728        2.650        3.094        2.670        2.623        3.286        2.653        3.091        2.587        3.085        3.004        2.685        2.623        0.475        1.000        0.000        1.000        0.000        1.000        7.000        0.000        0.000        0.000        0.000        0.000        0.000        0.000        0.000        0.000        0.000        0.000        0.000        0.000        0.000        0.000        0.000        0.000        0.000        1.000        0.000        0.000        0.000        0.000        8.000        0.000        0.000        0.000        0.000        0.000      100.000        0.000        0.000        1.192        1.203        1.598
      70.000  -266216.305    29494.443    16212.276    43532.329      101.358  -404237.160    48680.449       26.459       26.035        2.642        3.211        2.532        2.665        2.635        3.107        2.690        2.604        3.257        2.693        3.069        2.568        3.102        3.000        2.697        2.576        0.470        1.000        0.000        1.000        0.000        1.000        6.000        0.000        0.000        0.000        0.000        0.000        0.000        0.000        1.000        0.000        0.000        0.000        0.000        0.000        0.000        0.000        0.000        0.000        0.000        0.000        0.000        1.000        0.000        0.000        3.000        0.000        0.000        0.000        0.000        0.000      100.000        0.000        0.000        1.503        1.533        1.907
      80.000  -266067.057    27450.740    16102.488    43588.916       96.025  -403896.923    50591.697       26.112       26.238        2.617        3.196        2.543        2.655        2.620        3.014        2.687        2.591        3.228        2.654        3.204        2.601        3.081        3.044        2.686        2.657        0.477        1.000        0.000        2.000        0.000        1.000        6.000        0.000        0.000        0.000        0.000        0.000        0.000        0.000        0.000        0.000        0.000        0.000        0.000        0.000        0.000        0.000        0.000        0.000        0.000        0.000        0.000        0.000        0.000        0.000        8.000        1.000        0.000        0.000        0.000        0.000      100.000        0.000        0.000        1.541        1.568        2.007
      90.000  -265188.277    28716.486    15941.729    43722.142       86.090  -402985.581    49330.857       25.992       25.986        2.652        3.218        2.531        2.671        2.625        3.107        2.680        2.577        3.228        2.635        3.108        2.582        3.047        3.045        2.666        2.618        0.483        1.000        0.000        2.000        0.000        1.000        5.000        0.000        0.000        0.000        0.000        0.000        0.000        0.000        0.000        0.000        0.000        0.000        0.000        0.000        0.000        0.000        0.000        0.000        0.000        1.000        0.000        1.000        0.000        1.000        7.000        0.000        0.000        0.000        0.000        0.000      100.000        0.000        0.000        1.593        1.623        2.209
     100.000  -266185.930    28429.378    16245.191    43675.011      111.064  -404198.817    49552.242       26.108       25.939        2.600        3.208        2.533        2.650        2.654        3.087        2.695        2.618        3.247        2.616        3.162        2.523        3.106        3.058        2.681        2.624        0.525        1.000        0.000        2.000        0.000        1.000        4.000        0.000        0.000        0.000        0.000        0.000        0.000        0.000        1.000        0.000        0.000        0.000        0.000        0.000        0.000        0.000        0.000        0.000        0.000        0.000        0.000        1.000        0.000        0.000        8.000        0.000        0.000        0.000        0.000        0.000      100.000        0.000        0.000        1.428        1.465        2.123
     110.000  -265840.268    28893.387    16027.499    43714.590       85.080  -403244.838    48684.012       25.944       25.885        2.695        3.212        2.553        2.688        2.635        3.097        2.707        2.599        3.214        2.660        3.144        2.614        3.065        3.006        2.715        2.638        0.485        1.000        0.000        2.000        0.000        1.000        5.000        0.000        0.000        0.000        0.000        0.000        0.000        0.000        0.000        0.000        0.000        0.000        0.000        0.000        0.000        0.000        0.000        0.000        0.000        0.000        0.000        0.000        0.000        0.000        7.000        0.000        0.000        0.000        0.000        0.000      100.000        0.000        0.000        1.801        1.846        2.360
     120.000  -265904.331    28844.706    15813.108    43799.262       73.414  -402226.209    47791.389       25.904       25.808        2.641        3.204        2.591        2.632        2.629        3.000        2.667        2.637        3.198        2.679        3.181        2.615        3.163        2.997        2.664        2.619        0.480        1.000        0.000        1.000        0.000        1.000        5.000        0.000        0.000        0.000        0.000        0.000        0.000        0.000        1.000        0.000        0.000        0.000        0.000        0.000        0.000        0.000        0.000        0.000        0.000        0.000        0.000        0.000        0.000        0.000        7.000        0.000        0.000        0.000        0.000        0.000      100.000        0.000        0.000        1.749        1.775        2.368
     130.000  -265164.284    27604.336    15824.648    43808.281       78.676  -402423.216    49942.992       25.869       25.795        2.593        3.186        2.564        2.667        2.657        3.069        2.684        2.581        3.227        2.614        3.165        2.604        3.146        3.012        2.681        2.614        0.502        1.000        0.000        2.000        0.000        1.000        7.000        0.000        0.000        0.000        0.000        0.000        0.000        0.000        0.000        0.000        0.000        0.000        0.000        0.000        0.000        0.000        0.000        0.000        0.000        0.000        0.000        0.000        0.000        0.000        8.000        0.000        0.000        0.000        0.000        0.000      100.000        0.000        0.000        2.053        2.091        2.569
     140.000  -265197.070    28728.512    15821.754    43710.783       93.211  -402024.551    48473.221       25.914       25.937        2.630        3.206        2.502        2.703        2.628        3.087        2.678        2.580        3.266        2.646        3.107        2.583        3.038        3.050        2.663        2.630        0.488        1.000        0.000        2.000        0.000        1.000        5.000        0.000        0.000        0.000        0.000        0.000        0.000        0.000        1.000        0.000        0.000        0.000        0.000        0.000        0.000        0.000        0.000        0.000        0.000        0.000        0.000        1.000        0.000        0.000        6.000        1.000        0.000        0.000        0.000        0.000      100.000        0.000        0.000        2.043        2.087        2.667
     150.000  -265111.070    27139.420    15808.938    43876.507       67.450  -402603.262    50599.877       26.106       25.964        2.695        3.223        2.512        2.668        2.647        3.064        2.647        2.568        3.233        2.581        3.099        2.524        3.099        3.042        2.673        2.623        0.494        1.000        0.000        1.000        0.000        1.000        3.000        0.000        0.000        0.000        0.000        0.000        0.000        0.000        1.000        0.000        0.000        0.000        0.000        0.000        0.000        0.000        0.000        0.000        0.000        0.000        0.000        0.000        0.000        0.000        7.000        0.000        0.000        0.000        0.000        0.000      100.000        0.000        0.000        2.258        2.315        2.929
     160.000  -264577.468    27430.429    16032.408    43719.955       97.855  -400918.822    49060.706       25.990       25.751        2.614        3.200        2.520        2.638        2.645        3.047        2.687        2.612        3.260        2.614        3.139        2.589        3.020        3.011        2.705        2.572        0.481        1.000        0.000        2.000        0.000        1.000        7.000        0.000        0.000        0.000        0.000        0.000        0.000        0.000        0.000        0.000        0.000        0.000        0.000        0.000        0.000        0.000        0.000        0.000        0.000        0.000        0.000        3.000        0.000        1.000       11.000        0.000        0.000        0.000        0.000        0.000      100.000        0.000        0.000        1.882        1.916        2.475
     170.000  -265158.603    27677.206    15860.918    43865.631       91.929  -401384.550    48730.262       25.975       25.654        2.648        3.222        2.490        2.640        2.675        3.088        2.689        2.560        3.135        2.602        3.139        2.486        3.016        3.003        2.631        2.618        0.487        1.000        0.000        2.000        0.000        1.000        5.000        0.000        0.000        0.000        0.000        0.000        0.000        0.000        1.000        0.000        0.000        0.000        0.000        0.000        0.000        0.000        0.000        0.000        0.000        0.000        0.000        1.000        0.000        0.000        2.000        0.000        0.000        0.000        0.000        0.000      100.000        0.000        0.000        1.749        1.789        2.583
     180.000  -264437.656    27889.988    15889.590    43547.332       70.288  -400876.294    49041.441       26.096       25.951        2.637        3.198        2.562        2.640        2.688        3.114        2.660        2.579        3.126        2.614        3.093        2.543        3.051        3.067        2.644        2.586        0.500        1.000        0.000        2.000        0.000        0.000        6.000        0.000        0.000        0.000        0.000        0.000        0.000        0.000        1.000        0.000        0.000        0.000        0.000        0.000        0.000        0.000        0.000        0.000        0.000        0.000        0.000        0.000        0.000        0.000        9.000        0.000        0.000        0.000        0.000        0.000      100.000        0.000        0.000        1.704        1.751        2.603
     190.000  -265037.518    28335.731    15836.683    43628.966       82.599  -401045.524    48124.026       26.247       26.097        2.662        3.194        2.579        2.659        2.640        3.086        2.663        2.560        3.183        2.640        3.133        2.582        3.116        3.080        2.665        2.543        0.490        1.000        0.000        2.000        0.000        1.000        6.000        0.000        0.000        1.000        0.000        0.000        0.000        0.000        0.000        0.000        0.000        0.000        0.000        0.000        0.000        0.000        0.000        0.000        0.000        0.000        0.000        3.000        0.000        0.000        2.000        0.000        0.000        0.000        4.494        0.000       95.506        0.000        0.000        1.697        1.732        2.383
     200.000  -264305.429    27157.929    16019.496    43742.250       78.509  -399820.176    48516.564       26.117       25.924        2.663        3.231        2.535        2.633        2.644        3.057        2.686        2.587        3.235        2.654        3.144        2.600        3.112        3.090        2.660        2.614        0.478        1.000        0.000        2.000        0.000        1.000        6.000        0.000        0.000        0.000        0.000        0.000        0.000        0.000        1.000        0.000        0.000        0.000        0.000        0.000        0.000        0.000        0.000        0.000        0.000        0.000        0.000        0.000        0.000        0.000        2.000        0.000        0.000        0.000        0.000        0.000      100.000        0.000        0.000        1.857        1.898        2.558
     210.000  -264572.055    26253.475    15756.440    43817.589       86.225  -400246.362    49760.579       25.922       25.557        2.591        3.231        2.469        2.691        2.641        3.144        2.740        2.561        3.155        2.607        3.146        2.555        3.037        3.080        2.702        2.581        0.488        1.000        0.000        2.000        0.000        1.000        6.000        0.000        0.000        0.000        0.000        0.000        0.000        0.000        0.000        0.000        0.000        0.000        0.000        0.000        0.000        0.000        0.000        0.000        0.000        0.000        0.000        1.000        0.000        0.000        3.000        0.000        0.000        0.000        0.000        0.000      100.000        0.000        0.000        1.832        1.892        2.640
     220.000  -263534.741    26215.052    16085.991    43741.853       77.235  -397462.410    47807.538       26.142       25.732        2.668        3.201        2.517        2.698        2.633        3.113        2.693        2.557        3.184        2.637        3.132        2.621        3.093        3.073        2.652        2.608        0.502        1.000        0.000        1.000        0.000        1.000        5.000        0.000        0.000        0.000        0.000        0.000        0.000        0.000        0.000        0.000        0.000        0.000        0.000        0.000        0.000        0.000        0.000        0.000        0.000        0.000        0.000        0.000        0.000        0.000        3.000        0.000        0.000        0.000        0.000        0.000      100.000        0.000        0.000        1.993        2.041        2.825
     230.000  -264615.587    26960.407    15939.236    43628.799       74.655  -399021.033    47802.349       25.933       25.615        2.652        3.214        2.505        2.704        2.669        3.091        2.678        2.562        3.184        2.637        3.165        2.581        3.040        3.064        2.661        2.574        0.488        1.000        0.000        2.000        0.000        1.000        6.000        0.000        0.000        0.000        0.000        0.000        0.000        0.000        1.000        0.000        0.000        0.000        0.000        0.000        0.000        0.000        0.000        0.000        0.000        0.000        0.000        0.000        0.000        0.000        5.000        0.000        0.000        0.000        0.000        0.000      100.000        0.000        0.000        2.016        2.046        2.908
     240.000  -263490.470    26754.233    15637.416    43442.632       94.430  -397864.803    48445.623       26.049       25.952        2.689        3.254        2.500        2.648        2.623        3.101        2.683        2.542        3.169        2.642        3.054        2.565        3.063        3.037        2.693        2.576        0.492        1.000        0.000        2.000        0.000        1.000        4.000        0.000        0.000        0.000        0.000        0.000        0.000        0.000        1.000        0.000        0.000        0.000        0.000        0.000        0.000        0.000        0.000        0.000        0.000        0.000        0.000        0.000        0.000        0.000        7.000        0.000        0.000        0.000        0.000        0.000      100.000        0.000        0.000        1.915        1.945        2.701
     250.000  -264888.583    25515.714    15719.971    43774.237       79.669  -400451.294    50473.120       25.881       25.671        2.679        3.182        2.518        2.675        2.637        3.090        2.676        2.588        3.176        2.612        3.165        2.578        3.064        3.062        2.678        2.562        0.484        1.000        0.000        2.000        0.000        0.000        5.000        0.000        0.000        1.000        0.000        0.000        0.000        0.000        0.000        0.000        0.000        0.000        0.000        0.000        0.000        0.000        0.000        0.000        0.000        0.000        0.000        0.000        0.000        0.000        4.000        0.000        0.000        0.000        0.000        0.000      100.000        0.000        0.000        1.817        1.843        2.754
     260.000  -263796.103    26655.625    15900.293    43631.158       87.725  -397475.385    47404.481       25.869       25.792        2.660        3.175        2.526        2.704        2.640        3.092        2.695        2.592        3.168        2.610        3.152        2.538        3.106        2.979        2.696        2.556        0.496        1.000        0.000        2.000        0.000        1.000        4.000        0.000        0.000        1.000        0.000        0.000        0.000        0.000        1.000        0.000        0.000        0.000        0.000        0.000        0.000        0.000        0.000        0.000        0.000        0.000        0.000        1.000        0.000        0.000        5.000        0.000        0.000        0.000        0.000        0.000      100.000        0.000        0.000        2.056        2.096        2.887
     270.000  -264484.375    25948.939    15910.074    43739.583       89.688  -398789.458    48616.799       25.880       25.958        2.659        3.151        2.480        2.639        2.647        3.059        2.711        2.595        3.155        2.643        3.138        2.588        3.000        3.062        2.699        2.571        0.476        1.000        0.000        2.000        0.000        1.000        5.000        0.000        0.000        0.000        0.000        0.000        0.000        0.000        0.000        0.000        0.000        0.000        0.000        0.000        0.000        0.000        0.000        0.000        0.000        0.000        0.000        0.000        0.000        0.000        8.000        0.000        0.000        0.000        0.000        0.000      100.000        0.000        0.000        2.010        2.036        2.801
     280.000  -263118.597    26755.027    15845.422    43850.289      103.483  -397750.304    48077.486       25.843       25.997        2.604        3.154        2.476        2.678        2.636        3.034        2.682        2.607        3.185        2.605        3.109        2.594        3.124        3.084        2.680        2.582        0.492        1.000        0.000        2.000        0.000        1.000        4.000        0.000        0.000        1.000        0.000        0.000        0.000        0.000        0.000        0.000        0.000        0.000        0.000        0.000        0.000        0.000        0.000        0.000        0.000        0.000        0.000        1.000        0.000        0.000        3.000        0.000        0.000        0.000        0.000        0.000      100.000        0.000        0.000        2.051        2.063        2.909
     290.000  -263171.680    25850.566    15706.107    43628.727       85.025  -397448.507    49006.402       25.986       26.078        2.623        3.221        2.511        2.645        2.621        3.038        2.683        2.634        3.195        2.628        3.131        2.532        3.121        3.062        2.688        2.618        0.467        1.000        0.000        2.000        0.000        1.000        6.000        0.000        0.000        0.000        0.000        0.000        0.000        0.000        0.000        0.000        0.000        0.000        0.000        0.000        0.000        0.000        0.000        0.000        0.000        0.000        0.000        1.000        0.000        0.000        5.000        0.000        0.000        0.000        0.000        0.000      100.000        0.000        0.000        2.157        2.177        2.918
     300.000  -262814.907    25724.875    15324.645    43679.001       75.554  -396926.324    49307.343       25.826       25.928        2.638        3.201        2.522        2.667        2.651        3.061        2.701        2.589        3.144        2.602        3.131        2.533        3.053        3.040        2.678        2.600        0.485        1.000        0.000        1.000        0.000        1.000        6.000        0.000        0.000        1.000        0.000        0.000        0.000        0.000        2.000        0.000        0.000        0.000        0.000        0.000        0.000        0.000        0.000        0.000        0.000        0.000        0.000        0.000        0.000        0.000        4.000        2.000        0.000        0.000        0.000        0.000      100.000        0.000        0.000        1.888        1.898        2.752
     310.000  -263039.275    25459.239    15607.159    43853.497       83.423  -396831.842    48789.248       25.719       25.946        2.565        3.185        2.532        2.642        2.644        2.993        2.689        2.638        3.173        2.635        3.128        2.520        3.131        2.985        2.634        2.615        0.491        1.000        0.000        1.000        0.000        1.000        5.000        0.000        0.000        1.000        0.000        0.000        0.000        0.000        3.000        0.000        0.000        0.000        0.000        0.000        0.000        0.000        0.000        0.000        0.000        0.000        0.000        0.000        0.000        0.000        7.000        0.000        0.000        0.000        0.000        0.000      100.000        0.000        0.000        2.354        2.368        3.048
     320.000  -263823.825    26979.751    15624.490    43204.829       80.275  -397287.087    47573.916       25.759       25.761        2.612        3.189        2.518        2.701        2.632        3.109        2.701        2.583        3.205        2.582        3.125        2.631        3.126        3.062        2.673        2.671        0.498        1.000        0.000        2.000        0.000        1.000        5.000        0.000        0.000        0.000        0.000        0.000        0.000        0.000        1.000        0.000        0.000        0.000        0.000        0.000        0.000        0.000        0.000        0.000        0.000        0.000        0.000        0.000        0.000        0.000        6.000        0.000        0.000        0.000        0.000        0.000      100.000        0.000        0.000        2.502        2.527        3.155
     330.000  -263811.551    26902.006    15543.251    43600.872       81.535  -396863.551    46924.336       25.732       25.572        2.650        3.182        2.537        2.657        2.641        3.131        2.705        2.590        3.203        2.645        3.182        2.595        3.031        3.019        2.688        2.587        0.490        1.000        0.000        2.000        0.000        1.000        6.000        0.000        0.000        0.000        0.000        0.000        0.000        0.000        1.000        0.000        0.000        0.000        0.000        0.000        0.000        0.000        0.000        0.000        0.000        0.000        0.000        0.000        0.000        0.000        6.000        0.000        0.000        0.000        0.000        0.000      100.000        0.000        0.000        2.300        2.318        3.029
     340.000  -262840.036    26119.715    15435.734    43738.275       81.385  -396452.147    48237.003       25.529       25.448        2.624        3.153        2.480        2.700        2.668        3.166        2.673        2.568        3.217        2.635        3.193        2.474        3.147        3.030        2.677        2.645        0.500        1.000        0.000        2.000        0.000        1.000        6.000        0.000        0.000        0.000        0.000        0.000        0.000        0.000        1.000        0.000        0.000        0.000        0.000        0.000        0.000        0.000        0.000        0.000        0.000        0.000        0.000        1.000        0.000        0.000        1.000        1.000        0.000        0.000        0.000        0.000      100.000        0.000        0.000        1.956        1.985        2.728
     350.000  -264068.466    27027.182    15530.177    43507.079       93.369  -397790.335    47564.062       25.947       25.872        2.575        3.179        2.526        2.723        2.675        3.091        2.693        2.634        3.147        2.615        3.213        2.576        3.064        3.081        2.673        2.625        0.523        1.000        0.000        2.000        0.000        1.000        6.000        0.000        0.000        1.000        0.000        0.000        0.000        0.000        1.000        0.000        0.000        0.000        0.000        0.000        0.000        0.000        0.000        0.000        0.000        0.000        0.000        0.000        0.000        0.000        4.000        0.000        0.000        0.000        0.000        0.000      100.000        0.000        0.000        1.929        1.924        2.700
     360.000  -262744.116    27245.136    15591.006    43551.627       75.110  -395730.701    46523.705       25.869       25.714        2.670        3.171        2.519        2.647        2.601        3.114        2.701        2.613        3.147        2.623        3.112        2.566        3.048        3.068        2.648        2.599        0.500        1.000        0.000        1.000        0.000        1.000        5.000        0.000        0.000        0.000        0.000        0.000        0.000        0.000        2.000        0.000        0.000        0.000        0.000        0.000        0.000        0.000        0.000        0.000        0.000        0.000        0.000        0.000        0.000        0.000        4.000        0.000        0.000        0.000        0.000        0.000      100.000        0.000        0.000        1.892        1.892        2.656
     370.000  -263128.319    26645.950    15727.796    43429.773       90.303  -396475.275    47453.133       25.994       26.009        2.665        3.104        2.525        2.644        2.633        3.090        2.679        2.612        3.178        2.610        3.131        2.598        3.086        3.027        2.702        2.615        0.469        1.000        0.000        2.000        0.000        1.000        6.000        0.000        0.000        2.000        0.000        0.000        0.000        0.000        2.000        0.000        0.000        0.000        0.000        0.000        0.000        0.000        0.000        0.000        0.000        0.000        0.000        0.000        0.000        0.000        5.000        0.000        0.000        0.000        0.000        0.000      100.000        0.000        0.000        1.916        1.944        2.609
     380.000  -264032.883    26164.703    15649.942    43554.554       78.686  -397736.885    48256.117       26.177       26.212        2.622        3.162        2.513        2.687        2.684        3.072        2.695        2.610        3.163        2.596        3.134        2.564        3.006        3.035        2.685        2.590        0.496        1.000        0.000        1.000        0.000        1.000        5.000        0.000        0.000        0.000        0.000        0.000        0.000        0.000        0.000        0.000        0.000        0.000        0.000        0.000        0.000        0.000        0.000        0.000        0.000        0.000        0.000        0.000        0.000        0.000        6.000        0.000        0.000        0.000        0.000        0.000      100.000        0.000        0.000        1.636        1.653        2.367
     390.000  -262971.547    26036.677    15371.161    43705.959       54.886  -396802.944    48662.713       26.159       25.972        2.634        3.194        2.516        2.630        2.638        3.090        2.722        2.619        3.145        2.621        3.199        2.602        3.022        3.041        2.640        2.591        0.497        1.000        0.000        2.000        0.000        1.000        5.000        0.000        0.000        0.000        0.000        0.000        0.000        0.000        1.000        0.000        0.000        0.000        0.000        0.000        0.000        0.000        0.000        0.000        0.000        0.000        0.000        0.000        0.000        0.000        7.000        2.000        0.000        0.000        0.000        0.000      100.000        0.000        0.000        1.807        1.836        2.605
     400.000  -263072.307    26480.734    15504.353    43707.113       77.650  -395672.605    46830.447       26.160       26.083        2.695        3.109        2.532        2.647        2.644        3.086        2.707        2.633        3.161        2.634        3.141        2.621        3.050        3.048        2.699        2.624        0.459        1.000        0.000        2.000        0.000        1.000        5.000        0.000        0.000        1.000        0.000        0.000        0.000        0.000        1.000        0.000        0.000        0.000        0.000        0.000        0.000        0.000        0.000        0.000        0.000        0.000        0.000        0.000        0.000        0.000       13.000        1.000        0.000        0.000        0.000        0.000      100.000        0.000        0.000        2.376        2.391        3.133
     410.000  -262600.645    26283.539    15714.233    43567.457       84.543  -395737.081    47486.664       26.083       26.017        2.658        3.189        2.536        2.655        2.649        3.082        2.674        2.550        3.171        2.645        3.101        2.609        3.023        3.098        2.706        2.571        0.511        1.000        0.000        2.000        0.000        0.000        5.000        0.000        0.000        0.000        0.000        0.000        0.000        0.000        1.000        0.000        0.000        0.000        0.000        0.000        0.000        0.000        0.000        0.000        0.000        0.000        0.000        0.000        0.000        0.000       10.000        1.000        0.000        0.000        0.000        0.000      100.000        0.000        0.000        1.729        1.755        2.592
     420.000  -262563.298    24899.474    15486.363    43978.098       82.135  -395967.083    48957.715       25.721       25.876        2.636        3.162        2.504        2.632        2.640        3.114        2.654        2.588        3.175        2.664        3.125        2.534        3.113        3.044        2.693        2.570        0.481        1.000        0.000        2.000        0.000        1.000        5.000        0.000        0.000        0.000        0.000        0.000        0.000        0.000        1.000        0.000        0.000        0.000        0.000        0.000        0.000        0.000        0.000        0.000        0.000        0.000        0.000        0.000        0.000        0.000        6.000        0.000        0.000        0.000        0.000        0.000      100.000        0.000        0.000        1.647        1.685        2.504
     430.000  -263005.787    24983.475    15755.456    43736.683       79.056  -396777.396    49216.938       25.865       25.926        2.687        3.160        2.520        2.629        2.631        3.010        2.684        2.553        3.145        2.585        3.173        2.546        3.051        3.085        2.732        2.569        0.491        1.000        0.000        2.000        0.000        1.000        4.000        0.000        0.000        0.000        0.000        0.000        0.000        0.000        1.000        0.000        0.000        0.000        0.000        0.000        0.000        0.000        0.000        0.000        0.000        0.000        0.000        1.000        0.000        0.000        9.000        0.000        0.000        0.000        0.000        0.000      100.000        0.000        0.000        1.583        1.605        2.359
     440.000  -262819.540    25049.606    15846.966    43934.116       74.372  -395997.063    48272.463       25.967       25.974        2.647        3.198        2.496        2.701        2.627        3.029        2.686        2.553        3.167        2.629        3.230        2.550        3.040        3.070        2.675        2.639        0.477        1.000        0.000        2.000        0.000        1.000        5.000        0.000        0.000        1.000        0.000        0.000        0.000        0.000        0.000        0.000        0.000        0.000        0.000        0.000        0.000        0.000        0.000        0.000        0.000        0.000        0.000        1.000        0.000        0.000        2.000        0.000        0.000        0.000        0.000        0.000      100.000        0.000        0.000        1.733        1.742        2.497
     450.000  -262561.339    24992.519    16096.611    43944.016       69.048  -395876.937    48213.405       25.780       25.821        2.672        3.235        2.503        2.695        2.652        3.090        2.664        2.578        3.134        2.633        3.101        2.506        3.052        3.041        2.671        2.591        0.478        1.000        0.000        1.000        0.000        1.000        5.000        0.000        0.000        0.000        0.000        0.000        0.000        0.000        0.000        0.000        0.000        0.000        0.000        0.000        0.000        0.000        0.000        0.000        0.000        0.000        0.000        1.000        0.000        1.000        6.000        0.000        0.000        0.000        0.000        0.000      100.000        0.000        0.000        1.804        1.812        2.485
     460.000  -263418.469    24831.695    15770.015    43475.272       92.176  -397537.861    49950.236       26.227       26.013        2.630        3.160        2.514        2.702        2.642        3.031        2.690        2.519        3.105        2.621        3.111        2.587        3.053        3.007        2.688        2.597        0.464        1.000        0.000        2.000        0.000        0.000        5.000        0.000        0.000        0.000        0.000        0.000        0.000        0.000        1.000        0.000        0.000        0.000        0.000        0.000        0.000        0.000        0.000        0.000        0.000        0.000        0.000        1.000        0.000        1.000        5.000        0.000        0.000        0.000        0.000        0.000      100.000        0.000        0.000        1.886        1.921        2.542
     470.000  -261985.846    25219.621    15999.372    43712.403       73.121  -394951.877    47961.515       25.955       25.789        2.673        3.154        2.513        2.659        2.640        3.035        2.686        2.645        3.227        2.624        3.131        2.566        3.141        3.016        2.700        2.652        0.487        1.000        0.000        1.000        0.000        1.000        5.000        0.000        0.000        0.000        0.000        0.000        0.000        0.000        1.000        0.000        0.000        0.000        0.000        0.000        0.000        0.000        0.000        0.000        0.000        0.000        0.000        1.000        0.000        0.000        4.000        0.000        0.000        0.000        0.000        0.000      100.000        0.000        0.000        1.843        1.888        2.463
     480.000  -263349.046    25647.135    15606.709    43669.468       92.076  -396675.858    48311.426       25.815       25.652        2.617        3.098        2.499        2.672        2.640        3.065        2.669        2.523        3.189        2.625        3.176        2.579        3.106        3.019        2.653        2.626        0.468        1.000        0.000        2.000        0.000        1.000        3.000        0.000        0.000        0.000        0.000        0.000        0.000        0.000        0.000        0.000        0.000        0.000        0.000        0.000        0.000        0.000        0.000        0.000        0.000        0.000        0.000        2.000        0.000        0.000        9.000        0.000        0.000        0.000        0.000        0.000      100.000        0.000        0.000        1.950        1.961        2.744
     490.000  -262825.385    26525.102    15550.460    43845.523       75.935  -395068.715    46246.310       25.881       25.508        2.629        3.114        2.538        2.727        2.585        3.028        2.664        2.528        3.192        2.638        3.100        2.546        3.050        3.011        2.704        2.619        0.472        1.000        0.000        2.000        0.000        1.000        6.000        0.000        0.000        1.000        0.000        0.000        0.000        0.000        0.000        0.000        0.000        0.000        0.000        0.000        0.000        0.000        0.000        0.000        0.000        2.000        0.000        0.000        0.000        0.000        4.000        0.000        0.000        0.000        0.000        0.000      100.000        0.000        0.000        1.792        1.810        2.680
     500.000  -262564.208    26600.675    15798.183    43750.840       91.883  -395048.415    46242.625       25.749       25.516        2.599        3.062        2.501        2.650        2.638        2.982        2.699        2.535        3.173        2.618        3.191        2.502        3.142        3.046        2.693        2.606        0.495        1.000        0.000        2.000        0.000        1.000        4.000        0.000        0.000        0.000        0.000        0.000        0.000        0.000        1.000        0.000        0.000        0.000        0.000        0.000        0.000        0.000        0.000        0.000        0.000        0.000        0.000        0.000        0.000        0.000        6.000        0.000        0.000        0.000        0.000        0.000      100.000        0.000        0.000        2.176        2.191        2.903
     510.000  -263543.054    25255.091    15464.264    43678.787       68.027  -396452.854    48443.630       25.959       25.494        2.630        3.142        2.534        2.607        2.683        3.020        2.642        2.546        3.153        2.688        3.189        2.554        3.077        3.044        2.668        2.635        0.478        1.000        0.000        2.000        0.000        1.000        3.000        0.000        0.000        1.000        0.000        0.000        0.000        0.000        0.000        0.000        0.000        0.000        0.000        0.000        0.000        0.000        0.000        0.000        0.000        0.000        0.000        1.000        0.000        0.000       10.000        0.000        0.000        0.000        0.000        0.000      100.000        0.000        0.000        2.457        2.468        3.291
     520.000  -263092.414    26115.582    15627.380    43878.759       80.358  -396201.070    47406.578       25.640       25.322        2.618        3.022        2.538        2.682        2.667        3.035        2.656        2.631        3.175        2.616        3.141        2.564        3.052        3.067        2.682        2.600        0.489        1.000        0.000        2.000        0.000        0.000        1.000        0.000        0.000        0.000        0.000        0.000        0.000        0.000        0.000        0.000        0.000        0.000        0.000        0.000        0.000        0.000        0.000        0.000        0.000        0.000        0.000        2.000        0.000        0.000        9.000        0.000        0.000        0.000        0.000        0.000      100.000        0.000        0.000        2.350        2.370        3.089
     530.000  -262685.141    26735.422    15294.934    43549.941       97.785  -394327.120    45963.897       25.847       25.699        2.612        3.112        2.505        2.597        2.683        3.042        2.657        2.600        3.216        2.573        3.163        2.522        3.088        3.095        2.671        2.616        0.496        1.000        0.000        2.000        0.000        0.000        2.000        0.000        0.000        1.000        0.000        0.000        0.000        0.000        0.000        0.000        0.000        0.000        0.000        0.000        0.000        0.000        0.000        0.000        0.000        1.000        0.000        0.000        0.000        0.000       12.000        0.000        0.000        0.000        0.000        0.000      100.000        0.000        0.000        2.235        2.222        2.964
     540.000  -262912.562    25984.329    15524.258    43629.720       65.251  -395346.393    47230.273       25.631       25.552        2.639        3.116        2.519        2.657        2.681        2.964        2.645        2.526        3.158        2.634        3.190        2.582        3.062        3.024        2.694        2.633        0.487        1.000        0.000        2.000        0.000        1.000        3.000        0.000        0.000        1.000        0.000        0.000        0.000        0.000        1.000        0.000        0.000        0.000        0.000        0.000        0.000        0.000        0.000        0.000        0.000        0.000        0.000        2.000        0.000        0.000        8.000        0.000        0.000        0.000        0.000        0.000      100.000        0.000        0.000        2.493        2.504        3.068
     550.000  -262718.553    25841.862    15800.949    43467.405      107.345  -395760.047    47823.933       25.606       25.591        2.649        2.982        2.539        2.630        2.722        3.048        2.674        2.601        3.152        2.657        3.122        2.572        3.054        3.026        2.687        2.632        0.499        1.000        0.000        2.000        0.000        1.000        3.000        0.000        0.000        0.000        0.000        0.000        0.000        0.000        0.000        0.000        0.000        0.000        0.000        0.000        0.000        0.000        0.000        0.000        0.000        0.000        0.000        4.000        0.000        0.000        7.000        1.000        0.000        0.000        0.000        0.000      100.000        0.000        0.000        2.266        2.296        2.799
     560.000  -262596.254    26081.302    15638.601    43599.218       67.769  -396825.055    48841.910       25.477       25.502        2.665        2.940        2.481        2.668        2.697        3.034        2.667        2.540        3.148        2.602        3.196        2.512        3.025        3.085        2.684        2.671        0.477        1.000        0.000        2.000        0.000        0.000        3.000        0.000        0.000        0.000        0.000        0.000        0.000        0.000        1.000        0.000        0.000        0.000        0.000        0.000        0.000        0.000        0.000        0.000        0.000        0.000        0.000        0.000        0.000        0.000       10.000        0.000        0.000        0.000        0.000        0.000      100.000        0.000        0.000        1.849        1.824        2.507
     570.000  -263163.811    26544.931    15471.337    43794.454       92.187  -398010.437    48943.718       25.597       25.563        2.677        2.988        2.508        2.654        2.672        3.036        2.693        2.546        3.192        2.675        3.147        2.510        3.094        3.044        2.704        2.581        0.502        1.000        0.000        2.000        0.000        1.000        2.000        0.000        0.000        0.000        0.000        0.000        0.000        0.000        0.000        0.000        0.000        0.000        0.000        0.000        0.000        0.000        0.000        0.000        0.000        0.000        0.000        1.000        0.000        0.000        7.000        0.000        0.000        0.000        0.000        0.000      100.000        0.000        0.000        1.815        1.812        2.631
     580.000  -263074.384    26172.853    15613.539    43826.615      108.552  -396857.717    48061.775       25.647       25.497        2.704        3.041        2.524        2.604        2.683        3.047        2.689        2.531        3.143        2.664        3.234        2.476        3.080        3.001        2.672        2.589        0.484        0.000        0.000        2.000        0.000        1.000        1.000        0.000        0.000        1.000        0.000        0.000        0.000        0.000        1.000        0.000        0.000        0.000        0.000        0.000        0.000        0.000        0.000        0.000        0.000        0.000        0.000        3.000        0.000        0.000        8.000        1.000        0.000        0.000        4.494        0.000       95.506        0.000        0.000        1.999        2.004        2.852
     590.000  -263339.030    26752.204    15741.487    43463.347       90.988  -395192.199    45805.144       25.764       25.485        2.683        3.079        2.496        2.680        2.690        2.946        2.707        2.592        3.144        2.684        3.117        2.496        3.093        3.007        2.720        2.652        0.490        1.000        0.000        1.000        0.000        0.000        1.000        0.000        0.000        1.000        0.000        0.000        0.000        0.000        0.000        0.000        0.000        0.000        0.000        0.000        0.000        0.000        0.000        0.000        0.000        0.000        0.000        2.000        0.000        1.000       13.000        1.000        0.000        0.000        0.000        0.000      100.000        0.000        0.000        2.279        2.287        3.143
     600.000  -262920.691    25222.466    15794.654    43539.797       94.849  -395514.150    47941.693       25.792       25.670        2.601        3.151        2.520        2.733        2.701        3.058        2.633        2.618        3.195        2.703        3.148        2.471        3.051        2.987        2.684        2.596        0.497        1.000        0.000        1.000        0.000        1.000        3.000        0.000        0.000        0.000        0.000        0.000        0.000        0.000        1.000        0.000        0.000        0.000        0.000        0.000        0.000        0.000        0.000        0.000        0.000        0.000        0.000        3.000        0.000        0.000        7.000        0.000        0.000        0.000        0.000        0.000      100.000        0.000        0.000        2.102        2.128        2.832
     610.000  -263099.768    25555.325    15405.754    43766.671       77.810  -396269.627    48364.300       26.212       25.919        2.668        2.991        2.488        2.665        2.734        3.064        2.651        2.509        3.146        2.663        3.112        2.504        3.110        3.008        2.649        2.565        0.488        1.000        0.000        1.000        0.000        1.000        2.000        0.000        0.000        2.000        0.000        0.000        0.000        0.000        0.000        0.000        0.000        0.000        0.000        0.000        0.000        0.000        0.000        0.000        0.000        1.000        0.000        2.000        0.000        0.000        8.000        0.000        0.000        0.000        0.000        0.000      100.000        0.000        0.000        1.824        1.857        2.613
     620.000  -262780.620    25088.347    15823.419    43738.364       74.900  -395943.901    48438.251       25.803       25.746        2.676        3.111        2.468        2.650        2.628        3.134        2.683        2.564        3.171        2.699        3.191        2.396        2.994        3.063        2.685        2.617        0.501        0.000        0.000        1.000        0.000        0.000        1.000        0.000        0.000        1.000        0.000        0.000        0.000        0.000        1.000        0.000        0.000        0.000        0.000        0.000        0.000        0.000        0.000        0.000        0.000        0.000        0.000        2.000        0.000        0.000        9.000        0.000        0.000        0.000        4.494        0.000       95.506        0.000        0.000        1.747        1.777        2.587
     630.000  -262405.712    25994.082    15938.354    43362.923       83.338  -394821.676    47037.266       26.010       25.764        2.712        3.033        2.520        2.622        2.670        3.030        2.655        2.584        3.154        2.638        3.148        2.403        3.071        3.054        2.705        2.616        0.498        1.000        0.000        1.000        0.000        1.000        3.000        0.000        0.000        0.000        0.000        0.000        0.000        0.000        1.000        0.000        0.000        0.000        0.000        0.000        0.000        0.000        0.000        0.000        0.000        0.000        0.000        2.000        0.000        0.000       10.000        1.000        0.000        0.000        0.000        0.000      100.000        0.000        0.000        1.965        1.987        2.729
     640.000  -262083.322    24655.179    15677.449    43925.789       93.807  -395470.910    49035.364       25.662       25.518        2.656        3.019        2.497        2.624        2.645        2.989        2.689        2.557        3.172        2.667        3.104        2.431        3.004        3.003        2.644        2.612        0.492        1.000        0.000        1.000        0.000        1.000        3.000        0.000        0.000        0.000        0.000        0.000        0.000        0.000        0.000        0.000        0.000        0.000        0.000        0.000        0.000        0.000        0.000        0.000        0.000        0.000        0.000        1.000        0.000        0.000        6.000        0.000        0.000        0.000        0.000        0.000      100.000        0.000        0.000        1.796        1.802        2.662
     650.000  -262727.937    26459.620    15678.432    43841.831       68.637  -397658.879    48882.423       25.652       25.344        2.641        3.039        2.537        2.634        2.702        2.954        2.632        2.528        3.145        2.651        3.146        2.434        3.057        2.992        2.666        2.631        0.474        0.000        0.000        0.000        0.000        1.000        3.000        0.000        0.000        0.000        0.000        0.000        0.000        0.000        0.000        0.000        0.000        0.000        0.000        0.000        0.000        0.000        0.000        0.000        0.000        0.000        0.000        4.000        0.000        0.000        6.000        0.000        0.000        0.000        0.000        0.000      100.000        0.000        0.000        1.725        1.726        2.546
     660.000  -262739.262    26036.139    15164.700    43562.575       79.279  -394892.836    47310.882       25.754       25.647        2.640        2.981        2.520        2.653        2.643        3.086        2.669        2.540        3.173        2.654        3.136        2.456        3.090        3.061        2.688        2.549        0.490        1.000        0.000        1.000        0.000        1.000        3.000        0.000        0.000        1.000        0.000        0.000        0.000        0.000        0.000        0.000        0.000        0.000        0.000        0.000        0.000        0.000        0.000        0.000        0.000        1.000        0.000        2.000        0.000        0.000        4.000        0.000        0.000        0.000        0.000        0.000      100.000        0.000        0.000        1.968        2.003        2.772
     670.000  -262194.847    25922.607    15467.799    43692.010       88.457  -395098.308    47732.588       25.652       25.396        2.627        3.008        2.541        2.717        2.684        3.183        2.663        2.583        3.155        2.667        3.125        2.502        3.116        3.032        2.690        2.651        0.486        1.000        0.000        1.000        0.000        1.000        3.000        0.000        0.000        1.000        0.000        0.000        0.000        0.000        1.000        0.000        0.000        0.000        0.000        0.000        0.000        0.000        0.000        0.000        0.000        0.000        0.000        5.000        0.000        0.000        5.000        0.000        0.000        0.000        0.000        0.000      100.000        0.000        0.000        2.347        2.392        3.015
     680.000  -262798.913    25365.300    15529.278    43950.928       94.521  -395602.783    47863.843       25.613       25.461        2.655        3.071        2.488        2.641        2.639        3.083        2.626        2.548        3.146        2.650        3.177        2.418        3.044        3.040        2.721        2.604        0.488        1.000        0.000        2.000        0.000        1.000        4.000        0.000        0.000        0.000        0.000        0.000        0.000        0.000        0.000        0.000        0.000        0.000        0.000        0.000        0.000        0.000        0.000        0.000        0.000        0.000        0.000        1.000        0.000        0.000       10.000        0.000        0.000        0.000        0.000        0.000      100.000        0.000        0.000        2.172        2.228        2.998
     690.000  -262682.216    27068.520    15589.359    43508.841       72.564  -397298.079    48376.578       25.961       25.861        2.636        3.026        2.574        2.640        2.674        3.029        2.604        2.571        3.145        2.656        3.178        2.417        3.021        3.062        2.725        2.572        0.478        1.000        0.000        2.000        0.000        0.000        4.000        0.000        0.000        1.000        0.000        0.000        0.000        0.000        0.000        0.000        0.000        0.000        0.000        0.000        0.000        0.000        0.000        0.000        0.000        1.000        0.000        1.000        0.000        1.000        9.000        0.000        0.000        0.000        0.000        0.000      100.000        0.000        0.000        2.229        2.277        2.892
     700.000  -262836.130    26662.996    15439.648    43539.781       85.973  -395363.447    46798.918       26.073       25.890        2.600        3.155        2.514        2.683        2.671        3.098        2.620        2.627        3.155        2.699        3.166        2.377        3.034        3.018        2.699        2.623        0.479        0.000        0.000        2.000        0.000        1.000        3.000        0.000        0.000        1.000        0.000        0.000        0.000        0.000        0.000        0.000        0.000        0.000        0.000        0.000        0.000        0.000        0.000        0.000        0.000        0.000        0.000        1.000        0.000        1.000        9.000        0.000        0.000        0.000        0.000        0.000      100.000        0.000        0.000        2.058        2.077        2.964
     710.000  -263500.963    26807.768    15392.248    43494.296       97.389  -395962.497    46669.832       25.945       25.688        2.619        3.058        2.514        2.657        2.539        3.072        2.660        2.574        3.186        2.610        3.122        2.451        3.022        3.092        2.693        2.614        0.490        1.000        0.000        2.000        0.000        1.000        3.000        0.000        0.000        1.000        0.000        0.000        0.000        0.000        1.000        0.000        0.000        0.000        0.000        0.000        0.000        0.000        0.000        0.000        0.000        0.000        0.000        1.000        0.000        1.000        5.000        0.000        0.000        0.000        0.000        0.000      100.000        0.000        0.000        1.808        1.805        2.894
     720.000  -262638.112    25669.769    15724.206    43524.307       85.656  -395030.870    47388.819       26.045       25.667        2.642        3.115        2.515        2.625        2.534        3.145        2.691        2.509        3.174        2.684        3.135        2.460        3.100        3.033        2.685        2.606        0.483        1.000        0.000        2.000        0.000        1.000        3.000        0.000        0.000        0.000        0.000        0.000        0.000        0.000        0.000        0.000        0.000        0.000        0.000        0.000        0.000        0.000        0.000        0.000        0.000        0.000        0.000        2.000        0.000        1.000        7.000        0.000        0.000        0.000        0.000        0.000      100.000        0.000        0.000        2.229        2.234        3.158
     730.000  -262358.870    26870.325    15607.304    43167.740      104.879  -395778.591    47669.473       25.748       25.464        2.601        3.010        2.510        2.722        2.591        3.066        2.634        2.579        3.162        2.682        3.159        2.475        3.054        3.028        2.707        2.579        0.495        0.000        0.000        1.000        0.000        0.000        3.000        0.000        0.000        0.000        0.000        0.000        0.000        0.000        0.000        0.000        0.000        0.000        0.000        0.000        0.000        0.000        0.000        0.000        0.000        1.000        0.000        4.000        0.000        1.000        2.000        0.000        0.000        0.000        0.000        0.000      100.000        0.000        0.000        2.209        2.181        3.201
     740.000  -262728.350    25596.753    15332.640    43437.494      100.151  -397004.843    49809.457       25.565       25.495        2.643        3.073        2.493        2.694        2.559        3.080        2.639        2.587        3.151        2.646        3.182        2.430        3.066        3.076        2.680        2.597        0.470        1.000        0.000        2.000        0.000        1.000        4.000        0.000        0.000        1.000        0.000        0.000        0.000        0.000        0.000        0.000        0.000        0.000        0.000        0.000        0.000        0.000        0.000        0.000        0.000        2.000        0.000        1.000        0.000        1.000        8.000        0.000        0.000        0.000        0.000        0.000      100.000        0.000        0.000        2.299        2.289        3.277
     750.000  -262756.981    25974.427    15543.757    43486.182       96.470  -395568.956    47711.140       25.487       25.480        2.634        3.098        2.480        2.696        2.586        3.087        2.667        2.574        3.135        2.668        3.163        2.495        3.089        3.065        2.661        2.619        0.488        0.000        0.000        1.000        0.000        1.000        3.000        0.000        0.000        0.000        0.000        0.000        0.000        0.000        2.000        0.000        0.000        0.000        0.000        0.000        0.000        0.000        0.000        0.000        0.000        1.000        0.000        6.000        0.000        1.000        8.000        2.000        0.000        0.000        0.000        0.000      100.000        0.000        0.000        2.716        2.726        3.677
     760.000  -262688.981    25537.224    15602.983    43766.796       92.124  -396524.581    48836.473       25.310       25.297        2.609        3.110        2.537        2.709        2.533        3.110        2.645        2.585        3.186        2.641        3.187        2.395        3.068        3.032        2.644        2.573        0.472        1.000        0.000        1.000        0.000        0.000        4.000        1.000        0.000        0.000        0.000        0.000        0.000        0.000        2.000        0.000        0.000        0.000        0.000        0.000        0.000        0.000        0.000        0.000        0.000        1.000        0.000        1.000        0.000        0.000        5.000        0.000        0.000        0.000        0.000        0.000      100.000        0.000        0.000        2.426        2.469        3.399
     770.000  -263097.489    26453.835    15267.864    43430.934       78.499  -394465.572    46136.951       25.999       25.639        2.640        3.094        2.532        2.648        2.557        3.023        2.642        2.526        3.223        2.697        3.143        2.447        3.035        3.063        2.699        2.618        0.488        1.000        0.000        1.000        0.000        1.000        4.000        0.000        0.000        1.000        0.000        0.000        0.000        0.000        2.000        0.000        0.000        0.000        0.000        0.000        0.000        0.000        0.000        0.000        0.000        1.000        0.000        1.000        0.000        0.000        4.000        1.000        0.000        0.000        0.000        0.000      100.000        0.000        0.000        2.028        2.081        3.117
     780.000  -261764.242    25678.430    15298.258    43350.010       81.555  -393959.191    47786.696       25.700       25.561        2.669        3.120        2.584        2.716        2.556        3.065        2.678        2.624        3.168        2.688        3.158        2.442        3.085        3.075        2.696        2.593        0.474        0.000        0.000        2.000        0.000        0.000        2.000        0.000        0.000        0.000        0.000        0.000        0.000        0.000        2.000        0.000        0.000        0.000        0.000        0.000        0.000        0.000        0.000        0.000        0.000        0.000        0.000        1.000        0.000        1.000        6.000        0.000        0.000        0.000        0.000        0.000      100.000        0.000        0.000        1.972        1.987        3.085
     790.000  -263338.328    25442.736    14978.466    43524.270       72.919  -396121.227    48764.509       25.381       25.485        2.688        3.129        2.538        2.685        2.580        3.054        2.616        2.508        3.218        2.691        3.099        2.489        3.064        3.065        2.697        2.556        0.482        1.000        0.000        1.000        0.000        0.000        1.000        0.000        0.000        0.000        0.000        0.000        0.000        0.000        0.000        0.000        0.000        0.000        0.000        0.000        0.000        0.000        0.000        0.000        0.000        0.000        0.000        3.000        0.000        1.000        8.000        0.000        0.000        0.000        0.000        0.000      100.000        0.000        0.000        2.064        2.084        3.253
     800.000  -262696.723    25643.292    15546.743    43581.926       76.598  -395421.323    47876.042       26.094       25.683        2.656        3.233        2.536        2.657        2.557        3.063        2.611        2.567        3.171        2.677        3.085        2.388        3.038        3.053        2.628        2.612        0.483        1.000        0.000        2.000        0.000        1.000        3.000        0.000        0.000        0.000        0.000        0.000        0.000        0.000        1.000        0.000        0.000        0.000        0.000        0.000        0.000        0.000        0.000        0.000        0.000        0.000        0.000        3.000        0.000        0.000        3.000        0.000        0.000        0.000        0.000        0.000      100.000        0.000        0.000        2.234        2.269        3.346
     810.000  -263129.288    26543.919    15649.949    43511.337       92.775  -396702.350    47775.081       25.712       25.128        2.683        3.164        2.516        2.648        2.593        3.015        2.634        2.510        3.134        2.680        3.155        2.454        3.066        3.014        2.614        2.588        0.493        0.000        0.000        2.000        0.000        1.000        4.000        0.000        0.000        0.000        0.000        0.000        0.000        0.000        1.000        0.000        0.000        0.000        0.000        0.000        0.000        0.000        0.000        0.000        0.000        1.000        0.000        1.000        0.000        0.000        2.000        0.000        0.000        0.000        0.000        0.000      100.000        0.000        0.000        2.206        2.257        3.280
     820.000  -263184.242    25300.913    15689.155    43638.442       92.287  -397131.015    49225.976       25.821       25.480        2.664        3.223        2.533        2.648        2.561        3.040        2.587        2.543        3.155        2.627        3.161        2.458        3.074        3.017        2.659        2.570        0.453        0.000        0.000        1.000        0.000        1.000        5.000        0.000        0.000        0.000        0.000        0.000        0.000        0.000        1.000        0.000        0.000        0.000        0.000        0.000        0.000        0.000        0.000        0.000        0.000        1.000        0.000        1.000        0.000        0.000        3.000        0.000        0.000        0.000        4.494        0.000       95.506        0.000        0.000        2.531        2.561        3.657
     830.000  -263072.152    26611.771    15442.842    43475.460       77.791  -395962.149    47282.132       25.474       25.484        2.673        3.129        2.490        2.659        2.604        3.065        2.591        2.598        3.155        2.689        3.166        2.531        3.076        2.984        2.650        2.615        0.485        0.000        0.000        1.000        0.000        1.000        4.000        0.000        0.000        1.000        0.000        0.000        0.000        0.000        0.000        0.000        0.000        0.000        0.000        0.000        0.000        0.000        0.000        0.000        0.000        0.000        0.000        2.000        0.000        0.000        3.000        0.000        0.000        0.000        4.494        0.000       95.506        0.000        0.000        2.413        2.437        3.437
     840.000  -262633.564    25911.494    15144.121    43720.974       85.314  -394988.827    47493.360       25.833       25.594        2.662        3.186        2.552        2.617        2.585        3.008        2.619        2.495        3.181        2.620        3.176        2.427        3.104        3.019        2.617        2.639        0.482        1.000        0.000        1.000        0.000        0.000        6.000        0.000        0.000        0.000        0.000        0.000        0.000        0.000        0.000        0.000        0.000        0.000        0.000        0.000        0.000        0.000        0.000        0.000        0.000        0.000        0.000        2.000        0.000        1.000        5.000        0.000        0.000        0.000        0.000        0.000      100.000        0.000        0.000        2.740        2.803        3.674
     850.000  -262915.545    25791.424    15189.707    43678.508       75.655  -395290.897    47640.059       25.487       25.191        2.689        3.154        2.521        2.635        2.559        2.994        2.614        2.543        3.156        2.641        3.159        2.418        3.103        3.030        2.677        2.607        0.484        1.000        0.000        1.000        0.000        0.000        3.000        0.000        0.000        0.000        0.000        0.000        0.000        0.000        0.000        0.000        0.000        0.000        0.000        0.000        0.000        0.000        0.000        0.000        0.000        0.000        0.000        1.000        0.000        1.000        5.000        0.000        0.000        0.000        0.000        0.000      100.000        0.000        0.000        2.452        2.499        3.446
     860.000  -263305.347    26434.773    15124.787    43510.633       97.801  -395822.147    47348.806       25.675       25.173        2.635        3.107        2.549        2.639        2.551        3.092        2.586        2.602        3.186        2.581        3.115        2.469        3.049        3.052        2.591        2.607        0.466        1.000        0.000        2.000        0.000        0.000        3.000        0.000        0.000        0.000        0.000        0.000        0.000        0.000        1.000        0.000        0.000        0.000        0.000        0.000        0.000        0.000        0.000        0.000        0.000        0.000        0.000        2.000        0.000        1.000        4.000        0.000        0.000        0.000        0.000        0.000      100.000        0.000        0.000        2.399        2.455        3.368
     870.000  -263014.830    26695.312    15341.309    43588.931       84.247  -395153.205    46428.577       25.485       25.399        2.640        3.183        2.528        2.622        2.557        3.131        2.585        2.529        3.153        2.603        3.199        2.444        3.068        3.073        2.662        2.615        0.479        1.000        0.000        2.000        0.000        1.000        5.000        0.000        0.000        0.000        0.000        0.000        0.000        0.000        0.000        0.000        0.000        0.000        0.000        0.000        0.000        0.000        0.000        0.000        0.000        1.000        0.000        1.000        0.000        1.000        5.000        0.000        0.000        0.000        0.000        0.000      100.000        0.000        0.000        2.549        2.587        3.424
     880.000  -263411.707    26747.348    15450.623    43431.149       77.331  -396185.523    47067.365       25.681       25.362        2.653        3.172        2.558        2.620        2.540        3.096        2.591        2.537        3.170        2.662        3.125        2.408        3.051        3.060        2.669        2.613        0.483        1.000        0.000        2.000        0.000        0.000        5.000        0.000        0.000        0.000        0.000        0.000        0.000        0.000        1.000        0.000        0.000        0.000        0.000        0.000        0.000        0.000        0.000        0.000        0.000        0.000        0.000        2.000        0.000        1.000        4.000        1.000        0.000        0.000        0.000        0.000      100.000        0.000        0.000        2.411        2.441        3.353
     890.000  -263121.098    25800.450    15371.529    43591.218       86.532  -395221.215    47250.389       25.448       25.238        2.638        3.053        2.535        2.657        2.590        3.062        2.645        2.567        3.118        2.655        3.152        2.447        3.066        3.035        2.668        2.623        0.459        1.000        0.000        2.000        0.000        0.000        6.000        0.000        0.000        0.000        0.000        0.000        0.000        0.000        0.000        0.000        0.000        0.000        0.000        0.000        0.000        0.000        0.000        0.000        0.000        2.000        0.000        1.000        0.000        1.000       10.000        0.000        0.000        0.000        0.000        0.000      100.000        0.000        0.000        2.631        2.669        3.565
     900.000  -262560.849    25905.595    15678.790    43640.602       77.850  -395219.037    47355.351       25.496       25.546        2.615        3.084        2.518        2.654        2.575        3.089        2.680        2.593        3.174        2.630        3.149        2.433        3.033        2.962        2.610        2.622        0.480        1.000        0.000        2.000        0.000        0.000        5.000        0.000        0.000        0.000        0.000        0.000        0.000        0.000        0.000        0.000        0.000        0.000        0.000        0.000        0.000        0.000        0.000        0.000        0.000        1.000        0.000        0.000        0.000        1.000        5.000        0.000        0.000        0.000        0.000        0.000      100.000        0.000        0.000        2.984        3.003        3.854
     910.000  -262084.592    25486.532    15581.917    43689.195       92.296  -394924.873    47990.341       25.454       25.330        2.618        3.062        2.516        2.634        2.525        3.020        2.635        2.533        3.159        2.668        3.171        2.477        3.018        3.021        2.598        2.613        0.486        1.000        0.000        2.000        0.000        0.000        4.000        0.000        0.000        0.000        0.000        0.000        0.000        0.000        2.000        0.000        0.000        0.000        0.000        0.000        0.000        0.000        0.000        0.000        0.000        0.000        0.000        1.000        0.000        1.000        4.000        0.000        0.000        0.000        0.000        0.000      100.000        0.000        0.000        2.935        2.965        3.768
     920.000  -262649.501    25994.904    15451.755    43538.230       85.580  -395746.081    48026.110       25.502       25.310        2.671        3.160        2.539        2.656        2.580        2.967        2.709        2.607        3.161        2.673        3.149        2.397        3.011        3.029        2.607        2.617        0.495        1.000        0.000        2.000        0.000        0.000        5.000        0.000        0.000        1.000        0.000        0.000        0.000        0.000        1.000        0.000        0.000        0.000        0.000        0.000        0.000        0.000        0.000        0.000        0.000        0.000        0.000        1.000        0.000        1.000        7.000        0.000        0.000        0.000        0.000        0.000      100.000        0.000        0.000        2.718        2.758        3.652
     930.000  -262277.349    25104.626    15699.092    43682.910       71.123  -394957.044    48121.944       25.748       25.471        2.617        3.115        2.515        2.647        2.559        3.052        2.676        2.592        3.130        2.678        3.098        2.473        3.024        2.972        2.694        2.587        0.484        1.000        0.000        2.000        0.000        0.000        5.000        0.000        0.000        0.000        0.000        0.000        0.000        0.000        1.000        0.000        0.000        0.000        0.000        0.000        0.000        0.000        0.000        0.000        0.000        0.000        0.000        1.000        0.000        1.000        4.000        0.000        0.000        0.000        0.000        0.000      100.000        0.000        0.000        2.404        2.454        3.415
     940.000  -262343.534    25596.092    15554.550    43618.194       68.375  -394003.881    46823.135       26.110       25.605        2.634        3.115        2.484        2.624        2.591        3.053        2.615        2.597        3.188        2.647        3.183        2.465        3.088        3.075        2.679        2.607        0.495        1.000        0.000        2.000        0.000        0.000        4.000        0.000        0.000        0.000        0.000        0.000        0.000        0.000        0.000        0.000        0.000        0.000        0.000        0.000        0.000        0.000        0.000        0.000        0.000        1.000        0.000        0.000        0.000        1.000        5.000        0.000        0.000        0.000        0.000        0.000      100.000        0.000        0.000        2.583        2.614        3.599
     950.000  -262703.772    26238.425    15462.392    43489.627       90.636  -395713.520    47728.668       25.823       25.471        2.606        3.120        2.590        2.680        2.524        3.016        2.602        2.588        3.200        2.696        3.161        2.478        3.020        3.055        2.683        2.656        0.499        1.000        0.000        1.000        0.000        0.000        4.000        0.000        0.000        1.000        0.000        0.000        0.000        0.000        1.000        0.000        0.000        0.000        0.000        0.000        0.000        0.000        0.000        0.000        0.000        0.000        0.000        1.000        0.000        1.000       14.000        1.000        0.000        0.000        0.000        0.000      100.000        0.000        0.000        2.617        2.663        3.600
     960.000  -263335.992    26684.173    15589.783    43533.734       80.236  -395276.653    46052.735       25.792       25.546        2.501        3.158        2.498        2.648        2.566        3.078        2.670        2.595        3.212        2.658        3.112        2.407        3.048        3.050        2.744        2.625        0.464        0.000        0.000        2.000        0.000        0.000        5.000        0.000        0.000        0.000        0.000        0.000        0.000        0.000        1.000        0.000        0.000        0.000        0.000        0.000        0.000        0.000        0.000        0.000        0.000        2.000        0.000        0.000        0.000        1.000        7.000        0.000        0.000        0.000        0.000        0.000      100.000        0.000        0.000        2.726        2.783        3.740
     970.000  -263029.253    26560.595    15248.619    43574.858       94.391  -395289.619    46781.903       25.706       25.531        2.563        3.150        2.514        2.613        2.534        3.113        2.654        2.555        3.192        2.669        3.226        2.412        3.086        3.033        2.698        2.594        0.487        1.000        0.000        1.000        0.000        0.000        5.000        0.000        0.000        0.000        0.000        0.000        0.000        0.000        1.000        0.000        0.000        0.000        0.000        0.000        0.000        0.000        0.000        0.000        0.000        0.000        0.000        2.000        0.000        1.000        6.000        0.000        0.000        0.000        0.000        0.000      100.000        0.000        0.000        2.439        2.481        3.248
     980.000  -262997.075    25067.794    15303.170    43803.574      101.835  -395452.020    48178.572       26.060       25.597        2.558        3.221        2.543        2.663        2.557        3.083        2.627        2.610        3.168        2.665        3.183        2.469        3.093        3.090        2.633        2.648        0.489        1.000        0.000        1.000        0.000        0.000        5.000        0.000        0.000        0.000        0.000        0.000        0.000        0.000        0.000        0.000        0.000        0.000        0.000        0.000        0.000        0.000        0.000        0.000        0.000        1.000        0.000        1.000        0.000        1.000        5.000        0.000        0.000        0.000        0.000        0.000      100.000        0.000        0.000        2.576        2.644        3.390
     990.000  -262628.749    25345.046    15526.673    43552.814       92.003  -394301.833    47156.548       25.917       25.608        2.526        3.133        2.509        2.627        2.524        3.044        2.623        2.592        3.155        2.700        3.194        2.444        3.004        2.991        2.694        2.602        0.489        1.000        0.000        2.000        0.000        0.000        4.000        0.000        0.000        0.000        0.000        0.000        0.000        0.000        1.000        0.000        0.000        0.000        0.000        0.000        0.000        0.000        0.000        0.000        0.000        0.000        0.000        0.000        0.000        1.000        6.000        0.000        0.000        0.000        0.000        0.000      100.000        0.000        0.000        2.527        2.568        3.497
    1000.000  -262895.339    25220.145    15472.392    43832.241       98.507  -396500.433    48981.810       25.705       25.546        2.539        3.200        2.511        2.679        2.546        3.001        2.620        2.583        3.200        2.650        3.196        2.404        3.060        2.978        2.675        2.608        0.478        0.000        0.000        1.000        0.000        0.000        3.000        0.000        0.000        1.000        0.000        0.000        0.000        0.000        1.000        0.000        0.000        0.000        0.000        0.000        0.000        0.000        0.000        0.000        0.000        0.000        0.000        1.000        0.000        1.000        6.000        0.000        0.000        0.000        0.000        0.000      100.000        0.000        0.000        2.856        2.923        3.669
     Average  -264554.164    26393.167    15556.585    43649.525       83.986  -398645.176    48407.749       25.853       25.692        2.640        3.137        2.523        2.661        2.625        3.064        2.666        2.575        3.181        2.645        3.145        2.518        3.069        3.038        2.676        2.607        0.486        0.871        0.000        1.634        0.000        0.693        4.366        0.010        0.000        0.317        0.000        0.000        0.000        0.000        0.644        0.000        0.000        0.000        0.000        0.000        0.000        0.000        0.000        0.000        0.000        0.238        0.000        1.089        0.000        0.307        6.208        0.198        0.000        0.000        0.222        0.000       99.778        0.000        0.000        2.051        2.078        2.831

