____Time[ps] Energy[ kJ/mol ]_____Bond _______Angle ____Dihedral ___Planarity _____Coulomb _________VdW _Your result _Your result _Your result _Your result _Your result _Your result _Your result _Your result _Your result _Your result _Your result _Your result _Your result _Your result _Your result _Your result _Your result _Your result _Your result _Your result _Your result _Your result _Your result _Your result _Your result _Your result _Your result _Your result _Your result _Your result _Your result _Your result _Your result _Your result _Your result _Your result _Your result _Your result _Your result _Your result _Your result _Your result _Your result _Your result _Your result _Your result _Your result _Your result _Your result _Your result _Your result _Your result _Your result _Your result _Your result _Your result _Your result _RMSDs[A]:CA ____Backbone __HeavyAtoms
       0.000  -310303.321     7554.517     4288.038    44789.318       12.247  -426055.747    59108.305       25.337       25.243        2.585        2.535        2.593        2.599        2.628        2.987        2.703        2.540        3.214        2.671        2.564        2.679        3.096        2.925        2.573        2.564        0.490        1.000        0.000        1.000        1.000        3.000        3.000        1.000        0.000        1.000        0.000        0.000        0.000        0.000        0.000        0.000        0.000        0.000        0.000        0.000        1.000        0.000        0.000        0.000        0.000        1.000        0.000        1.000        0.000        1.000        2.000        1.000        0.000        0.000        0.000        0.000      100.000        0.000        0.000        0.480        0.499        0.619
      10.000  -234151.817    27390.239    13725.848    44166.814       63.110  -363155.822    43657.993       25.945       26.003        2.580        2.453        2.563        2.592        2.638        2.993        2.735        2.595        3.229        2.612        2.528        2.708        3.001        2.915        2.589        2.586        0.466        1.000        0.000        1.000        1.000        1.000        3.000        1.000        0.000        0.000        0.000        0.000        0.000        0.000        0.000        0.000        0.000        0.000        0.000        0.000        1.000        0.000        0.000        0.000        0.000        0.000        0.000        0.000        3.000        0.000        1.000        0.000        0.000        0.000        0.000        0.000      100.000        0.000        0.000        1.313        1.336        1.488
      20.000  -233332.898    26815.494    14532.075    44417.404       78.098  -362877.439    43701.470       25.795       26.173        2.638        2.464        2.560        2.627        2.645        2.994        2.693        2.593        3.242        2.638        2.593        2.719        3.077        2.930        2.582        2.587        0.509        1.000        0.000        1.000        0.000        1.000        3.000        0.000        0.000        0.000        0.000        0.000        0.000        0.000        1.000        1.000        0.000        0.000        0.000        0.000        0.000        0.000        0.000        0.000        0.000        0.000        0.000        0.000        2.000        1.000        6.000        0.000        0.000        0.000        0.000        0.000      100.000        0.000        0.000        1.524        1.534        1.731
      30.000  -232967.479    26812.919    14999.164    44145.333       63.767  -361022.893    42034.232       25.957       26.065        2.601        2.491        2.518        2.570        2.639        2.944        2.716        2.563        3.254        2.557        2.578        2.701        3.073        2.998        2.594        2.633        0.508        0.000        0.000        1.000        1.000        1.000        3.000        1.000        0.000        0.000        0.000        0.000        0.000        0.000        2.000        0.000        0.000        0.000        0.000        0.000        0.000        0.000        0.000        0.000        0.000        1.000        0.000        2.000        3.000        1.000        4.000        0.000        0.000        0.000        0.000        0.000      100.000        0.000        0.000        1.269        1.287        1.500
      40.000  -232462.693    25329.779    14512.902    44218.889       57.080  -361179.983    44598.640       26.117       26.143        2.584        2.485        2.501        2.566        2.639        2.985        2.706        2.606        3.244        2.525        2.637        2.685        3.051        2.995        2.624        2.558        0.485        0.000        0.000        1.000        1.000        1.000        2.000        0.000        0.000        0.000        0.000        0.000        0.000        0.000        0.000        0.000        0.000        0.000        0.000        0.000        0.000        0.000        0.000        0.000        0.000        1.000        2.000        1.000        1.000        1.000        1.000        0.000        0.000        0.000        0.000        0.000      100.000        0.000        0.000        1.461        1.456        1.710
      50.000  -232934.382    26056.935    13996.944    44481.277      100.417  -359526.973    41957.018       25.911       25.844        2.618        2.517        2.517        2.592        2.616        3.039        2.701        2.597        3.240        2.572        2.623        2.699        3.063        2.928        2.536        2.584        0.491        0.000        0.000        1.000        1.000        1.000        3.000        1.000        0.000        0.000        0.000        0.000        0.000        0.000        0.000        0.000        0.000        0.000        0.000        0.000        0.000        0.000        0.000        0.000        0.000        1.000        0.000        1.000        1.000        1.000        3.000        2.000        0.000        0.000        0.000        0.000      100.000        0.000        0.000        1.384        1.383        1.710
      60.000  -232302.157    25382.898    14425.181    44542.546       72.850  -359395.369    42669.736       25.789       25.968        2.586        2.465        2.536        2.614        2.612        2.989        2.724        2.563        3.250        2.558        2.673        2.692        3.076        2.925        2.594        2.557        0.468        0.000        0.000        1.000        1.000        1.000        2.000        0.000        0.000        0.000        0.000        0.000        0.000        0.000        1.000        0.000        0.000        0.000        0.000        0.000        0.000        0.000        0.000        0.000        0.000        0.000        0.000        3.000        1.000        1.000        7.000        0.000        0.000        0.000        0.000        0.000      100.000        0.000        0.000        1.378        1.380        1.642
      70.000  -231669.764    24950.905    14708.618    44626.853       77.833  -359393.363    43359.390       26.100       26.087        2.611        2.490        2.489        2.614        2.600        3.061        2.688        2.551        3.210        2.549        2.591        2.641        3.021        2.987        2.608        2.482        0.483        0.000        0.000        1.000        1.000        1.000        3.000        1.000        0.000        0.000        0.000        0.000        0.000        0.000        0.000        0.000        0.000        0.000        0.000        0.000        0.000        0.000        0.000        0.000        0.000        0.000        0.000        2.000        1.000        1.000        3.000        0.000        0.000        0.000        0.000        0.000      100.000        0.000        0.000        1.392        1.392        1.610
      80.000  -231361.126    24626.540    14747.436    44212.028       74.141  -357807.773    42786.501       26.161       26.045        2.624        2.489        2.530        2.589        2.621        2.982        2.666        2.571        3.237        2.580        2.504        2.703        3.062        2.975        2.570        2.504        0.477        0.000        0.000        1.000        1.000        1.000        2.000        1.000        0.000        1.000        0.000        0.000        0.000        0.000        1.000        0.000        0.000        0.000        0.000        0.000        0.000        0.000        0.000        0.000        0.000        1.000        1.000        3.000        0.000        1.000        5.000        0.000        0.000        0.000        0.000        0.000      100.000        0.000        0.000        1.255        1.252        1.556
      90.000  -231963.226    24980.442    14821.333    44336.333       83.770  -359513.856    43328.752       26.024       25.851        2.605        2.471        2.601        2.624        2.598        3.065        2.699        2.556        3.251        2.540        2.555        2.684        3.050        2.971        2.514        2.495        0.478        0.000        0.000        1.000        1.000        1.000        4.000        1.000        0.000        0.000        0.000        0.000        0.000        0.000        2.000        0.000        0.000        0.000        0.000        0.000        0.000        0.000        0.000        0.000        0.000        1.000        2.000        2.000        2.000        0.000        6.000        0.000        0.000        0.000        0.000        0.000      100.000        0.000        0.000        1.315        1.334        1.604
     100.000  -231313.826    24045.201    14824.568    44290.674       70.904  -358733.348    44188.175       26.148       26.107        2.598        2.495        2.562        2.572        2.663        3.077        2.662        2.537        3.258        2.572        2.547        2.685        3.045        3.033        2.619        2.567        0.477        0.000        0.000        1.000        0.000        1.000        5.000        1.000        0.000        1.000        0.000        0.000        0.000        0.000        1.000        0.000        0.000        0.000        0.000        0.000        0.000        0.000        0.000        0.000        0.000        0.000        0.000        2.000        1.000        0.000        6.000        0.000        0.000        0.000        0.000        0.000      100.000        0.000        0.000        1.604        1.628        1.788
     110.000  -230956.436    24547.173    14674.050    44308.155       73.779  -356175.017    41615.424       26.205       26.184        2.662        2.440        2.540        2.642        2.608        3.075        2.737        2.542        3.253        2.572        2.572        2.697        3.060        3.093        2.587        2.536        0.475        0.000        0.000        1.000        0.000        1.000        3.000        0.000        0.000        1.000        0.000        0.000        0.000        0.000        0.000        0.000        0.000        0.000        0.000        0.000        0.000        0.000        0.000        0.000        0.000        1.000        0.000        1.000        2.000        0.000        8.000        0.000        0.000        0.000        0.000        0.000      100.000        0.000        0.000        1.711        1.725        1.904
     120.000  -231157.749    24875.792    14681.464    44236.540       81.101  -356581.748    41549.101       26.339       26.406        2.618        2.457        2.502        2.649        2.621        2.995        2.707        2.549        3.268        2.592        2.522        2.700        3.011        3.065        2.606        2.517        0.493        0.000        0.000        1.000        0.000        1.000        5.000        0.000        0.000        0.000        0.000        0.000        1.000        0.000        0.000        0.000        0.000        0.000        0.000        0.000        0.000        0.000        0.000        0.000        0.000        0.000        1.000        3.000        1.000        1.000        7.000        0.000        0.000        0.000        0.000        0.000      100.000        0.000        0.000        1.778        1.788        1.937
     130.000  -231318.779    24716.337    14447.719    44303.105       92.111  -357371.042    42492.991       26.195       26.262        2.577        2.504        2.505        2.566        2.634        3.035        2.697        2.522        3.221        2.633        2.583        2.672        3.095        3.062        2.563        2.581        0.485        1.000        0.000        1.000        0.000        1.000        3.000        1.000        0.000        0.000        0.000        0.000        0.000        0.000        0.000        0.000        0.000        0.000        0.000        0.000        0.000        0.000        0.000        0.000        0.000        1.000        0.000        2.000        0.000        2.000       10.000        0.000        0.000        0.000        0.000        0.000      100.000        0.000        0.000        1.693        1.716        1.907
     140.000  -230612.507    23667.651    14414.263    44192.957       85.140  -355218.484    42245.967       26.177       26.147        2.566        2.467        2.495        2.602        2.647        3.057        2.694        2.563        3.159        2.600        2.616        2.687        3.034        3.012        2.552        2.585        0.483        0.000        0.000        1.000        0.000        1.000        0.000        1.000        0.000        0.000        0.000        0.000        0.000        0.000        1.000        0.000        0.000        0.000        0.000        0.000        0.000        0.000        0.000        0.000        0.000        0.000        0.000        0.000        2.000        1.000       11.000        0.000        0.000        0.000        0.000        0.000      100.000        0.000        0.000        1.683        1.708        1.900
     150.000  -230237.632    23322.308    14208.846    44545.088       72.875  -355652.550    43265.801       26.099       26.058        2.597        2.493        2.501        2.600        2.596        3.145        2.653        2.561        3.137        2.624        2.611        2.682        3.037        2.949        2.572        2.524        0.482        0.000        0.000        1.000        0.000        1.000        1.000        0.000        0.000        2.000        0.000        0.000        0.000        0.000        2.000        0.000        0.000        0.000        0.000        0.000        0.000        0.000        0.000        0.000        0.000        1.000        0.000        1.000        3.000        1.000       10.000        1.000        0.000        0.000        0.000        0.000      100.000        0.000        0.000        1.886        1.906        2.119
     160.000  -229755.751    24535.748    14644.711    44239.891       83.487  -354803.838    41544.251       25.926       26.176        2.617        2.479        2.485        2.650        2.562        3.094        2.681        2.597        3.237        2.595        2.602        2.675        3.001        3.008        2.485        2.582        0.498        0.000        0.000        1.000        0.000        1.000        2.000        0.000        0.000        1.000        0.000        0.000        0.000        0.000        2.000        0.000        0.000        0.000        0.000        0.000        0.000        0.000        0.000        0.000        0.000        0.000        0.000        0.000        1.000        0.000        8.000        1.000        0.000        0.000        0.000        0.000      100.000        0.000        0.000        1.751        1.758        2.031
     170.000  -229588.952    23621.430    14763.747    44158.583       73.979  -352993.263    40786.571       26.029       26.263        2.578        2.466        2.450        2.624        2.577        3.084        2.638        2.565        3.262        2.511        2.533        2.657        3.076        3.066        2.615        2.558        0.499        0.000        0.000        1.000        0.000        0.000        2.000        1.000        0.000        1.000        0.000        0.000        0.000        0.000        0.000        0.000        0.000        0.000        0.000        0.000        0.000        0.000        0.000        0.000        0.000        1.000        0.000        3.000        0.000        0.000        7.000        0.000        0.000        0.000        0.000        0.000      100.000        0.000        0.000        1.804        1.812        2.119
     180.000  -230552.989    24072.972    14081.558    44217.348       90.416  -354928.087    41912.803       25.975       25.983        2.597        2.437        2.459        2.647        2.636        3.037        2.695        2.550        3.269        2.494        2.572        2.708        3.055        3.036        2.590        2.616        0.484        0.000        0.000        1.000        0.000        0.000        2.000        1.000        0.000        0.000        0.000        0.000        0.000        0.000        1.000        0.000        0.000        0.000        0.000        0.000        0.000        0.000        0.000        0.000        0.000        0.000        1.000        2.000        0.000        1.000        7.000        0.000        0.000        0.000        0.000        0.000      100.000        0.000        0.000        1.929        1.949        2.378
     190.000  -229106.112    23491.982    14673.244    44222.195       86.999  -353370.284    41789.751       25.843       26.172        2.612        2.437        2.500        2.621        2.586        3.099        2.665        2.582        3.263        2.505        2.629        2.688        3.076        2.917        2.664        2.618        0.488        0.000        0.000        1.000        0.000        0.000        2.000        1.000        0.000        0.000        0.000        0.000        1.000        0.000        1.000        0.000        0.000        0.000        0.000        0.000        0.000        0.000        0.000        0.000        0.000        1.000        0.000        1.000        0.000        0.000        3.000        0.000        0.000        0.000        0.000        0.000      100.000        0.000        0.000        1.724        1.757        2.202
     200.000  -229360.971    23023.906    14328.701    44248.478       73.049  -353099.123    42064.018       26.027       26.165        2.621        2.439        2.459        2.599        2.636        3.082        2.659        2.596        3.234        2.549        2.544        2.677        3.084        2.931        2.620        2.640        0.485        0.000        0.000        0.000        0.000        0.000        3.000        1.000        0.000        0.000        0.000        0.000        0.000        0.000        1.000        0.000        0.000        0.000        0.000        0.000        0.000        0.000        0.000        0.000        0.000        1.000        0.000        0.000        1.000        2.000        4.000        2.000        0.000        0.000        0.000        0.000      100.000        0.000        0.000        1.762        1.796        2.204
     210.000  -229427.736    24502.347    14355.732    44204.503       70.924  -353330.424    40769.181       25.923       25.939        2.632        2.488        2.445        2.613        2.593        3.072        2.656        2.619        3.205        2.538        2.485        2.695        3.069        3.001        2.580        2.568        0.489        0.000        0.000        0.000        0.000        0.000        4.000        1.000        0.000        1.000        0.000        0.000        0.000        0.000        1.000        0.000        0.000        0.000        0.000        0.000        0.000        0.000        0.000        0.000        0.000        1.000        1.000        1.000        2.000        0.000        2.000        1.000        0.000        0.000        0.000        0.000      100.000        0.000        0.000        1.867        1.905        2.383
     220.000  -230243.477    23707.713    14813.830    44085.869       76.220  -354416.579    41489.470       26.113       25.979        2.590        2.441        2.473        2.628        2.662        3.087        2.660        2.624        3.215        2.515        2.545        2.700        3.131        2.956        2.539        2.651        0.476        0.000        0.000        0.000        0.000        0.000        6.000        1.000        0.000        0.000        0.000        0.000        0.000        0.000        1.000        0.000        0.000        0.000        0.000        0.000        0.000        0.000        0.000        0.000        0.000        2.000        0.000        1.000        0.000        1.000        5.000        0.000        0.000        0.000        0.000        0.000      100.000        0.000        0.000        1.902        1.918        2.434
     230.000  -229174.646    23436.275    14077.045    44254.290       98.253  -352397.585    41357.076       26.061       26.217        2.598        2.462        2.498        2.574        2.624        3.048        2.662        2.571        3.272        2.546        2.536        2.647        3.143        2.998        2.591        2.547        0.511        0.000        0.000        0.000        0.000        0.000        5.000        0.000        0.000        0.000        0.000        0.000        1.000        0.000        0.000        0.000        0.000        0.000        0.000        0.000        0.000        0.000        0.000        0.000        0.000        0.000        0.000        2.000        1.000        2.000        3.000        0.000        0.000        0.000        0.000        0.000      100.000        0.000        0.000        1.887        1.926        2.411
     240.000  -229627.270    24091.535    14400.581    44184.468       75.041  -353010.103    40631.207       26.141       25.742        2.628        2.467        2.464        2.652        2.602        3.094        2.648        2.562        3.272        2.507        2.576        2.686        3.156        2.944        2.624        2.610        0.523        0.000        0.000        1.000        0.000        0.000        7.000        1.000        0.000        0.000        0.000        0.000        0.000        0.000        0.000        0.000        0.000        0.000        0.000        0.000        0.000        0.000        0.000        0.000        0.000        4.000        0.000        1.000        0.000        2.000        0.000        1.000        0.000        0.000        4.494        0.000       95.506        0.000        0.000        2.267        2.292        2.816
     250.000  -229420.601    23511.134    13926.901    43979.118       68.959  -351346.220    40439.508       26.099       26.146        2.668        2.482        2.505        2.656        2.608        3.076        2.665        2.640        3.319        2.558        2.514        2.669        3.047        2.997        2.634        2.626        0.473        0.000        0.000        1.000        0.000        0.000        4.000        1.000        0.000        1.000        0.000        0.000        0.000        0.000        1.000        0.000        0.000        0.000        0.000        0.000        0.000        0.000        0.000        0.000        0.000        1.000        0.000        1.000        1.000        2.000        8.000        1.000        0.000        0.000        0.000        0.000      100.000        0.000        0.000        2.353        2.375        2.953
     260.000  -229045.412    23046.679    14224.577    44224.122       85.643  -352552.261    41925.828       26.138       25.991        2.595        2.448        2.488        2.623        2.573        3.122        2.650        2.574        3.208        2.595        2.544        2.685        3.085        2.918        2.598        2.598        0.488        0.000        0.000        0.000        0.000        0.000        6.000        1.000        0.000        0.000        0.000        0.000        1.000        0.000        0.000        0.000        0.000        0.000        0.000        0.000        0.000        0.000        0.000        0.000        0.000        1.000        0.000        0.000        0.000        2.000        1.000        1.000        0.000        0.000        0.000        0.000      100.000        0.000        0.000        2.114        2.119        2.851
     270.000  -228755.253    22862.554    14007.887    44263.014       99.335  -352277.085    42289.042       25.970       25.867        2.531        2.451        2.502        2.572        2.607        3.088        2.639        2.634        3.215        2.513        2.642        2.706        2.946        2.966        2.575        2.554        0.478        0.000        0.000        0.000        0.000        0.000        5.000        1.000        0.000        2.000        0.000        0.000        0.000        0.000        1.000        0.000        0.000        0.000        0.000        0.000        0.000        0.000        0.000        0.000        0.000        0.000        0.000        1.000        0.000        2.000        6.000        0.000        0.000        0.000        4.494        0.000       95.506        0.000        0.000        2.001        2.014        2.770
     280.000  -228638.041    24021.123    14164.845    43941.725       71.732  -350979.214    40141.748       26.004       26.101        2.590        2.499        2.486        2.613        2.635        3.044        2.666        2.522        3.249        2.592        2.617        2.701        3.021        2.994        2.589        2.533        0.499        0.000        0.000        0.000        0.000        0.000        4.000        1.000        0.000        2.000        0.000        0.000        0.000        0.000        1.000        0.000        0.000        0.000        0.000        0.000        0.000        0.000        0.000        0.000        0.000        3.000        0.000        1.000        0.000        0.000        5.000        2.000        0.000        0.000        0.000        0.000      100.000        0.000        0.000        2.416        2.436        3.038
     290.000  -229690.059    23353.946    13851.850    44238.318       73.175  -352628.129    41420.779       26.093       26.083        2.562        2.471        2.447        2.621        2.603        3.079        2.673        2.555        3.227        2.526        2.657        2.723        2.903        3.020        2.602        2.605        0.492        0.000        0.000        1.000        0.000        0.000        5.000        1.000        0.000        1.000        0.000        0.000        0.000        0.000        1.000        0.000        0.000        0.000        0.000        0.000        0.000        0.000        0.000        0.000        0.000        2.000        0.000        0.000        0.000        0.000        2.000        1.000        0.000        0.000        0.000        0.000      100.000        0.000        0.000        2.419        2.445        3.041
     300.000  -229135.240    21883.168    13870.716    44358.167       67.480  -352627.417    43312.646       26.033       26.120        2.556        2.470        2.431        2.579        2.585        3.042        2.677        2.591        3.194        2.541        2.612        2.675        2.954        2.995        2.637        2.596        0.497        0.000        0.000        1.000        0.000        0.000        4.000        1.000        0.000        1.000        0.000        0.000        1.000        0.000        0.000        0.000        0.000        0.000        0.000        0.000        0.000        0.000        0.000        0.000        0.000        3.000        0.000        0.000        0.000        2.000        5.000        0.000        0.000        0.000        4.494        0.000       95.506        0.000        0.000        2.255        2.291        2.781
     310.000  -228312.941    23705.639    14133.705    44230.958       71.613  -350701.738    40246.883       26.029       26.226        2.590        2.460        2.468        2.574        2.563        3.136        2.668        2.600        3.237        2.543        2.657        2.724        2.931        2.994        2.560        2.594        0.475        0.000        0.000        0.000        0.000        0.000        4.000        1.000        0.000        1.000        0.000        0.000        0.000        0.000        0.000        0.000        0.000        0.000        0.000        0.000        0.000        0.000        0.000        0.000        0.000        3.000        0.000        0.000        1.000        1.000        5.000        0.000        0.000        0.000        0.000        0.000      100.000        0.000        0.000        2.163        2.205        2.809
     320.000  -228788.803    23280.335    14051.659    44004.135       72.206  -350465.988    40268.849       25.997       26.237        2.598        2.527        2.452        2.597        2.671        3.084        2.663        2.533        3.204        2.531        2.658        2.691        2.925        3.025        2.576        2.570        0.489        0.000        0.000        1.000        0.000        0.000        3.000        1.000        0.000        0.000        0.000        0.000        0.000        0.000        0.000        0.000        0.000        0.000        0.000        0.000        0.000        0.000        0.000        0.000        0.000        2.000        0.000        0.000        0.000        1.000        7.000        0.000        0.000        0.000        0.000        0.000      100.000        0.000        0.000        1.843        1.869        2.476
     330.000  -229078.760    23293.775    14233.916    44059.953       84.396  -352286.940    41536.141       25.864       26.273        2.634        2.505        2.458        2.652        2.671        3.080        2.665        2.595        3.247        2.511        2.679        2.685        2.868        3.012        2.626        2.606        0.491        0.000        0.000        1.000        0.000        0.000        3.000        1.000        0.000        0.000        0.000        0.000        0.000        0.000        0.000        0.000        0.000        0.000        0.000        0.000        0.000        0.000        0.000        0.000        0.000        4.000        2.000        1.000        0.000        0.000        7.000        1.000        0.000        0.000        0.000        0.000      100.000        0.000        0.000        1.919        1.918        2.453
     340.000  -229074.514    22384.398    14020.598    44180.251       65.560  -352044.444    42319.122       25.667       25.688        2.644        2.487        2.474        2.664        2.673        3.111        2.604        2.508        3.251        2.543        2.667        2.711        2.952        2.982        2.558        2.552        0.505        0.000        0.000        1.000        0.000        0.000        5.000        1.000        0.000        0.000        0.000        0.000        0.000        0.000        1.000        0.000        0.000        0.000        0.000        0.000        0.000        0.000        0.000        0.000        0.000        2.000        0.000        1.000        1.000        1.000        4.000        0.000        0.000        0.000        0.000        0.000      100.000        0.000        0.000        1.674        1.669        2.376
     350.000  -228521.019    23436.536    14040.324    44021.843       91.197  -350203.319    40092.399       26.017       25.988        2.610        2.484        2.457        2.667        2.682        3.126        2.691        2.565        3.220        2.560        2.707        2.683        2.998        2.951        2.607        2.577        0.497        0.000        0.000        1.000        0.000        0.000        3.000        1.000        0.000        0.000        0.000        0.000        0.000        0.000        0.000        0.000        0.000        0.000        0.000        0.000        0.000        0.000        0.000        0.000        0.000        1.000        0.000        1.000        2.000        0.000        4.000        0.000        0.000        0.000        0.000        0.000      100.000        0.000        0.000        1.934        1.936        2.599
     360.000  -228666.855    22954.307    14041.620    44270.060       83.894  -351352.893    41336.157       25.845       25.933        2.590        2.463        2.415        2.627        2.706        3.088        2.700        2.572        3.216        2.527        2.653        2.680        2.991        3.017        2.639        2.662        0.514        0.000        0.000        1.000        0.000        0.000        5.000        1.000        0.000        0.000        0.000        0.000        0.000        0.000        1.000        0.000        0.000        0.000        0.000        0.000        0.000        0.000        0.000        0.000        0.000        1.000        0.000        1.000        0.000        0.000        5.000        0.000        0.000        0.000        0.000        0.000      100.000        0.000        0.000        1.624        1.673        2.358
     370.000  -229362.917    22453.530    13920.140    44230.984       72.198  -352582.606    42542.837       26.122       26.112        2.567        2.502        2.488        2.618        2.679        3.041        2.642        2.555        3.244        2.544        2.655        2.663        2.918        2.977        2.544        2.636        0.483        0.000        0.000        1.000        0.000        0.000        5.000        1.000        0.000        0.000        0.000        0.000        0.000        0.000        0.000        0.000        0.000        0.000        0.000        0.000        0.000        0.000        0.000        0.000        0.000        3.000        1.000        1.000        0.000        0.000        2.000        0.000        0.000        0.000        0.000        0.000      100.000        0.000        0.000        1.800        1.800        2.478
     380.000  -229072.203    22296.409    13866.056    44058.952       77.360  -349979.735    40608.756       26.156       26.068        2.651        2.478        2.481        2.681        2.721        3.039        2.678        2.499        3.277        2.561        2.662        2.680        3.001        2.978        2.557        2.604        0.503        0.000        0.000        1.000        0.000        0.000        4.000        1.000        0.000        0.000        0.000        0.000        0.000        0.000        0.000        0.000        0.000        0.000        0.000        0.000        0.000        0.000        0.000        0.000        0.000        1.000        0.000        1.000        0.000        1.000        6.000        0.000        0.000        0.000        0.000        0.000      100.000        0.000        0.000        1.579        1.573        2.296
     390.000  -229098.533    23311.960    13770.363    43886.900       81.911  -351197.826    41048.159       26.141       26.168        2.583        2.476        2.481        2.643        2.675        3.152        2.647        2.595        3.224        2.573        2.658        2.687        2.994        3.007        2.620        2.603        0.478        1.000        0.000        1.000        0.000        0.000        4.000        1.000        0.000        1.000        0.000        0.000        0.000        0.000        1.000        0.000        0.000        0.000        0.000        0.000        0.000        0.000        0.000        0.000        0.000        2.000        0.000        1.000        0.000        0.000        7.000        0.000        0.000        0.000        0.000        0.000      100.000        0.000        0.000        1.705        1.704        2.397
     400.000  -228974.315    23427.786    13970.403    43989.306       74.866  -351364.267    40927.592       26.295       26.239        2.654        2.492        2.490        2.664        2.712        3.070        2.645        2.592        3.237        2.557        2.676        2.698        2.935        2.975        2.588        2.616        0.487        0.000        0.000        1.000        0.000        0.000        3.000        1.000        0.000        1.000        0.000        0.000        0.000        0.000        1.000        0.000        0.000        0.000        0.000        0.000        0.000        0.000        0.000        0.000        0.000        2.000        0.000        1.000        1.000        0.000        4.000        0.000        0.000        0.000        0.000        0.000      100.000        0.000        0.000        1.660        1.669        2.297
     410.000  -228817.242    23672.141    13834.560    44194.073       92.905  -349834.846    39223.924       25.940       26.241        2.650        2.516        2.462        2.601        2.716        3.129        2.675        2.525        3.275        2.574        2.639        2.671        2.977        3.013        2.590        2.602        0.489        0.000        0.000        1.000        0.000        0.000        3.000        1.000        0.000        0.000        0.000        0.000        0.000        0.000        0.000        0.000        0.000        0.000        0.000        0.000        0.000        0.000        0.000        0.000        0.000        3.000        0.000        0.000        0.000        0.000        7.000        2.000        0.000        0.000        0.000        0.000      100.000        0.000        0.000        1.640        1.657        2.367
     420.000  -228590.615    23829.123    13921.767    44125.286       95.028  -350928.530    40366.712       25.877       26.212        2.599        2.516        2.491        2.632        2.692        3.128        2.660        2.589        3.218        2.565        2.697        2.710        2.934        3.039        2.588        2.609        0.504        0.000        0.000        1.000        0.000        0.000        2.000        0.000        0.000        0.000        0.000        0.000        1.000        0.000        0.000        0.000        0.000        0.000        0.000        0.000        0.000        0.000        0.000        0.000        0.000        1.000        0.000        1.000        0.000        0.000        4.000        0.000        0.000        0.000        0.000        0.000      100.000        0.000        0.000        1.781        1.812        2.550
     430.000  -228810.509    24057.193    14049.307    43871.443       82.948  -351098.214    40226.815       26.105       26.283        2.565        2.461        2.447        2.629        2.665        3.095        2.624        2.544        3.250        2.522        2.656        2.692        3.018        3.020        2.630        2.588        0.485        0.000        0.000        1.000        0.000        0.000        2.000        1.000        0.000        0.000        0.000        0.000        0.000        0.000        0.000        0.000        0.000        0.000        0.000        0.000        0.000        0.000        0.000        0.000        0.000        1.000        0.000        2.000        0.000        1.000        6.000        0.000        0.000        0.000        0.000        0.000      100.000        0.000        0.000        1.874        1.886        2.572
     440.000  -228689.694    23622.837    13867.732    44102.368       74.553  -351217.545    40860.361       26.222       26.179        2.574        2.462        2.487        2.624        2.736        3.085        2.629        2.552        3.277        2.575        2.659        2.654        2.953        2.967        2.568        2.551        0.494        0.000        0.000        1.000        0.000        0.000        1.000        1.000        0.000        0.000        0.000        0.000        1.000        0.000        0.000        0.000        0.000        0.000        0.000        0.000        0.000        0.000        0.000        0.000        0.000        2.000        0.000        0.000        1.000        0.000        6.000        0.000        0.000        0.000        0.000        0.000      100.000        0.000        0.000        1.750        1.746        2.468
     450.000  -227889.236    22523.517    14173.150    44182.141       76.826  -350977.967    42133.096       26.417       26.401        2.603        2.492        2.453        2.583        2.671        3.052        2.659        2.568        3.218        2.585        2.629        2.663        2.996        2.991        2.580        2.557        0.492        0.000        0.000        1.000        0.000        0.000        3.000        0.000        0.000        1.000        0.000        0.000        0.000        0.000        1.000        0.000        0.000        0.000        0.000        0.000        0.000        0.000        0.000        0.000        0.000        1.000        1.000        0.000        0.000        1.000        7.000        0.000        0.000        0.000        0.000        0.000      100.000        0.000        0.000        1.856        1.868        2.644
     460.000  -228079.972    23296.065    13633.098    44253.446       71.988  -351391.390    42056.820       25.942       26.163        2.619        2.437        2.485        2.656        2.661        3.054        2.660        2.587        3.193        2.552        2.659        2.669        3.003        3.011        2.572        2.537        0.486        0.000        0.000        1.000        0.000        0.000        3.000        1.000        0.000        0.000        0.000        0.000        0.000        0.000        1.000        0.000        0.000        0.000        0.000        0.000        0.000        0.000        0.000        0.000        0.000        0.000        1.000        1.000        0.000        0.000        5.000        1.000        0.000        0.000        4.494        0.000       95.506        0.000        0.000        2.289        2.316        3.232
     470.000  -228384.516    22621.944    13987.470    44049.395       79.781  -350246.675    41123.570       25.977       26.027        2.612        2.471        2.458        2.613        2.670        3.085        2.677        2.599        3.274        2.549        2.663        2.701        2.966        3.041        2.601        2.615        0.493        0.000        0.000        0.000        0.000        1.000        2.000        1.000        0.000        0.000        0.000        0.000        0.000        0.000        1.000        0.000        0.000        0.000        0.000        0.000        0.000        0.000        0.000        0.000        0.000        1.000        1.000        1.000        0.000        0.000        7.000        0.000        0.000        0.000        0.000        0.000      100.000        0.000        0.000        1.957        1.991        3.154
     480.000  -228499.923    22474.901    14008.979    44114.304       83.868  -350574.150    41392.176       26.159       26.041        2.667        2.466        2.455        2.622        2.666        3.052        2.616        2.612        3.264        2.531        2.702        2.644        2.962        3.031        2.622        2.545        0.474        0.000        0.000        1.000        0.000        1.000        2.000        1.000        0.000        0.000        0.000        0.000        1.000        0.000        0.000        0.000        0.000        0.000        0.000        0.000        0.000        0.000        0.000        0.000        0.000        1.000        0.000        0.000        0.000        0.000        7.000        0.000        0.000        0.000        4.494        0.000       95.506        0.000        0.000        2.128        2.156        3.175
     490.000  -228355.236    22749.945    14192.667    44118.457       68.276  -351039.619    41555.038       26.082       26.174        2.633        2.503        2.478        2.615        2.683        3.168        2.687        2.595        3.266        2.565        2.629        2.686        2.979        2.947        2.581        2.667        0.470        0.000        0.000        1.000        0.000        1.000        3.000        0.000        0.000        1.000        0.000        0.000        1.000        0.000        1.000        0.000        0.000        0.000        0.000        0.000        0.000        0.000        0.000        0.000        0.000        0.000        1.000        0.000        0.000        1.000        6.000        0.000        0.000        0.000        0.000        0.000      100.000        0.000        0.000        2.068        2.095        3.035
     500.000  -228204.094    22293.394    14399.807    44081.394       72.683  -350861.439    41810.068       25.944       26.168        2.602        2.487        2.436        2.583        2.714        3.078        2.684        2.637        3.202        2.558        2.641        2.676        3.024        2.946        2.524        2.614        0.477        0.000        0.000        0.000        0.000        1.000        3.000        1.000        0.000        0.000        0.000        0.000        1.000        0.000        0.000        0.000        0.000        0.000        0.000        0.000        0.000        0.000        0.000        0.000        0.000        2.000        0.000        0.000        0.000        0.000        7.000        0.000        0.000        0.000        0.000        0.000      100.000        0.000        0.000        1.881        1.925        2.640
     510.000  -228237.867    23386.512    14232.397    44044.613       78.552  -350466.521    40486.580       25.999       26.171        2.590        2.507        2.454        2.610        2.655        3.010        2.644        2.605        3.262        2.551        2.649        2.692        3.034        3.060        2.517        2.554        0.497        0.000        0.000        1.000        0.000        1.000        3.000        1.000        0.000        0.000        0.000        0.000        1.000        0.000        1.000        0.000        0.000        0.000        0.000        0.000        0.000        0.000        0.000        0.000        0.000        2.000        0.000        0.000        0.000        1.000        7.000        2.000        0.000        0.000        0.000        0.000      100.000        0.000        0.000        1.834        1.850        2.623
     520.000  -228024.022    23286.636    14073.070    44171.160       68.730  -350124.424    40500.805       25.787       26.046        2.646        2.439        2.438        2.614        2.687        3.100        2.659        2.574        3.251        2.544        2.631        2.704        2.899        3.035        2.477        2.588        0.477        0.000        0.000        1.000        0.000        0.000        3.000        1.000        0.000        1.000        0.000        0.000        0.000        0.000        1.000        0.000        0.000        0.000        0.000        0.000        0.000        0.000        0.000        0.000        0.000        1.000        0.000        1.000        0.000        1.000        4.000        0.000        0.000        0.000        0.000        0.000      100.000        0.000        0.000        2.091        2.112        2.929
     530.000  -229030.402    22441.064    13958.452    44070.577       72.294  -352072.525    42499.735       25.922       26.051        2.566        2.454        2.456        2.659        2.688        3.071        2.641        2.580        3.276        2.597        2.716        2.669        2.950        3.071        2.544        2.605        0.477        0.000        0.000        1.000        0.000        0.000        3.000        1.000        0.000        0.000        0.000        0.000        1.000        0.000        0.000        0.000        0.000        0.000        0.000        0.000        0.000        0.000        0.000        0.000        0.000        3.000        0.000        1.000        2.000        0.000        1.000        0.000        0.000        0.000        0.000        0.000      100.000        0.000        0.000        1.799        1.811        2.583
     540.000  -228140.167    23600.211    14128.375    44025.039       69.496  -350826.054    40862.766       26.019       26.147        2.603        2.457        2.487        2.632        2.686        3.202        2.624        2.594        3.226        2.539        2.665        2.664        2.958        2.968        2.509        2.580        0.480        0.000        0.000        0.000        0.000        1.000        3.000        1.000        0.000        0.000        0.000        0.000        0.000        0.000        1.000        0.000        0.000        0.000        0.000        0.000        0.000        0.000        0.000        0.000        0.000        4.000        0.000        1.000        2.000        2.000        7.000        0.000        0.000        0.000        0.000        0.000      100.000        0.000        0.000        1.807        1.820        2.525
     550.000  -228462.736    22832.401    13875.097    44028.755       71.766  -351505.624    42234.869       26.106       26.233        2.596        2.512        2.461        2.573        2.656        3.149        2.623        2.603        3.169        2.574        2.632        2.697        2.980        2.994        2.536        2.553        0.492        0.000        0.000        1.000        0.000        0.000        2.000        1.000        0.000        1.000        0.000        0.000        0.000        0.000        1.000        0.000        0.000        0.000        0.000        0.000        0.000        0.000        0.000        0.000        0.000        5.000        0.000        0.000        0.000        0.000        7.000        1.000        0.000        0.000        0.000        0.000      100.000        0.000        0.000        1.940        1.979        2.727
     560.000  -228106.965    22636.516    14025.284    44096.760       86.823  -350517.815    41565.467       26.033       26.302        2.624        2.472        2.473        2.558        2.665        3.090        2.652        2.539        3.246        2.534        2.635        2.695        2.999        2.951        2.548        2.549        0.472        0.000        0.000        1.000        0.000        0.000        2.000        1.000        0.000        0.000        0.000        0.000        0.000        0.000        0.000        0.000        0.000        0.000        0.000        0.000        0.000        0.000        0.000        0.000        0.000        3.000        0.000        2.000        0.000        1.000        2.000        0.000        0.000        0.000        0.000        0.000      100.000        0.000        0.000        1.740        1.754        2.735
     570.000  -227826.801    22718.237    14053.003    44086.138       73.139  -350516.307    41758.991       26.131       26.289        2.582        2.479        2.490        2.658        2.719        2.995        2.654        2.593        3.223        2.570        2.591        2.723        2.989        2.997        2.521        2.555        0.485        0.000        0.000        1.000        0.000        1.000        3.000        1.000        0.000        0.000        0.000        0.000        0.000        0.000        1.000        0.000        0.000        0.000        0.000        0.000        0.000        0.000        0.000        0.000        0.000        3.000        0.000        1.000        0.000        0.000        3.000        1.000        0.000        0.000        0.000        0.000      100.000        0.000        0.000        1.731        1.740        2.533
     580.000  -228170.060    23127.717    14495.733    44040.057       80.239  -351047.229    41133.423       26.012       26.051        2.552        2.443        2.531        2.614        2.674        3.015        2.663        2.575        3.177        2.588        2.587        2.711        2.906        3.044        2.510        2.550        0.496        0.000        0.000        1.000        0.000        0.000        3.000        1.000        0.000        0.000        0.000        0.000        1.000        0.000        2.000        0.000        0.000        0.000        0.000        0.000        0.000        0.000        0.000        0.000        0.000        2.000        0.000        1.000        2.000        0.000        3.000        0.000        0.000        0.000        0.000        0.000      100.000        0.000        0.000        1.604        1.590        2.429
     590.000  -228675.843    23165.076    14193.363    43839.694       72.627  -351003.423    41056.820       26.078       26.081        2.569        2.446        2.426        2.636        2.678        2.928        2.696        2.617        3.224        2.563        2.632        2.674        3.009        2.992        2.513        2.648        0.472        0.000        0.000        1.000        0.000        0.000        2.000        1.000        0.000        0.000        0.000        0.000        0.000        0.000        0.000        0.000        0.000        0.000        0.000        0.000        0.000        0.000        0.000        0.000        0.000        1.000        0.000        0.000        0.000        0.000        5.000        0.000        0.000        0.000        0.000        0.000      100.000        0.000        0.000        1.692        1.698        2.652
     600.000  -228047.940    21817.922    14126.119    44149.925       81.825  -350039.129    41815.398       26.165       25.858        2.604        2.491        2.439        2.613        2.667        3.083        2.647        2.559        3.179        2.545        2.687        2.701        2.986        3.013        2.611        2.549        0.519        0.000        0.000        1.000        0.000        1.000        3.000        1.000        0.000        1.000        0.000        0.000        1.000        0.000        2.000        0.000        0.000        0.000        0.000        0.000        0.000        0.000        0.000        0.000        0.000        5.000        0.000        1.000        0.000        1.000        6.000        0.000        0.000        0.000        0.000        0.000      100.000        0.000        0.000        1.556        1.567        2.520
     610.000  -228661.778    22024.411    13925.839    44173.151       60.304  -350328.592    41483.108       25.950       25.563        2.603        2.446        2.466        2.594        2.688        3.010        2.667        2.583        3.170        2.581        2.690        2.709        2.924        2.992        2.589        2.566        0.493        0.000        0.000        1.000        0.000        1.000        3.000        1.000        0.000        0.000        0.000        0.000        0.000        0.000        1.000        0.000        0.000        0.000        0.000        0.000        0.000        0.000        0.000        0.000        0.000        2.000        1.000        0.000        1.000        0.000        6.000        1.000        0.000        0.000        0.000        0.000      100.000        0.000        0.000        1.914        1.932        2.873
     620.000  -228909.398    22672.476    13949.363    44211.848       77.895  -350007.089    40186.109       25.763       25.566        2.580        2.463        2.462        2.615        2.667        3.051        2.696        2.509        3.180        2.565        2.664        2.677        2.943        2.965        2.562        2.544        0.475        0.000        0.000        1.000        0.000        1.000        2.000        1.000        0.000        0.000        0.000        0.000        0.000        0.000        1.000        0.000        0.000        0.000        0.000        0.000        0.000        0.000        0.000        0.000        0.000        4.000        0.000        1.000        1.000        0.000       10.000        0.000        0.000        0.000        0.000        0.000      100.000        0.000        0.000        1.695        1.722        2.806
     630.000  -228187.707    22221.486    13825.258    43882.607       89.227  -350209.840    42003.556       26.152       26.019        2.554        2.490        2.482        2.614        2.686        3.014        2.645        2.620        3.197        2.534        2.674        2.689        2.944        3.010        2.586        2.586        0.481        0.000        0.000        1.000        0.000        0.000        3.000        1.000        0.000        0.000        0.000        0.000        1.000        0.000        1.000        0.000        0.000        0.000        0.000        0.000        0.000        0.000        0.000        0.000        0.000        3.000        0.000        1.000        1.000        1.000        6.000        0.000        0.000        0.000        0.000        0.000      100.000        0.000        0.000        2.088        2.094        3.042
     640.000  -228250.676    22173.952    14080.291    44059.601       93.938  -349876.529    41218.071       26.004       25.921        2.583        2.488        2.494        2.647        2.665        3.043        2.666        2.626        3.162        2.574        2.646        2.670        2.970        2.963        2.576        2.624        0.492        0.000        0.000        1.000        0.000        1.000        2.000        1.000        0.000        0.000        0.000        0.000        1.000        0.000        2.000        0.000        0.000        0.000        0.000        0.000        0.000        0.000        0.000        0.000        0.000        2.000        0.000        0.000        0.000        0.000        3.000        0.000        0.000        0.000        0.000        0.000      100.000        0.000        0.000        1.669        1.678        2.624
     650.000  -228028.399    23437.885    13784.917    43969.224       79.676  -348471.448    39171.348       25.991       26.034        2.604        2.463        2.458        2.607        2.678        2.980        2.683        2.540        3.221        2.564        2.666        2.677        2.990        3.037        2.557        2.556        0.515        0.000        0.000        1.000        0.000        1.000        2.000        1.000        0.000        0.000        0.000        0.000        1.000        0.000        2.000        0.000        0.000        0.000        0.000        0.000        0.000        0.000        0.000        0.000        0.000        2.000        0.000        1.000        0.000        0.000        3.000        0.000        0.000        0.000        0.000        0.000      100.000        0.000        0.000        1.639        1.659        2.707
     660.000  -228086.903    22112.635    13549.239    44119.877       80.563  -349654.564    41705.347       25.730       25.823        2.556        2.487        2.456        2.587        2.695        3.049        2.662        2.563        3.252        2.564        2.630        2.658        2.937        2.990        2.505        2.574        0.492        0.000        0.000        1.000        0.000        0.000        2.000        1.000        0.000        0.000        0.000        0.000        0.000        0.000        2.000        0.000        0.000        0.000        0.000        0.000        0.000        0.000        0.000        0.000        0.000        2.000        0.000        2.000        0.000        1.000       10.000        0.000        0.000        0.000        0.000        0.000      100.000        0.000        0.000        1.864        1.846        2.827
     670.000  -228401.938    21946.896    13934.325    44203.230       61.788  -349747.991    41199.814       25.621       25.793        2.506        2.451        2.431        2.601        2.701        3.083        2.672        2.647        3.288        2.570        2.659        2.666        2.937        3.007        2.528        2.498        0.493        0.000        0.000        1.000        0.000        0.000        1.000        1.000        0.000        0.000        0.000        0.000        1.000        0.000        0.000        1.000        0.000        0.000        0.000        0.000        0.000        0.000        0.000        0.000        0.000        2.000        0.000        1.000        1.000        0.000        9.000        0.000        0.000        0.000        0.000        0.000      100.000        0.000        0.000        1.722        1.722        2.561
     680.000  -228169.445    22280.422    13847.546    44197.770       91.293  -349187.166    40600.690       25.657       25.921        2.569        2.472        2.475        2.646        2.688        3.033        2.687        2.511        3.177        2.593        2.684        2.667        2.912        2.997        2.516        2.544        0.477        0.000        0.000        1.000        0.000        0.000        0.000        1.000        0.000        0.000        0.000        0.000        2.000        0.000        0.000        0.000        0.000        0.000        0.000        0.000        0.000        0.000        0.000        0.000        0.000        3.000        0.000        1.000        0.000        0.000        7.000        0.000        0.000        0.000        0.000        0.000      100.000        0.000        0.000        1.444        1.444        2.235
     690.000  -228015.866    22012.174    13763.592    44031.124       63.346  -348838.286    40952.183       25.626       25.702        2.600        2.472        2.469        2.593        2.707        3.046        2.709        2.542        3.267        2.537        2.697        2.678        2.985        3.074        2.514        2.584        0.492        0.000        0.000        1.000        0.000        0.000        0.000        1.000        0.000        0.000        0.000        0.000        0.000        0.000        0.000        0.000        0.000        0.000        0.000        0.000        0.000        0.000        0.000        0.000        0.000        2.000        0.000        1.000        0.000        0.000        5.000        0.000        0.000        0.000        0.000        0.000      100.000        0.000        0.000        1.651        1.662        2.496
     700.000  -228201.944    22766.584    13758.519    43907.777       57.400  -350026.520    41334.296       25.605       25.603        2.661        2.500        2.468        2.625        2.726        3.024        2.691        2.569        3.245        2.510        2.667        2.710        2.899        2.996        2.528        2.594        0.489        0.000        0.000        1.000        0.000        0.000        2.000        1.000        0.000        0.000        0.000        0.000        0.000        0.000        1.000        0.000        0.000        0.000        0.000        0.000        0.000        0.000        0.000        0.000        0.000        2.000        0.000        0.000        0.000        0.000        8.000        0.000        0.000        0.000        0.000        0.000      100.000        0.000        0.000        1.622        1.624        2.552
     710.000  -227574.127    22019.039    13653.136    44077.108       84.467  -348391.600    40983.723       25.574       25.584        2.597        2.449        2.484        2.597        2.662        3.037        2.622        2.558        3.234        2.574        2.671        2.656        2.991        2.926        2.438        2.539        0.483        0.000        0.000        1.000        0.000        0.000        1.000        1.000        0.000        0.000        0.000        0.000        1.000        0.000        1.000        0.000        0.000        0.000        0.000        0.000        0.000        0.000        0.000        0.000        0.000        1.000        0.000        0.000        0.000        2.000        6.000        2.000        0.000        0.000        0.000        0.000      100.000        0.000        0.000        1.689        1.707        2.476
     720.000  -227827.672    23780.281    13790.112    44148.733       82.559  -349936.231    40306.876       25.846       25.774        2.629        2.509        2.482        2.623        2.698        3.000        2.653        2.594        3.224        2.573        2.711        2.694        2.906        2.942        2.511        2.488        0.463        0.000        0.000        1.000        0.000        1.000        0.000        1.000        0.000        0.000        0.000        0.000        0.000        0.000        2.000        0.000        0.000        0.000        0.000        0.000        0.000        0.000        0.000        0.000        0.000        5.000        0.000        1.000        1.000        1.000        3.000        1.000        0.000        0.000        0.000        0.000      100.000        0.000        0.000        1.704        1.731        2.498
     730.000  -228254.134    23211.768    13848.126    43927.695       78.711  -349056.134    39735.699       25.910       26.090        2.644        2.465        2.491        2.618        2.712        3.037        2.673        2.597        3.256        2.614        2.677        2.694        2.929        3.060        2.449        2.529        0.488        0.000        0.000        1.000        0.000        0.000        1.000        1.000        0.000        0.000        0.000        0.000        1.000        0.000        1.000        0.000        0.000        0.000        0.000        0.000        0.000        0.000        0.000        0.000        0.000        2.000        0.000        1.000        0.000        1.000        2.000        1.000        0.000        0.000        0.000        0.000      100.000        0.000        0.000        1.864        1.874        2.687
     740.000  -228013.054    22199.057    13910.307    44006.712       84.520  -350735.352    42521.703       26.049       26.010        2.600        2.464        2.448        2.572        2.690        3.018        2.695        2.623        3.269        2.585        2.636        2.692        2.958        3.033        2.482        2.515        0.495        0.000        0.000        1.000        0.000        0.000        2.000        1.000        0.000        0.000        0.000        0.000        0.000        0.000        0.000        0.000        0.000        0.000        0.000        0.000        0.000        0.000        0.000        0.000        0.000        3.000        0.000        1.000        1.000        0.000        8.000        0.000        0.000        0.000        0.000        0.000      100.000        0.000        0.000        1.998        2.016        2.765
     750.000  -228281.771    23268.755    14286.444    43852.530       70.789  -349704.311    39944.022       26.060       26.122        2.659        2.474        2.460        2.578        2.690        3.002        2.701        2.566        3.230        2.574        2.682        2.709        2.953        3.074        2.528        2.579        0.485        0.000        0.000        1.000        0.000        0.000        2.000        1.000        0.000        1.000        0.000        0.000        1.000        0.000        0.000        0.000        0.000        0.000        0.000        0.000        0.000        0.000        0.000        0.000        0.000        2.000        0.000        2.000        0.000        1.000        5.000        1.000        0.000        0.000        0.000        0.000      100.000        0.000        0.000        1.946        1.969        2.661
     760.000  -228786.965    22683.224    14078.228    44227.538       84.635  -350895.396    41034.806       25.821       25.618        2.637        2.439        2.468        2.603        2.675        2.997        2.698        2.548        3.232        2.589        2.635        2.525        2.928        3.041        2.584        2.572        0.495        0.000        0.000        1.000        0.000        0.000        4.000        1.000        0.000        1.000        0.000        0.000        0.000        0.000        1.000        0.000        0.000        0.000        0.000        0.000        0.000        0.000        0.000        0.000        0.000        1.000        0.000        1.000        2.000        0.000        4.000        0.000        0.000        0.000        0.000        0.000      100.000        0.000        0.000        2.033        2.048        2.770
     770.000  -227785.906    22989.001    13736.928    44275.090       60.182  -349297.891    40450.784       25.929       25.675        2.563        2.481        2.463        2.654        2.649        3.010        2.694        2.571        3.251        2.525        2.659        2.532        2.884        2.985        2.499        2.592        0.498        0.000        0.000        1.000        0.000        0.000        3.000        1.000        0.000        1.000        0.000        0.000        0.000        0.000        0.000        0.000        0.000        0.000        0.000        0.000        0.000        0.000        0.000        0.000        0.000        1.000        0.000        0.000        1.000        1.000       10.000        1.000        0.000        0.000        0.000        0.000      100.000        0.000        0.000        1.899        1.921        2.851
     780.000  -229019.936    23226.334    14014.549    44022.445       74.927  -351397.967    41039.776       26.070       25.703        2.640        2.510        2.479        2.644        2.676        2.984        2.675        2.610        3.246        2.618        2.697        2.520        2.958        3.024        2.478        2.552        0.474        0.000        0.000        1.000        0.000        0.000        2.000        1.000        0.000        1.000        0.000        0.000        0.000        0.000        2.000        0.000        0.000        0.000        0.000        0.000        0.000        0.000        0.000        0.000        0.000        3.000        0.000        0.000        0.000        0.000       12.000        0.000        0.000        0.000        0.000        0.000      100.000        0.000        0.000        1.856        1.884        2.759
     790.000  -227642.336    22885.824    13915.104    44003.651       66.373  -347938.255    39424.967       25.819       25.642        2.585        2.501        2.472        2.606        2.676        2.972        2.649        2.596        3.241        2.540        2.656        2.494        2.970        2.974        2.518        2.528        0.486        0.000        0.000        1.000        0.000        0.000        2.000        1.000        0.000        1.000        0.000        0.000        0.000        0.000        2.000        0.000        0.000        0.000        0.000        0.000        0.000        0.000        0.000        0.000        0.000        2.000        0.000        0.000        0.000        0.000        6.000        1.000        0.000        0.000        0.000        0.000      100.000        0.000        0.000        1.689        1.689        2.726
     800.000  -226866.828    22122.980    13817.154    44141.420       79.328  -348701.476    41673.766       25.822       25.820        2.572        2.495        2.419        2.622        2.674        3.046        2.682        2.556        3.190        2.562        2.715        2.491        2.986        2.973        2.530        2.567        0.487        0.000        0.000        1.000        0.000        0.000        2.000        1.000        0.000        0.000        0.000        0.000        1.000        0.000        0.000        1.000        0.000        0.000        0.000        0.000        0.000        0.000        0.000        0.000        0.000        1.000        0.000        0.000        0.000        0.000        4.000        1.000        0.000        0.000        0.000        0.000      100.000        0.000        0.000        1.702        1.704        2.684
     810.000  -228475.526    23209.319    14156.570    44107.645       93.361  -349833.741    39791.319       25.814       25.850        2.623        2.442        2.502        2.616        2.691        2.986        2.673        2.600        3.283        2.616        2.643        2.512        2.950        2.980        2.588        2.626        0.482        0.000        0.000        1.000        0.000        0.000        2.000        1.000        0.000        0.000        0.000        0.000        0.000        0.000        2.000        0.000        0.000        0.000        0.000        0.000        0.000        0.000        0.000        0.000        0.000        0.000        0.000        1.000        0.000        0.000        3.000        0.000        0.000        0.000        0.000        0.000      100.000        0.000        0.000        1.871        1.854        2.926
     820.000  -227754.218    22501.189    13947.452    44336.517       79.856  -348221.434    39602.202       25.670       25.628        2.563        2.472        2.506        2.605        2.670        3.044        2.658        2.565        3.238        2.542        2.676        2.511        2.897        3.090        2.503        2.565        0.498        0.000        0.000        1.000        0.000        0.000        2.000        1.000        0.000        0.000        0.000        0.000        1.000        0.000        0.000        1.000        0.000        0.000        0.000        0.000        0.000        0.000        0.000        0.000        0.000        2.000        0.000        0.000        0.000        0.000        3.000        0.000        0.000        0.000        0.000        0.000      100.000        0.000        0.000        1.547        1.541        2.750
     830.000  -227339.485    22300.345    13880.812    44436.439       77.871  -350082.906    42047.953       25.842       25.719        2.582        2.458        2.485        2.610        2.655        2.977        2.672        2.567        3.263        2.604        2.707        2.503        2.901        3.035        2.483        2.573        0.491        0.000        0.000        1.000        0.000        0.000        2.000        0.000        0.000        0.000        0.000        0.000        0.000        0.000        0.000        1.000        0.000        0.000        0.000        0.000        0.000        0.000        0.000        0.000        0.000        2.000        1.000        0.000        1.000        0.000        5.000        1.000        0.000        0.000        0.000        0.000      100.000        0.000        0.000        1.712        1.720        2.667
     840.000  -227503.372    21812.587    13565.430    44238.381       75.099  -350186.291    42991.422       25.806       26.046        2.613        2.479        2.501        2.643        2.655        2.949        2.698        2.586        3.273        2.579        2.686        2.525        2.894        3.043        2.522        2.513        0.490        0.000        0.000        1.000        0.000        0.000        1.000        1.000        0.000        0.000        0.000        0.000        0.000        0.000        0.000        0.000        0.000        0.000        0.000        0.000        0.000        0.000        0.000        0.000        0.000        4.000        0.000        0.000        0.000        1.000        4.000        1.000        0.000        0.000        0.000        0.000      100.000        0.000        0.000        1.768        1.789        2.627
     850.000  -227972.371    23573.558    13836.559    43999.613       67.431  -349345.389    39895.859       25.944       25.900        2.618        2.470        2.491        2.692        2.664        2.940        2.705        2.590        3.278        2.577        2.667        2.459        2.959        2.978        2.557        2.540        0.513        0.000        0.000        1.000        0.000        0.000        2.000        1.000        0.000        0.000        0.000        0.000        1.000        0.000        1.000        0.000        0.000        0.000        0.000        0.000        0.000        0.000        0.000        0.000        0.000        2.000        0.000        2.000        1.000        1.000        7.000        0.000        0.000        0.000        0.000        0.000      100.000        0.000        0.000        1.896        1.926        2.908
     860.000  -228786.922    22747.352    13687.679    44125.584       89.046  -348871.528    39434.945       26.014       25.873        2.648        2.476        2.509        2.668        2.714        2.980        2.692        2.593        3.253        2.598        2.669        2.538        2.878        2.987        2.477        2.518        0.483        0.000        0.000        1.000        0.000        0.000        2.000        1.000        0.000        0.000        0.000        0.000        0.000        0.000        1.000        0.000        0.000        0.000        0.000        0.000        0.000        0.000        0.000        0.000        0.000        2.000        1.000        1.000        0.000        0.000        5.000        0.000        0.000        0.000        0.000        0.000      100.000        0.000        0.000        1.856        1.878        2.897
     870.000  -228008.254    22624.062    13805.082    44106.494       78.407  -348337.194    39714.895       25.588       25.772        2.626        2.450        2.472        2.614        2.681        3.082        2.686        2.619        3.247        2.561        2.682        2.479        2.946        2.979        2.557        2.596        0.501        0.000        0.000        1.000        0.000        0.000        0.000        1.000        0.000        0.000        0.000        0.000        0.000        0.000        1.000        1.000        0.000        0.000        0.000        0.000        0.000        0.000        0.000        0.000        0.000        0.000        0.000        0.000        0.000        0.000       10.000        1.000        0.000        0.000        0.000        0.000      100.000        0.000        0.000        1.676        1.675        2.798
     880.000  -228099.882    22851.997    13861.894    44042.422       81.299  -348597.921    39660.426       25.607       25.812        2.578        2.497        2.465        2.701        2.699        2.980        2.647        2.626        3.229        2.586        2.703        2.506        3.031        2.991        2.513        2.530        0.485        0.000        0.000        1.000        0.000        0.000        0.000        1.000        0.000        1.000        0.000        0.000        0.000        0.000        3.000        0.000        0.000        0.000        0.000        0.000        0.000        0.000        0.000        0.000        0.000        1.000        0.000        0.000        0.000        0.000        2.000        0.000        0.000        0.000        0.000        0.000      100.000        0.000        0.000        1.731        1.757        3.093
     890.000  -227472.995    21696.649    13599.541    44177.849       76.668  -348872.665    41848.962       25.436       25.618        2.590        2.459        2.440        2.689        2.676        3.061        2.647        2.548        3.283        2.611        2.671        2.523        2.919        2.971        2.496        2.562        0.488        0.000        0.000        1.000        0.000        0.000        1.000        0.000        0.000        0.000        0.000        0.000        1.000        0.000        0.000        0.000        0.000        0.000        0.000        0.000        0.000        0.000        0.000        0.000        0.000        1.000        0.000        1.000        0.000        1.000        3.000        0.000        0.000        0.000        0.000        0.000      100.000        0.000        0.000        1.989        2.007        3.308
     900.000  -228555.359    22106.194    13734.915    44122.764       71.263  -349296.056    40705.562       25.542       25.745        2.680        2.468        2.448        2.697        2.663        3.064        2.672        2.611        3.221        2.515        2.675        2.500        2.965        2.988        2.572        2.579        0.498        0.000        0.000        1.000        0.000        0.000        1.000        0.000        0.000        1.000        0.000        0.000        0.000        0.000        1.000        0.000        0.000        0.000        0.000        0.000        0.000        0.000        0.000        0.000        0.000        0.000        0.000        1.000        1.000        1.000        9.000        0.000        0.000        0.000        0.000        0.000      100.000        0.000        0.000        2.015        2.080        2.960
     910.000  -227824.011    21923.137    14047.573    44188.927      103.811  -349523.641    41436.182       25.637       25.876        2.636        2.443        2.455        2.648        2.669        3.065        2.680        2.590        3.301        2.580        2.688        2.504        2.992        2.988        2.584        2.596        0.477        0.000        0.000        1.000        0.000        0.000        1.000        1.000        0.000        1.000        0.000        0.000        1.000        0.000        0.000        0.000        0.000        0.000        0.000        0.000        0.000        0.000        0.000        0.000        0.000        3.000        0.000        1.000        2.000        1.000        7.000        2.000        0.000        0.000        0.000        0.000      100.000        0.000        0.000        1.997        2.051        2.941
     920.000  -228495.422    23345.905    13729.335    43997.788       81.564  -349520.272    39870.258       25.535       26.156        2.638        2.474        2.526        2.636        2.686        3.020        2.679        2.543        3.309        2.599        2.660        2.531        2.979        3.013        2.478        2.531        0.516        0.000        0.000        1.000        0.000        0.000        1.000        0.000        0.000        1.000        0.000        0.000        0.000        0.000        0.000        1.000        0.000        0.000        0.000        0.000        0.000        0.000        0.000        0.000        0.000        3.000        0.000        1.000        0.000        0.000        2.000        0.000        0.000        0.000        0.000        0.000      100.000        0.000        0.000        2.039        2.097        3.119
     930.000  -227925.100    22632.851    13914.790    44149.155       98.228  -349107.194    40387.070       25.793       26.311        2.584        2.489        2.447        2.679        2.694        3.005        2.630        2.599        3.255        2.714        2.661        2.525        3.016        2.957        2.598        2.548        0.503        0.000        0.000        1.000        0.000        0.000        2.000        0.000        0.000        0.000        0.000        0.000        0.000        0.000        1.000        1.000        0.000        0.000        0.000        0.000        0.000        0.000        0.000        0.000        0.000        1.000        0.000        0.000        0.000        1.000        5.000        0.000        0.000        0.000        4.494        0.000       95.506        0.000        0.000        2.157        2.205        3.018
     940.000  -227237.782    22041.271    13824.518    44223.962       93.527  -348661.812    41240.751       25.610       25.922        2.590        2.473        2.452        2.657        2.689        3.050        2.670        2.543        3.260        2.676        2.688        2.529        3.044        2.963        2.573        2.552        0.461        0.000        0.000        1.000        0.000        0.000        2.000        0.000        0.000        0.000        0.000        0.000        1.000        0.000        1.000        1.000        0.000        0.000        0.000        0.000        0.000        0.000        0.000        0.000        0.000        0.000        3.000        0.000        2.000        0.000        5.000        1.000        0.000        0.000        0.000        0.000      100.000        0.000        0.000        1.861        1.922        2.727
     950.000  -227769.394    22559.541    13893.099    43892.388       85.429  -348165.395    39965.545       26.019       26.248        2.582        2.511        2.484        2.652        2.700        3.023        2.672        2.546        3.296        2.665        2.712        2.553        2.950        2.995        2.565        2.537        0.491        0.000        0.000        1.000        0.000        0.000        2.000        0.000        0.000        1.000        0.000        0.000        1.000        0.000        0.000        0.000        0.000        0.000        0.000        0.000        0.000        0.000        0.000        0.000        0.000        0.000        0.000        0.000        0.000        1.000        7.000        1.000        0.000        0.000        0.000        0.000      100.000        0.000        0.000        2.071        2.086        2.998
     960.000  -228232.266    23069.534    13668.464    43711.389       62.620  -348812.589    40068.316       25.706       25.953        2.649        2.461        2.459        2.695        2.673        3.029        2.641        2.538        3.231        2.710        2.700        2.520        2.988        2.946        2.642        2.564        0.488        0.000        0.000        1.000        0.000        0.000        2.000        1.000        0.000        0.000        0.000        0.000        1.000        0.000        1.000        0.000        0.000        0.000        0.000        0.000        0.000        0.000        0.000        0.000        0.000        1.000        0.000        2.000        1.000        0.000        4.000        0.000        0.000        0.000        0.000        0.000      100.000        0.000        0.000        1.684        1.699        2.642
     970.000  -228630.665    21770.967    13947.687    43929.638       85.448  -349728.445    41364.039       25.701       25.605        2.615        2.447        2.496        2.636        2.718        3.010        2.681        2.514        3.266        2.669        2.653        2.503        3.012        3.000        2.637        2.595        0.483        0.000        0.000        0.000        0.000        0.000        3.000        1.000        0.000        0.000        0.000        0.000        0.000        0.000        2.000        0.000        0.000        0.000        0.000        0.000        0.000        0.000        0.000        0.000        0.000        0.000        0.000        0.000        0.000        3.000        5.000        0.000        0.000        0.000        0.000        0.000      100.000        0.000        0.000        1.688        1.719        2.635
     980.000  -228638.015    23239.430    13607.942    43753.883       81.362  -348642.266    39321.634       26.038       25.956        2.614        2.483        2.491        2.661        2.720        3.054        2.724        2.479        3.258        2.701        2.699        2.520        2.999        3.023        2.633        2.660        0.496        0.000        0.000        0.000        0.000        0.000        2.000        1.000        0.000        0.000        0.000        0.000        1.000        0.000        2.000        1.000        0.000        0.000        0.000        0.000        0.000        0.000        0.000        0.000        0.000        2.000        0.000        0.000        1.000        1.000        5.000        0.000        0.000        0.000        0.000        0.000      100.000        0.000        0.000        1.645        1.664        2.719
     990.000  -228022.145    21717.940    13816.555    43937.510       75.877  -349696.397    42126.370       26.024       26.170        2.604        2.481        2.457        2.662        2.649        3.104        2.734        2.476        3.265        2.631        2.685        2.517        2.996        2.977        2.651        2.628        0.476        0.000        0.000        0.000        0.000        0.000        3.000        1.000        0.000        1.000        0.000        0.000        0.000        0.000        0.000        1.000        0.000        0.000        0.000        0.000        0.000        0.000        0.000        0.000        0.000        0.000        0.000        0.000        1.000        1.000        2.000        0.000        0.000        0.000        0.000        0.000      100.000        0.000        0.000        1.763        1.770        2.753
    1000.000  -228032.539    22951.082    13571.847    43989.484       76.512  -348354.751    39733.288       25.796       26.036        2.580        2.453        2.477        2.693        2.659        3.011        2.740        2.579        3.282        2.722        2.684        2.576        2.974        3.003        2.683        2.618        0.495        0.000        0.000        0.000        0.000        0.000        3.000        1.000        0.000        1.000        0.000        0.000        2.000        0.000        0.000        0.000        0.000        0.000        0.000        0.000        0.000        0.000        0.000        0.000        0.000        0.000        0.000        0.000        2.000        1.000        6.000        0.000        0.000        0.000        0.000        0.000      100.000        0.000        0.000        1.645        1.648        2.712
     Average  -229805.005    23085.602    13970.686    44139.790       77.624  -352546.047    41467.340       25.939       25.998        2.604        2.475        2.480        2.624        2.662        3.049        2.672        2.573        3.239        2.573        2.640        2.644        2.988        2.995        2.565        2.574        0.489        0.050        0.000        0.851        0.089        0.317        2.634        0.822        0.000        0.356        0.000        0.000        0.337        0.000        0.733        0.109        0.000        0.000        0.000        0.000        0.020        0.000        0.000        0.000        0.000        1.584        0.208        0.822        0.614        0.624        5.347        0.376        0.000        0.000        0.267        0.000       99.733        0.000        0.000        1.790        1.807        2.520

