____Time[ps] Energy[ kJ/mol ]_____Bond _______Angle ____Dihedral ___Planarity _____Coulomb _________VdW _Your result _Your result _Your result _Your result _Your result _Your result _Your result _Your result _Your result _Your result _Your result _Your result _Your result _Your result _Your result _Your result _Your result _Your result _Your result _Your result _Your result _Your result _Your result _Your result _Your result _Your result _Your result _Your result _Your result _Your result _Your result _Your result _Your result _Your result _Your result _Your result _Your result _Your result _Your result _Your result _Your result _Your result _Your result _Your result _Your result _Your result _Your result _Your result _Your result _Your result _Your result _Your result _Your result _Your result _Your result _Your result _Your result _RMSDs[A]:CA ____Backbone __HeavyAtoms
       0.000  -312010.368     6716.512     4147.567    45916.951       12.346  -427460.159    58656.415       25.488       25.212        2.579        2.537        2.530        2.625        2.568        2.573        2.627        2.605        2.620        2.660        2.628        2.693        2.449        2.521        2.506        2.584        0.491        1.000        0.000        0.000        1.000        2.000        6.000        0.000        0.000        1.000        0.000        0.000        0.000        0.000        0.000        1.000        0.000        0.000        0.000        0.000        2.000        0.000        0.000        0.000        0.000        2.000        1.000        3.000        1.000        0.000        5.000        1.000        0.000        0.000        0.000        0.000      100.000        0.000        0.000        0.423        0.461        0.550
      10.000  -235358.065    27168.699    14171.506    45864.028       88.094  -367714.561    45064.168       26.083       25.778        2.676        2.540        2.568        2.616        2.562        2.636        2.601        2.477        2.628        2.630        2.684        2.659        2.453        2.549        2.579        2.675        0.505        2.000        1.000        0.000        1.000        2.000        5.000        0.000        0.000        0.000        0.000        0.000        0.000        0.000        0.000        0.000        0.000        0.000        0.000        0.000        2.000        0.000        0.000        0.000        0.000        1.000        2.000        0.000        1.000        2.000        9.000        0.000        0.000        0.000        0.000        0.000      100.000        0.000        0.000        1.017        1.054        1.199
      20.000  -234541.933    26872.588    14316.518    45696.065       79.261  -365044.044    43537.679       26.280       25.782        2.699        2.534        2.569        2.617        2.541        2.559        2.610        2.500        2.648        2.675        2.723        2.603        2.400        2.532        2.691        2.649        0.503        2.000        0.000        0.000        1.000        1.000        5.000        0.000        0.000        0.000        0.000        0.000        1.000        0.000        2.000        0.000        0.000        0.000        0.000        0.000        2.000        0.000        0.000        0.000        0.000        1.000        0.000        2.000        2.000        2.000        9.000        0.000        0.000        0.000        0.000        0.000      100.000        0.000        0.000        1.431        1.460        1.579
      30.000  -234575.479    27097.667    14627.442    45485.065       70.483  -364379.090    42522.955       26.324       25.788        2.575        2.551        2.515        2.664        2.676        2.616        2.646        2.516        2.637        2.664        2.675        2.609        2.421        2.573        2.714        2.615        0.471        2.000        1.000        0.000        1.000        1.000        4.000        0.000        0.000        0.000        0.000        0.000        0.000        0.000        0.000        0.000        0.000        0.000        0.000        0.000        2.000        0.000        0.000        0.000        0.000        1.000        0.000        1.000        1.000        1.000       14.000        1.000        0.000        0.000        0.000        0.000      100.000        0.000        0.000        2.096        2.125        2.266
      40.000  -234558.999    25828.230    14536.796    45527.574       81.907  -363709.219    43175.713       25.945       25.498        2.610        2.528        2.558        2.674        2.607        2.593        2.591        2.513        2.631        2.616        2.720        2.550        2.424        2.537        2.667        2.619        0.491        2.000        0.000        0.000        1.000        1.000        4.000        0.000        0.000        1.000        0.000        0.000        0.000        0.000        2.000        0.000        0.000        0.000        0.000        0.000        1.000        0.000        0.000        0.000        0.000        2.000        2.000        2.000        3.000        0.000       11.000        0.000        0.000        0.000        0.000        0.000      100.000        0.000        0.000        1.776        1.802        2.021
      50.000  -233465.780    25234.790    14595.802    45662.805       72.367  -362187.597    43156.053       26.101       25.624        2.628        2.490        2.541        2.676        2.605        2.631        2.615        2.502        2.606        2.647        2.663        2.649        2.447        2.565        2.683        2.594        0.495        2.000        0.000        1.000        0.000        1.000        5.000        0.000        0.000        0.000        0.000        0.000        0.000        0.000        2.000        0.000        0.000        0.000        0.000        0.000        1.000        0.000        0.000        0.000        0.000        2.000        1.000        0.000        5.000        1.000       15.000        0.000        0.000        0.000        0.000        0.000      100.000        0.000        0.000        1.820        1.829        2.007
      60.000  -233906.778    26125.252    14409.009    45816.696       73.678  -362874.144    42542.731       26.014       25.583        2.619        2.556        2.523        2.674        2.634        2.573        2.642        2.496        2.596        2.644        2.693        2.633        2.538        2.536        2.704        2.590        0.488        2.000        0.000        0.000        0.000        1.000        6.000        0.000        0.000        1.000        0.000        0.000        0.000        0.000        1.000        0.000        0.000        0.000        0.000        0.000        1.000        0.000        0.000        0.000        0.000        4.000        1.000        3.000        1.000        1.000        9.000        0.000        0.000        0.000        0.000        0.000      100.000        0.000        0.000        1.445        1.464        1.838
      70.000  -233479.283    25321.361    14453.196    45750.516       76.959  -362590.047    43508.733       26.079       25.662        2.674        2.560        2.539        2.683        2.621        2.542        2.609        2.480        2.627        2.658        2.745        2.674        2.478        2.516        2.672        2.616        0.485        1.000        0.000        1.000        0.000        1.000        3.000        0.000        0.000        1.000        0.000        0.000        0.000        0.000        1.000        0.000        0.000        0.000        0.000        0.000        0.000        0.000        0.000        0.000        0.000        3.000        2.000        1.000        3.000        4.000        9.000        0.000        0.000        0.000        0.000        0.000      100.000        0.000        0.000        1.632        1.647        1.983
      80.000  -232963.499    24553.817    14876.108    45865.067       59.849  -362044.192    43725.852       26.235       25.704        2.616        2.591        2.639        2.634        2.642        2.614        2.655        2.498        2.602        2.669        2.664        2.640        2.445        2.553        2.682        2.622        0.487        1.000        0.000        1.000        0.000        2.000        6.000        0.000        0.000        1.000        0.000        0.000        0.000        0.000        1.000        0.000        0.000        0.000        0.000        0.000        0.000        0.000        0.000        0.000        0.000        2.000        0.000        2.000        1.000        0.000       11.000        1.000        0.000        0.000        0.000        0.000      100.000        0.000        0.000        1.613        1.643        1.988
      90.000  -233465.803    25470.514    14525.350    45548.504       68.019  -361844.733    42766.543       25.949       25.558        2.633        2.559        2.587        2.655        2.629        2.622        2.694        2.537        2.669        2.655        2.709        2.636        2.521        2.566        2.707        2.632        0.466        2.000        0.000        1.000        0.000        2.000        6.000        0.000        0.000        0.000        0.000        0.000        0.000        0.000        0.000        0.000        0.000        0.000        0.000        0.000        1.000        0.000        0.000        0.000        0.000        4.000        1.000        1.000        0.000        0.000        5.000        1.000        0.000        0.000        0.000        0.000      100.000        0.000        0.000        1.933        1.965        2.137
     100.000  -233472.253    24801.508    14323.248    45463.314       69.095  -360603.551    42474.133       26.255       26.000        2.636        2.632        2.617        2.619        2.643        2.574        2.634        2.533        2.613        2.646        2.685        2.600        2.516        2.507        2.673        2.564        0.501        2.000        0.000        1.000        0.000        2.000        4.000        0.000        0.000        0.000        0.000        0.000        0.000        0.000        1.000        0.000        0.000        0.000        0.000        0.000        1.000        0.000        0.000        0.000        0.000        1.000        1.000        1.000        3.000        1.000       10.000        0.000        0.000        0.000        0.000        0.000      100.000        0.000        0.000        1.907        1.942        2.139
     110.000  -232345.227    24204.424    14932.668    45838.539       60.129  -360889.536    43508.549       26.126       26.000        2.697        2.580        2.526        2.627        2.620        2.577        2.630        2.518        2.640        2.633        2.674        2.612        2.480        2.538        2.692        2.535        0.500        2.000        0.000        1.000        0.000        2.000        4.000        0.000        0.000        1.000        0.000        0.000        1.000        0.000        0.000        0.000        0.000        0.000        0.000        0.000        1.000        0.000        0.000        0.000        0.000        1.000        0.000        0.000        0.000        1.000       10.000        0.000        0.000        0.000        0.000        0.000      100.000        0.000        0.000        1.541        1.537        1.865
     120.000  -232630.664    24543.824    14654.298    45758.528       59.519  -360683.003    43036.170       26.004       25.725        2.653        2.594        2.537        2.633        2.666        2.560        2.642        2.578        2.604        2.640        2.665        2.609        2.506        2.534        2.696        2.508        0.486        2.000        0.000        0.000        0.000        2.000        4.000        0.000        0.000        1.000        0.000        0.000        0.000        0.000        1.000        0.000        0.000        0.000        0.000        0.000        1.000        0.000        0.000        0.000        0.000        1.000        1.000        0.000        2.000        0.000        7.000        0.000        0.000        0.000        0.000        0.000      100.000        0.000        0.000        1.415        1.435        1.686
     130.000  -232742.600    23381.001    14672.682    45898.020       64.757  -360577.262    43818.203       25.691       25.835        2.647        2.481        2.616        2.599        2.652        2.535        2.600        2.518        2.572        2.641        2.679        2.592        2.465        2.562        2.669        2.585        0.489        1.000        0.000        1.000        0.000        2.000        4.000        0.000        0.000        0.000        0.000        0.000        0.000        0.000        1.000        0.000        0.000        0.000        0.000        0.000        0.000        0.000        0.000        0.000        0.000        3.000        0.000        2.000        2.000        0.000        5.000        0.000        0.000        0.000        0.000        0.000      100.000        0.000        0.000        1.656        1.687        1.904
     140.000  -232517.591    24842.328    14449.594    45837.896       56.724  -360629.914    42925.781       25.808       25.934        2.621        2.526        2.617        2.638        2.645        2.557        2.613        2.489        2.584        2.596        2.622        2.635        2.364        2.501        2.692        2.537        0.495        1.000        0.000        1.000        0.000        2.000        4.000        0.000        0.000        0.000        0.000        0.000        1.000        0.000        1.000        0.000        0.000        0.000        0.000        0.000        0.000        0.000        0.000        0.000        0.000        4.000        1.000        2.000        1.000        3.000        7.000        0.000        0.000        0.000        0.000        0.000      100.000        0.000        0.000        1.523        1.539        1.964
     150.000  -232435.541    24125.213    14259.981    45571.294       79.433  -358412.353    41940.889       25.950       25.847        2.599        2.574        2.634        2.676        2.580        2.661        2.613        2.501        2.556        2.579        2.657        2.628        2.410        2.511        2.668        2.525        0.511        1.000        0.000        1.000        0.000        2.000        4.000        0.000        0.000        1.000        0.000        0.000        1.000        0.000        0.000        0.000        0.000        0.000        0.000        0.000        1.000        0.000        0.000        0.000        0.000        3.000        1.000        2.000        1.000        2.000        4.000        0.000        0.000        0.000        0.000        0.000      100.000        0.000        0.000        1.617        1.639        2.033
     160.000  -231701.608    23202.262    14186.050    45726.121       73.659  -358149.333    43259.633       25.721       25.437        2.630        2.559        2.657        2.591        2.610        2.610        2.628        2.567        2.575        2.586        2.650        2.656        2.452        2.532        2.685        2.566        0.491        1.000        0.000        1.000        1.000        1.000        4.000        0.000        0.000        1.000        0.000        0.000        1.000        0.000        0.000        0.000        0.000        0.000        0.000        0.000        1.000        0.000        0.000        0.000        0.000        1.000        0.000        1.000        3.000        0.000        8.000        0.000        0.000        0.000        0.000        0.000      100.000        0.000        0.000        1.402        1.430        1.798
     170.000  -232574.983    24812.690    14369.743    45772.636       82.547  -358789.695    41177.096       25.702       25.364        2.683        2.514        2.625        2.602        2.647        2.613        2.604        2.510        2.550        2.579        2.640        2.600        2.514        2.515        2.672        2.503        0.479        1.000        0.000        1.000        0.000        2.000        3.000        0.000        0.000        0.000        0.000        0.000        1.000        0.000        1.000        1.000        0.000        0.000        0.000        0.000        1.000        0.000        0.000        0.000        0.000        2.000        0.000        1.000        1.000        1.000        7.000        1.000        0.000        0.000        0.000        0.000      100.000        0.000        0.000        1.548        1.591        1.922
     180.000  -231743.120    24243.363    14303.862    45553.966       48.183  -357937.440    42044.946       25.982       25.582        2.643        2.540        2.605        2.614        2.601        2.551        2.593        2.532        2.554        2.655        2.653        2.603        2.413        2.546        2.681        2.538        0.490        2.000        0.000        1.000        0.000        2.000        4.000        0.000        0.000        0.000        0.000        0.000        1.000        0.000        1.000        0.000        0.000        0.000        0.000        0.000        0.000        0.000        0.000        0.000        0.000        2.000        0.000        1.000        0.000        0.000        6.000        1.000        0.000        0.000        0.000        0.000      100.000        0.000        0.000        1.756        1.797        2.148
     190.000  -231445.044    24123.950    14230.879    45660.724       77.442  -357451.532    41913.494       26.308       25.904        2.606        2.590        2.612        2.655        2.631        2.565        2.653        2.507        2.589        2.589        2.679        2.613        2.441        2.486        2.667        2.605        0.493        1.000        0.000        1.000        0.000        1.000        4.000        0.000        0.000        0.000        0.000        0.000        0.000        0.000        0.000        1.000        0.000        0.000        0.000        0.000        1.000        0.000        0.000        0.000        0.000        2.000        0.000        0.000        3.000        1.000        6.000        1.000        0.000        0.000        0.000        0.000      100.000        0.000        0.000        1.790        1.824        2.095
     200.000  -231882.097    24050.774    14549.168    45612.975       76.568  -357250.437    41078.855       26.009       25.660        2.654        2.558        2.566        2.603        2.649        2.558        2.643        2.559        2.551        2.623        2.633        2.611        2.529        2.544        2.677        2.600        0.496        2.000        0.000        1.000        0.000        2.000        4.000        0.000        0.000        1.000        0.000        0.000        0.000        0.000        0.000        0.000        0.000        0.000        0.000        0.000        1.000        0.000        0.000        0.000        0.000        3.000        0.000        0.000        1.000        0.000        5.000        0.000        0.000        0.000        0.000        0.000      100.000        0.000        0.000        1.602        1.631        2.000
     210.000  -231351.313    24408.367    14638.464    45612.249       70.676  -356872.306    40791.238       26.131       25.755        2.661        2.577        2.569        2.661        2.688        2.571        2.656        2.507        2.574        2.573        2.690        2.600        2.438        2.561        2.682        2.586        0.492        1.000        0.000        0.000        1.000        1.000        4.000        0.000        0.000        0.000        0.000        0.000        0.000        0.000        1.000        0.000        0.000        0.000        0.000        0.000        1.000        0.000        0.000        0.000        0.000        1.000        0.000        1.000        1.000        1.000        6.000        0.000        0.000        0.000        0.000        0.000      100.000        0.000        0.000        1.616        1.635        2.007
     220.000  -231260.314    23180.199    14412.258    45619.702       90.056  -356474.444    41911.915       25.925       25.658        2.692        2.578        2.641        2.598        2.609        2.599        2.599        2.502        2.558        2.615        2.703        2.611        2.532        2.566        2.689        2.590        0.485        2.000        0.000        0.000        0.000        2.000        4.000        0.000        0.000        0.000        0.000        0.000        1.000        0.000        0.000        0.000        0.000        0.000        0.000        0.000        1.000        0.000        0.000        0.000        0.000        3.000        0.000        0.000        1.000        0.000        9.000        0.000        0.000        0.000        0.000        0.000      100.000        0.000        0.000        1.477        1.496        1.834
     230.000  -231514.188    23249.048    13857.079    45759.151       62.929  -356655.738    42213.344       26.091       25.902        2.637        2.549        2.627        2.641        2.655        2.590        2.612        2.544        2.580        2.639        2.702        2.622        2.435        2.541        2.658        2.576        0.481        2.000        0.000        0.000        0.000        2.000        4.000        0.000        0.000        0.000        0.000        0.000        0.000        0.000        1.000        0.000        0.000        0.000        0.000        0.000        1.000        0.000        0.000        0.000        0.000        2.000        0.000        1.000        5.000        1.000        8.000        1.000        0.000        0.000        0.000        0.000      100.000        0.000        0.000        1.534        1.562        1.911
     240.000  -231377.558    22859.984    14318.295    45622.121       57.472  -357810.813    43575.384       25.749       25.640        2.689        2.564        2.643        2.675        2.620        2.559        2.638        2.506        2.589        2.618        2.645        2.599        2.546        2.546        2.676        2.596        0.491        1.000        0.000        0.000        0.000        2.000        4.000        0.000        0.000        0.000        0.000        0.000        0.000        0.000        0.000        0.000        0.000        0.000        0.000        0.000        0.000        0.000        0.000        0.000        0.000        3.000        1.000        0.000        0.000        2.000        7.000        0.000        0.000        0.000        0.000        0.000      100.000        0.000        0.000        1.567        1.586        1.990
     250.000  -231282.258    22747.100    14577.279    45716.008       85.061  -356780.490    42372.784       25.636       25.501        2.642        2.524        2.613        2.681        2.646        2.576        2.580        2.495        2.556        2.616        2.660        2.585        2.445        2.555        2.690        2.644        0.479        1.000        0.000        1.000        0.000        2.000        4.000        0.000        0.000        1.000        0.000        0.000        1.000        0.000        0.000        0.000        0.000        0.000        0.000        0.000        1.000        0.000        0.000        0.000        0.000        2.000        2.000        0.000        3.000        2.000       11.000        0.000        0.000        0.000        0.000        0.000      100.000        0.000        0.000        1.467        1.512        1.876
     260.000  -230328.136    23224.190    14194.497    45574.263       62.726  -354736.808    41352.995       26.151       25.862        2.619        2.556        2.663        2.661        2.590        2.641        2.645        2.502        2.540        2.642        2.708        2.644        2.460        2.538        2.682        2.632        0.492        1.000        0.000        1.000        1.000        2.000        3.000        0.000        0.000        1.000        0.000        0.000        1.000        0.000        1.000        1.000        0.000        0.000        0.000        0.000        0.000        0.000        0.000        0.000        0.000        1.000        3.000        0.000        5.000        1.000        6.000        1.000        0.000        0.000        0.000        0.000      100.000        0.000        0.000        1.450        1.500        1.844
     270.000  -230735.614    22837.480    14229.231    45722.086       65.025  -356664.948    43075.512       25.812       25.625        2.635        2.588        2.557        2.658        2.637        2.579        2.607        2.479        2.586        2.654        2.640        2.612        2.490        2.563        2.691        2.591        0.503        1.000        0.000        1.000        0.000        2.000        3.000        0.000        0.000        0.000        0.000        0.000        1.000        0.000        0.000        1.000        0.000        0.000        0.000        0.000        0.000        0.000        0.000        0.000        0.000        0.000        1.000        1.000        0.000        0.000       11.000        1.000        0.000        0.000        0.000        0.000      100.000        0.000        0.000        1.482        1.493        1.916
     280.000  -231589.672    22842.087    14000.001    45580.678       64.062  -357034.987    42958.487       26.152       25.638        2.628        2.568        2.574        2.602        2.610        2.617        2.669        2.522        2.583        2.659        2.703        2.619        2.427        2.556        2.682        2.628        0.497        1.000        0.000        0.000        0.000        2.000        4.000        0.000        0.000        1.000        0.000        0.000        0.000        0.000        1.000        0.000        0.000        0.000        0.000        0.000        0.000        0.000        0.000        0.000        0.000        1.000        1.000        2.000        1.000        0.000        9.000        0.000        0.000        0.000        0.000        0.000      100.000        0.000        0.000        1.535        1.593        1.955
     290.000  -230333.374    23094.845    13621.178    45444.803       79.378  -356376.256    43802.677       26.157       25.666        2.700        2.571        2.561        2.643        2.639        2.647        2.711        2.499        2.670        2.656        2.660        2.608        2.426        2.510        2.705        2.613        0.476        2.000        0.000        1.000        0.000        2.000        2.000        0.000        0.000        0.000        0.000        0.000        0.000        0.000        1.000        0.000        0.000        0.000        0.000        0.000        0.000        0.000        0.000        0.000        0.000        2.000        1.000        0.000        0.000        1.000       11.000        1.000        0.000        0.000        0.000        0.000      100.000        0.000        0.000        1.665        1.706        2.112
     300.000  -230870.192    23111.175    13841.997    45563.877       58.325  -355864.138    42418.571       26.040       25.570        2.648        2.549        2.585        2.585        2.585        2.562        2.699        2.480        2.575        2.673        2.690        2.595        2.419        2.516        2.696        2.621        0.493        2.000        0.000        1.000        0.000        1.000        3.000        0.000        0.000        1.000        0.000        0.000        0.000        0.000        1.000        0.000        0.000        0.000        0.000        0.000        0.000        0.000        0.000        0.000        0.000        3.000        0.000        0.000        1.000        0.000        8.000        0.000        0.000        0.000        0.000        0.000      100.000        0.000        0.000        1.990        2.040        2.433
     310.000  -231137.725    23140.770    14278.762    45644.165       95.113  -356596.254    42299.718       25.947       25.770        2.668        2.560        2.588        2.662        2.638        2.592        2.670        2.533        2.556        2.660        2.654        2.627        2.475        2.552        2.686        2.607        0.501        2.000        0.000        1.000        0.000        2.000        4.000        0.000        0.000        0.000        0.000        0.000        0.000        0.000        1.000        0.000        0.000        0.000        0.000        0.000        1.000        0.000        0.000        0.000        0.000        3.000        0.000        0.000        0.000        0.000        9.000        0.000        0.000        0.000        0.000        0.000      100.000        0.000        0.000        2.193        2.235        2.760
     320.000  -230812.169    23567.599    13790.395    45529.808       66.720  -355024.077    41257.386       26.072       25.875        2.641        2.587        2.583        2.640        2.580        2.581        2.662        2.483        2.677        2.696        2.697        2.656        2.436        2.581        2.707        2.570        0.498        2.000        0.000        1.000        0.000        2.000        3.000        0.000        0.000        0.000        0.000        0.000        0.000        0.000        2.000        0.000        0.000        0.000        0.000        0.000        0.000        0.000        0.000        0.000        0.000        1.000        0.000        2.000        1.000        1.000       10.000        0.000        0.000        0.000        0.000        0.000      100.000        0.000        0.000        2.056        2.087        2.617
     330.000  -231050.563    23467.523    13953.887    45457.838       67.614  -354564.477    40567.052       26.036       25.816        2.679        2.595        2.583        2.572        2.596        2.571        2.667        2.543        2.658        2.630        2.710        2.573        2.498        2.516        2.681        2.583        0.481        2.000        0.000        1.000        0.000        2.000        4.000        0.000        0.000        1.000        0.000        0.000        0.000        0.000        2.000        0.000        0.000        0.000        0.000        0.000        1.000        0.000        0.000        0.000        0.000        1.000        3.000        2.000        0.000        1.000       11.000        0.000        0.000        0.000        0.000        0.000      100.000        0.000        0.000        2.040        2.077        2.515
     340.000  -230453.120    22814.143    14263.864    45479.461       73.240  -355361.936    42278.107       26.351       26.055        2.626        2.599        2.610        2.623        2.618        2.603        2.714        2.507        2.639        2.673        2.654        2.610        2.478        2.535        2.709        2.595        0.507        2.000        0.000        0.000        0.000        2.000        4.000        0.000        0.000        1.000        0.000        0.000        0.000        0.000        0.000        0.000        0.000        0.000        0.000        0.000        0.000        0.000        0.000        0.000        0.000        1.000        1.000        2.000        0.000        1.000       10.000        0.000        0.000        0.000        0.000        0.000      100.000        0.000        0.000        1.936        1.961        2.399
     350.000  -230445.559    22502.904    13914.386    45678.494       64.885  -355151.472    42545.244       25.853       25.755        2.662        2.617        2.551        2.644        2.581        2.601        2.712        2.510        2.647        2.695        2.671        2.609        2.522        2.581        2.696        2.634        0.525        2.000        0.000        0.000        0.000        1.000        4.000        0.000        0.000        0.000        0.000        0.000        0.000        0.000        2.000        0.000        0.000        0.000        0.000        0.000        0.000        0.000        0.000        0.000        0.000        5.000        0.000        3.000        0.000        3.000        6.000        2.000        0.000        0.000        0.000        0.000      100.000        0.000        0.000        1.897        1.919        2.712
     360.000  -230373.979    23377.814    13772.430    45616.590       84.737  -355261.237    42035.687       26.063       25.689        2.662        2.622        2.565        2.679        2.569        2.545        2.708        2.486        2.659        2.632        2.694        2.556        2.549        2.566        2.697        2.635        0.493        2.000        0.000        1.000        0.000        1.000        3.000        0.000        0.000        0.000        0.000        0.000        0.000        0.000        0.000        0.000        0.000        0.000        0.000        0.000        0.000        0.000        0.000        0.000        0.000        2.000        1.000        1.000        0.000        2.000        6.000        1.000        0.000        0.000        0.000        0.000      100.000        0.000        0.000        1.960        1.979        2.704
     370.000  -230717.527    22977.705    13624.405    45678.683       86.205  -354033.297    40948.772       26.157       25.850        2.664        2.622        2.569        2.618        2.593        2.591        2.653        2.528        2.656        2.612        2.717        2.629        2.464        2.567        2.696        2.624        0.476        2.000        0.000        0.000        0.000        2.000        4.000        0.000        0.000        0.000        0.000        0.000        0.000        0.000        1.000        0.000        0.000        0.000        0.000        0.000        0.000        0.000        0.000        0.000        0.000        0.000        0.000        1.000        0.000        0.000        9.000        0.000        0.000        0.000        0.000        0.000      100.000        0.000        0.000        2.143        2.162        2.874
     380.000  -230877.893    23228.872    13906.826    45676.748       77.576  -355656.468    41888.553       26.060       26.252        2.674        2.643        2.560        2.667        2.585        2.554        2.637        2.500        2.642        2.676        2.653        2.615        2.470        2.551        2.686        2.583        0.475        2.000        0.000        0.000        1.000        1.000        4.000        0.000        0.000        0.000        0.000        0.000        0.000        0.000        0.000        0.000        0.000        0.000        0.000        0.000        1.000        0.000        0.000        0.000        0.000        1.000        0.000        0.000        0.000        1.000       13.000        2.000        0.000        0.000        0.000        0.000      100.000        0.000        0.000        1.931        1.974        2.692
     390.000  -231178.762    22440.497    13806.687    45586.535       81.003  -354963.186    41869.702       25.946       25.962        2.650        2.634        2.540        2.644        2.565        2.593        2.680        2.548        2.672        2.654        2.655        2.641        2.449        2.501        2.715        2.639        0.491        1.000        0.000        1.000        0.000        3.000        4.000        0.000        0.000        1.000        0.000        0.000        1.000        0.000        0.000        1.000        0.000        0.000        0.000        0.000        0.000        0.000        0.000        0.000        0.000        1.000        0.000        1.000        0.000        1.000        7.000        0.000        0.000        0.000        0.000        0.000      100.000        0.000        0.000        2.012        2.042        2.625
     400.000  -230878.292    23352.977    13954.161    45634.858       57.987  -356041.853    42163.578       25.931       25.590        2.669        2.615        2.564        2.621        2.593        2.570        2.647        2.508        2.649        2.637        2.656        2.622        2.477        2.558        2.703        2.636        0.485        1.000        0.000        1.000        0.000        3.000        4.000        0.000        0.000        0.000        0.000        0.000        1.000        0.000        2.000        0.000        0.000        0.000        0.000        0.000        0.000        0.000        0.000        0.000        0.000        2.000        1.000        2.000        1.000        1.000       15.000        0.000        0.000        0.000        0.000        0.000      100.000        0.000        0.000        2.093        2.124        2.739
     410.000  -230831.303    22104.251    13827.834    45744.052       78.187  -355053.944    42468.317       25.857       25.544        2.648        2.636        2.529        2.675        2.611        2.553        2.637        2.494        2.635        2.622        2.689        2.637        2.500        2.517        2.694        2.604        0.507        1.000        0.000        1.000        0.000        2.000        4.000        0.000        0.000        0.000        0.000        0.000        1.000        0.000        3.000        0.000        0.000        0.000        0.000        0.000        1.000        0.000        0.000        0.000        0.000        1.000        2.000        1.000        2.000        0.000       11.000        0.000        0.000        0.000        0.000        0.000      100.000        0.000        0.000        1.956        1.960        2.768
     420.000  -229931.540    22507.894    13982.574    45554.251       77.253  -353371.432    41317.920       25.570       25.616        2.678        2.617        2.635        2.566        2.624        2.593        2.636        2.506        2.599        2.675        2.668        2.601        2.469        2.537        2.700        2.596        0.474        1.000        0.000        1.000        0.000        2.000        5.000        0.000        0.000        0.000        0.000        0.000        0.000        0.000        3.000        0.000        0.000        0.000        0.000        0.000        0.000        0.000        0.000        0.000        0.000        1.000        1.000        1.000        0.000        1.000        8.000        0.000        0.000        0.000        0.000        0.000      100.000        0.000        0.000        2.202        2.222        3.083
     430.000  -229679.211    22881.662    14172.622    45627.948       97.816  -354472.764    42013.504       25.813       25.462        2.684        2.651        2.576        2.626        2.632        2.615        2.698        2.547        2.590        2.648        2.689        2.596        2.481        2.526        2.650        2.593        0.489        2.000        0.000        0.000        0.000        2.000        2.000        0.000        0.000        0.000        0.000        0.000        0.000        0.000        2.000        0.000        0.000        0.000        0.000        0.000        1.000        0.000        0.000        0.000        0.000        0.000        4.000        2.000        1.000        1.000       11.000        2.000        0.000        0.000        0.000        0.000      100.000        0.000        0.000        2.517        2.555        3.113
     440.000  -230746.617    22643.120    14005.515    45440.064       87.896  -354576.594    41653.381       25.761       25.715        2.680        2.619        2.588        2.593        2.553        2.541        2.645        2.482        2.554        2.606        2.700        2.578        2.426        2.500        2.698        2.574        0.496        2.000        0.000        1.000        1.000        2.000        1.000        0.000        0.000        0.000        0.000        0.000        1.000        0.000        3.000        0.000        0.000        0.000        0.000        0.000        1.000        0.000        0.000        0.000        0.000        0.000        3.000        1.000        1.000        0.000        8.000        0.000        0.000        0.000        0.000        0.000      100.000        0.000        0.000        2.771        2.792        3.431
     450.000  -230512.614    22997.319    14009.584    45643.735       52.591  -354337.771    41121.928       25.860       25.861        2.665        2.613        2.543        2.674        2.430        2.559        2.648        2.488        2.650        2.612        2.672        2.609        2.426        2.528        2.686        2.614        0.477        2.000        0.000        1.000        0.000        2.000        2.000        0.000        0.000        0.000        0.000        0.000        0.000        0.000        1.000        0.000        0.000        0.000        0.000        0.000        1.000        0.000        0.000        0.000        0.000        0.000        1.000        3.000        1.000        3.000        6.000        0.000        0.000        0.000        0.000        0.000      100.000        0.000        0.000        2.642        2.700        3.502
     460.000  -230880.649    23129.101    14021.921    45444.147       68.489  -355528.167    41983.859       25.972       25.923        2.670        2.675        2.516        2.608        2.457        2.610        2.670        2.553        2.575        2.643        2.696        2.597        2.499        2.535        2.673        2.614        0.500        2.000        0.000        1.000        0.000        2.000        3.000        0.000        0.000        0.000        0.000        0.000        0.000        0.000        1.000        0.000        0.000        0.000        0.000        0.000        1.000        0.000        0.000        0.000        0.000        0.000        1.000        3.000        0.000        1.000        9.000        1.000        0.000        0.000        0.000        0.000      100.000        0.000        0.000        2.439        2.480        3.393
     470.000  -229812.415    22169.368    13506.088    45674.521       62.551  -353622.562    42397.618       25.775       25.865        2.658        2.644        2.579        2.580        2.422        2.601        2.703        2.531        2.529        2.662        2.651        2.601        2.520        2.562        2.670        2.640        0.488        2.000        0.000        0.000        0.000        2.000        2.000        0.000        0.000        0.000        0.000        0.000        0.000        0.000        3.000        1.000        0.000        0.000        0.000        0.000        1.000        0.000        0.000        0.000        0.000        1.000        3.000        0.000        0.000        0.000        5.000        0.000        0.000        0.000        0.000        0.000      100.000        0.000        0.000        2.427        2.471        3.325
     480.000  -230817.510    23033.592    13599.134    45528.582       69.325  -354157.414    41109.271       25.897       26.113        2.660        2.603        2.578        2.625        2.472        2.601        2.705        2.529        2.614        2.630        2.628        2.626        2.481        2.558        2.673        2.642        0.493        2.000        0.000        0.000        1.000        2.000        2.000        0.000        0.000        0.000        0.000        0.000        0.000        0.000        0.000        0.000        0.000        0.000        0.000        0.000        1.000        0.000        0.000        0.000        0.000        0.000        2.000        2.000        0.000        0.000        9.000        0.000        0.000        0.000        0.000        0.000      100.000        0.000        0.000        2.938        2.997        3.799
     490.000  -230311.787    22517.235    13809.334    45549.165       82.812  -352565.347    40295.014       26.014       26.003        2.648        2.652        2.569        2.625        2.446        2.579        2.639        2.521        2.539        2.673        2.661        2.623        2.479        2.522        2.691        2.605        0.489        2.000        0.000        1.000        0.000        3.000        2.000        0.000        0.000        0.000        0.000        0.000        1.000        0.000        1.000        1.000        0.000        0.000        0.000        0.000        0.000        0.000        0.000        0.000        0.000        0.000        0.000        0.000        2.000        1.000        5.000        1.000        0.000        0.000        0.000        0.000      100.000        0.000        0.000        2.515        2.587        3.623
     500.000  -230134.815    22543.943    13635.035    45621.521       64.428  -355037.736    43037.995       26.006       25.853        2.651        2.569        2.576        2.603        2.450        2.581        2.673        2.473        2.630        2.647        2.655        2.630        2.413        2.615        2.700        2.605        0.466        1.000        0.000        0.000        0.000        3.000        2.000        0.000        0.000        0.000        0.000        0.000        0.000        0.000        2.000        0.000        0.000        0.000        0.000        0.000        0.000        0.000        0.000        0.000        0.000        2.000        2.000        1.000        0.000        0.000        7.000        0.000        0.000        0.000        0.000        0.000      100.000        0.000        0.000        2.224        2.269        3.388
     510.000  -230601.376    22538.953    13502.547    45860.300      100.392  -353791.103    41187.536       25.714       25.710        2.652        2.615        2.552        2.643        2.449        2.548        2.677        2.477        2.659        2.626        2.713        2.622        2.485        2.579        2.682        2.601        0.484        2.000        0.000        0.000        0.000        3.000        2.000        0.000        0.000        0.000        0.000        0.000        1.000        0.000        1.000        1.000        0.000        0.000        0.000        0.000        0.000        0.000        0.000        0.000        0.000        2.000        2.000        0.000        1.000        0.000        4.000        1.000        0.000        0.000        0.000        0.000      100.000        0.000        0.000        1.811        1.851        3.079
     520.000  -229896.454    23474.463    13647.465    45633.335       80.762  -353573.496    40841.017       25.780       25.851        2.632        2.670        2.602        2.599        2.459        2.580        2.655        2.505        2.645        2.598        2.709        2.636        2.465        2.531        2.687        2.660        0.487        2.000        0.000        0.000        0.000        3.000        4.000        0.000        0.000        0.000        0.000        0.000        0.000        0.000        0.000        0.000        0.000        0.000        0.000        0.000        0.000        0.000        0.000        0.000        0.000        2.000        0.000        1.000        2.000        0.000        6.000        0.000        0.000        0.000        0.000        0.000      100.000        0.000        0.000        2.593        2.651        3.566
     530.000  -230274.337    23342.378    13918.101    45622.811       71.381  -354614.544    41385.536       25.665       25.679        2.713        2.602        2.559        2.622        2.461        2.586        2.688        2.519        2.628        2.666        2.661        2.615        2.472        2.558        2.686        2.650        0.498        2.000        0.000        0.000        0.000        3.000        3.000        0.000        0.000        0.000        0.000        0.000        1.000        0.000        0.000        0.000        0.000        0.000        0.000        0.000        1.000        0.000        0.000        0.000        0.000        3.000        2.000        1.000        0.000        0.000        1.000        0.000        0.000        0.000        0.000        0.000      100.000        0.000        0.000        2.804        2.870        3.730
     540.000  -231058.199    23481.145    13782.434    45531.966       69.384  -353912.013    39988.886       25.975       25.977        2.680        2.561        2.565        2.651        2.438        2.585        2.718        2.509        2.581        2.658        2.666        2.664        2.433        2.598        2.689        2.553        0.495        2.000        0.000        1.000        0.000        3.000        2.000        0.000        0.000        0.000        0.000        0.000        1.000        0.000        1.000        0.000        0.000        0.000        0.000        0.000        0.000        0.000        0.000        0.000        0.000        3.000        1.000        1.000        0.000        0.000        6.000        0.000        0.000        0.000        0.000        0.000      100.000        0.000        0.000        2.526        2.565        3.552
     550.000  -230856.920    23143.788    14131.954    45691.979       84.646  -355424.542    41515.255       26.077       25.980        2.656        2.614        2.579        2.679        2.451        2.596        2.693        2.498        2.546        2.705        2.649        2.644        2.466        2.568        2.686        2.601        0.488        2.000        0.000        0.000        0.000        3.000        3.000        0.000        0.000        0.000        0.000        0.000        0.000        0.000        1.000        0.000        0.000        0.000        0.000        0.000        0.000        0.000        0.000        0.000        0.000        2.000        0.000        1.000        0.000        0.000        8.000        0.000        0.000        0.000        0.000        0.000      100.000        0.000        0.000        2.525        2.567        3.613
     560.000  -229724.057    24129.163    14027.790    45487.509       71.565  -354595.003    41154.919       25.736       25.865        2.693        2.587        2.597        2.663        2.481        2.627        2.709        2.488        2.598        2.619        2.634        2.626        2.459        2.532        2.682        2.591        0.493        2.000        0.000        1.000        0.000        3.000        2.000        0.000        0.000        1.000        0.000        0.000        0.000        0.000        2.000        0.000        0.000        0.000        0.000        0.000        0.000        0.000        0.000        0.000        0.000        1.000        2.000        0.000        0.000        1.000        5.000        0.000        0.000        0.000        0.000        0.000      100.000        0.000        0.000        2.786        2.878        3.719
     570.000  -230526.475    23048.090    13913.015    45797.783       68.048  -354045.343    40691.932       25.895       25.727        2.703        2.613        2.602        2.689        2.433        2.587        2.697        2.482        2.587        2.637        2.678        2.595        2.449        2.526        2.673        2.502        0.511        2.000        0.000        0.000        0.000        3.000        2.000        0.000        0.000        0.000        0.000        0.000        0.000        0.000        2.000        0.000        0.000        0.000        0.000        0.000        0.000        0.000        0.000        0.000        0.000        0.000        2.000        2.000        0.000        0.000        4.000        0.000        0.000        0.000        0.000        0.000      100.000        0.000        0.000        2.193        2.289        3.284
     580.000  -230521.427    23400.726    14038.522    45392.241       69.210  -354567.942    41145.815       26.022       25.771        2.687        2.639        2.592        2.665        2.489        2.510        2.655        2.509        2.593        2.601        2.668        2.584        2.520        2.530        2.692        2.582        0.478        2.000        0.000        1.000        0.000        3.000        3.000        0.000        0.000        0.000        0.000        0.000        0.000        0.000        0.000        0.000        0.000        0.000        0.000        0.000        0.000        0.000        0.000        0.000        0.000        2.000        3.000        0.000        0.000        0.000        4.000        0.000        0.000        0.000        0.000        0.000      100.000        0.000        0.000        2.293        2.351        3.355
     590.000  -230413.354    24032.311    14106.192    45658.441       71.382  -354334.270    40052.590       26.337       26.079        2.686        2.619        2.585        2.627        2.461        2.552        2.646        2.520        2.581        2.673        2.706        2.613        2.466        2.545        2.645        2.606        0.480        1.000        0.000        1.000        0.000        3.000        2.000        0.000        0.000        0.000        0.000        0.000        0.000        0.000        1.000        0.000        0.000        0.000        0.000        0.000        1.000        0.000        0.000        0.000        0.000        1.000        0.000        2.000        2.000        0.000        5.000        0.000        0.000        0.000        0.000        0.000      100.000        0.000        0.000        2.699        2.749        3.604
     600.000  -230808.703    23741.585    13667.253    45652.277       60.878  -354808.552    40877.857       25.968       26.033        2.685        2.536        2.556        2.680        2.455        2.547        2.674        2.491        2.530        2.609        2.653        2.558        2.502        2.538        2.665        2.603        0.503        2.000        0.000        1.000        0.000        3.000        3.000        0.000        0.000        0.000        0.000        0.000        0.000        0.000        2.000        0.000        0.000        0.000        0.000        0.000        1.000        0.000        0.000        0.000        0.000        3.000        1.000        0.000        1.000        0.000        2.000        0.000        0.000        0.000        0.000        0.000      100.000        0.000        0.000        2.986        3.035        3.932
     610.000  -230172.595    22671.805    14340.074    45640.586       90.675  -354665.337    41749.603       26.055       25.957        2.668        2.622        2.562        2.678        2.445        2.550        2.633        2.508        2.563        2.632        2.648        2.576        2.539        2.615        2.633        2.604        0.471        1.000        0.000        0.000        0.000        3.000        1.000        0.000        0.000        0.000        0.000        0.000        0.000        1.000        1.000        2.000        0.000        0.000        0.000        0.000        1.000        0.000        0.000        0.000        0.000        1.000        1.000        1.000        0.000        1.000        5.000        1.000        0.000        0.000        0.000        0.000      100.000        0.000        0.000        2.708        2.765        3.741
     620.000  -230325.522    23208.183    14044.865    45630.306       68.188  -355690.853    42413.789       25.889       25.938        2.695        2.595        2.518        2.687        2.539        2.493        2.682        2.487        2.556        2.629        2.662        2.612        2.461        2.575        2.623        2.580        0.497        1.000        0.000        1.000        1.000        3.000        4.000        0.000        0.000        0.000        1.000        0.000        0.000        0.000        1.000        0.000        0.000        0.000        0.000        0.000        1.000        0.000        0.000        0.000        0.000        1.000        0.000        1.000        1.000        0.000       10.000        2.000        0.000        0.000        0.000        0.000      100.000        0.000        0.000        2.498        2.526        3.588
     630.000  -230616.481    23336.613    13873.876    45616.053       85.312  -354336.019    40807.684       25.951       25.945        2.682        2.577        2.635        2.680        2.467        2.567        2.685        2.503        2.537        2.635        2.687        2.598        2.500        2.575        2.686        2.592        0.486        1.000        0.000        1.000        0.000        3.000        2.000        0.000        0.000        0.000        0.000        0.000        1.000        0.000        2.000        0.000        0.000        0.000        0.000        0.000        1.000        0.000        0.000        0.000        0.000        3.000        1.000        0.000        2.000        0.000        6.000        1.000        0.000        0.000        0.000        0.000      100.000        0.000        0.000        2.869        2.930        3.874
     640.000  -230122.864    22643.795    14086.901    45778.629       95.899  -353948.888    41220.800       25.708       25.851        2.631        2.647        2.575        2.657        2.491        2.604        2.650        2.456        2.558        2.601        2.636        2.568        2.498        2.643        2.647        2.612        0.496        1.000        0.000        1.000        0.000        3.000        2.000        0.000        0.000        0.000        0.000        0.000        1.000        0.000        1.000        0.000        0.000        0.000        0.000        0.000        1.000        0.000        0.000        0.000        0.000        3.000        1.000        0.000        0.000        1.000        5.000        1.000        0.000        0.000        0.000        0.000      100.000        0.000        0.000        3.135        3.208        4.045
     650.000  -230030.322    23903.879    13865.206    45718.165       77.331  -354648.429    41053.526       25.695       25.864        2.674        2.605        2.564        2.651        2.466        2.576        2.688        2.551        2.569        2.612        2.666        2.591        2.465        2.589        2.684        2.543        0.491        2.000        0.000        1.000        0.000        3.000        2.000        0.000        0.000        0.000        0.000        0.000        1.000        0.000        1.000        0.000        0.000        0.000        0.000        0.000        0.000        0.000        0.000        0.000        0.000        4.000        0.000        2.000        1.000        0.000        5.000        0.000        0.000        0.000        0.000        0.000      100.000        0.000        0.000        3.157        3.225        4.047
     660.000  -230232.838    22580.770    14018.914    45932.432       90.161  -353541.721    40686.606       25.763       25.929        2.678        2.566        2.566        2.671        2.464        2.580        2.678        2.564        2.537        2.662        2.617        2.609        2.474        2.607        2.609        2.578        0.480        1.000        0.000        0.000        0.000        3.000        2.000        0.000        0.000        0.000        0.000        0.000        0.000        0.000        0.000        0.000        0.000        0.000        0.000        0.000        0.000        0.000        0.000        0.000        0.000        1.000        2.000        2.000        1.000        0.000        9.000        0.000        0.000        0.000        0.000        0.000      100.000        0.000        0.000        2.945        3.008        3.792
     670.000  -230055.737    22220.084    13936.253    45874.163       84.786  -353248.819    41077.797       25.758       25.805        2.674        2.606        2.584        2.660        2.434        2.542        2.685        2.529        2.679        2.625        2.653        2.579        2.471        2.613        2.594        2.599        0.474        2.000        0.000        0.000        0.000        3.000        2.000        0.000        0.000        0.000        1.000        0.000        1.000        0.000        0.000        0.000        0.000        0.000        0.000        0.000        1.000        0.000        0.000        0.000        0.000        1.000        5.000        1.000        1.000        0.000       12.000        1.000        0.000        0.000        0.000        0.000      100.000        0.000        0.000        2.880        2.920        3.782
     680.000  -230041.666    23872.626    13934.632    45300.886       77.702  -354270.553    41043.041       26.092       26.254        2.676        2.600        2.521        2.631        2.479        2.562        2.692        2.582        2.613        2.697        2.696        2.631        2.506        2.577        2.669        2.627        0.470        1.000        0.000        0.000        1.000        3.000        2.000        0.000        0.000        0.000        0.000        0.000        1.000        0.000        0.000        1.000        0.000        0.000        0.000        0.000        1.000        0.000        0.000        0.000        0.000        2.000        0.000        0.000        1.000        1.000        8.000        0.000        0.000        0.000        4.494        0.000       95.506        0.000        0.000        3.087        3.127        3.918
     690.000  -230286.829    23435.236    14209.108    45618.799       67.225  -354363.356    40746.159       25.877       25.910        2.722        2.624        2.586        2.667        2.466        2.523        2.621        2.513        2.545        2.632        2.652        2.673        2.457        2.614        2.663        2.633        0.486        0.000        0.000        1.000        0.000        3.000        2.000        0.000        0.000        0.000        0.000        0.000        0.000        0.000        2.000        0.000        0.000        0.000        0.000        0.000        1.000        0.000        0.000        0.000        0.000        2.000        1.000        0.000        3.000        1.000        5.000        1.000        0.000        0.000        0.000        0.000      100.000        0.000        0.000        2.930        2.955        3.863
     700.000  -229737.558    22450.986    13835.622    45616.174       70.279  -354784.098    43073.480       25.779       25.824        2.684        2.598        2.572        2.628        2.473        2.548        2.692        2.488        2.682        2.678        2.636        2.557        2.451        2.627        2.634        2.616        0.486        2.000        0.000        0.000        0.000        3.000        2.000        0.000        0.000        0.000        0.000        0.000        0.000        1.000        1.000        0.000        0.000        0.000        0.000        0.000        0.000        0.000        0.000        0.000        0.000        3.000        2.000        0.000        2.000        0.000        6.000        0.000        0.000        0.000        0.000        0.000      100.000        0.000        0.000        2.813        2.862        3.869
     710.000  -230452.803    23517.947    13941.168    45667.704       68.879  -353969.354    40320.853       25.924       26.043        2.611        2.600        2.592        2.649        2.500        2.550        2.661        2.492        2.636        2.633        2.657        2.570        2.458        2.601        2.668        2.637        0.476        2.000        0.000        0.000        0.000        3.000        2.000        0.000        0.000        0.000        0.000        0.000        0.000        0.000        1.000        0.000        0.000        0.000        0.000        0.000        1.000        0.000        0.000        0.000        0.000        2.000        1.000        0.000        1.000        0.000        1.000        0.000        0.000        0.000        0.000        0.000      100.000        0.000        0.000        3.095        3.145        4.066
     720.000  -230660.865    22991.566    13852.677    45563.044       74.395  -355209.129    42066.581       25.840       25.665        2.699        2.656        2.582        2.628        2.462        2.544        2.680        2.492        2.601        2.724        2.692        2.606        2.488        2.599        2.688        2.555        0.493        2.000        0.000        0.000        1.000        3.000        3.000        0.000        0.000        0.000        0.000        0.000        0.000        0.000        1.000        0.000        0.000        0.000        0.000        0.000        1.000        0.000        0.000        0.000        0.000        1.000        2.000        0.000        1.000        1.000        3.000        0.000        0.000        0.000        0.000        0.000      100.000        0.000        0.000        2.531        2.565        3.727
     730.000  -230223.141    24122.420    13794.941    45543.496       58.898  -354177.644    40434.748       25.967       25.951        2.661        2.648        2.520        2.690        2.459        2.605        2.707        2.510        2.573        2.634        2.728        2.574        2.503        2.607        2.612        2.601        0.487        1.000        0.000        0.000        0.000        3.000        2.000        0.000        0.000        0.000        0.000        0.000        1.000        0.000        2.000        0.000        0.000        0.000        0.000        0.000        0.000        0.000        0.000        0.000        0.000        3.000        1.000        1.000        1.000        0.000        6.000        0.000        0.000        0.000        0.000        0.000      100.000        0.000        0.000        2.636        2.690        3.706
     740.000  -230117.873    22269.897    13932.036    45613.173       69.634  -355194.391    43191.779       25.853       25.795        2.669        2.627        2.563        2.659        2.480        2.590        2.702        2.485        2.645        2.661        2.658        2.576        2.496        2.586        2.652        2.614        0.489        1.000        0.000        1.000        0.000        3.000        2.000        0.000        0.000        0.000        0.000        0.000        1.000        0.000        1.000        1.000        0.000        0.000        0.000        0.000        0.000        0.000        0.000        0.000        0.000        2.000        2.000        0.000        1.000        1.000        5.000        0.000        0.000        0.000        0.000        0.000      100.000        0.000        0.000        2.982        3.003        3.848
     750.000  -229502.284    23519.766    13902.448    45527.606      111.791  -353004.382    40440.488       26.013       26.043        2.662        2.567        2.529        2.679        2.500        2.596        2.669        2.515        2.559        2.611        2.678        2.592        2.547        2.669        2.623        2.587        0.504        0.000        0.000        1.000        0.000        3.000        2.000        0.000        0.000        0.000        0.000        0.000        1.000        0.000        2.000        0.000        0.000        0.000        0.000        0.000        0.000        0.000        0.000        0.000        0.000        3.000        2.000        0.000        0.000        0.000        5.000        0.000        0.000        0.000        0.000        0.000      100.000        0.000        0.000        3.167        3.230        3.897
     760.000  -230134.185    22246.894    13671.282    45761.599       82.650  -354335.607    42438.997       25.837       26.017        2.683        2.607        2.540        2.647        2.469        2.577        2.648        2.576        2.570        2.621        2.622        2.563        2.449        2.641        2.631        2.594        0.487        1.000        0.000        0.000        0.000        3.000        3.000        0.000        0.000        0.000        0.000        0.000        0.000        0.000        1.000        2.000        0.000        0.000        0.000        0.000        0.000        0.000        0.000        0.000        0.000        4.000        2.000        0.000        0.000        0.000        5.000        1.000        0.000        0.000        0.000        0.000      100.000        0.000        0.000        2.799        2.848        3.643
     770.000  -230671.337    22907.388    13833.928    45701.653       73.265  -354929.103    41741.532       25.798       25.864        2.673        2.616        2.586        2.645        2.467        2.627        2.624        2.534        2.599        2.613        2.687        2.573        2.471        2.539        2.606        2.575        0.509        1.000        0.000        0.000        0.000        3.000        2.000        0.000        0.000        0.000        0.000        0.000        0.000        0.000        0.000        2.000        0.000        0.000        0.000        0.000        0.000        0.000        0.000        0.000        0.000        4.000        0.000        1.000        0.000        1.000        4.000        0.000        0.000        0.000        0.000        0.000      100.000        0.000        0.000        2.775        2.829        3.621
     780.000  -230083.131    22765.554    13534.994    45855.940       74.466  -353564.089    41250.004       25.814       25.670        2.659        2.607        2.589        2.645        2.439        2.576        2.622        2.505        2.601        2.655        2.614        2.580        2.456        2.594        2.606        2.612        0.489        1.000        0.000        1.000        0.000        3.000        3.000        0.000        0.000        0.000        0.000        0.000        0.000        0.000        1.000        0.000        0.000        0.000        0.000        0.000        0.000        0.000        0.000        0.000        0.000        0.000        1.000        0.000        3.000        0.000        5.000        0.000        0.000        0.000        0.000        0.000      100.000        0.000        0.000        3.015        3.042        3.721
     790.000  -230177.501    22849.910    13949.036    45473.775       82.799  -353083.834    40550.813       25.820       25.793        2.683        2.672        2.584        2.699        2.417        2.545        2.670        2.514        2.564        2.689        2.694        2.643        2.535        2.581        2.609        2.615        0.482        1.000        0.000        1.000        0.000        3.000        3.000        0.000        0.000        0.000        0.000        0.000        0.000        0.000        0.000        1.000        0.000        0.000        0.000        0.000        0.000        0.000        0.000        0.000        0.000        0.000        1.000        1.000        1.000        0.000       11.000        1.000        0.000        0.000        0.000        0.000      100.000        0.000        0.000        2.839        2.868        3.792
     800.000  -229885.433    23111.551    14095.176    45606.661       89.196  -353426.790    40638.773       26.002       26.036        2.703        2.598        2.550        2.689        2.421        2.618        2.686        2.540        2.591        2.669        2.600        2.604        2.510        2.550        2.673        2.543        0.501        1.000        1.000        1.000        0.000        3.000        3.000        0.000        0.000        0.000        0.000        0.000        0.000        0.000        1.000        1.000        0.000        0.000        0.000        0.000        0.000        0.000        0.000        0.000        0.000        1.000        0.000        2.000        0.000        0.000        6.000        0.000        0.000        0.000        0.000        0.000      100.000        0.000        0.000        2.578        2.616        3.586
     810.000  -230154.606    22875.922    13659.629    45505.534       76.403  -353455.704    41183.611       25.895       25.861        2.699        2.632        2.600        2.694        2.455        2.614        2.713        2.542        2.574        2.685        2.660        2.549        2.468        2.562        2.594        2.601        0.471        1.000        0.000        1.000        0.000        3.000        1.000        0.000        0.000        0.000        0.000        0.000        0.000        0.000        1.000        1.000        0.000        0.000        0.000        0.000        0.000        0.000        0.000        0.000        0.000        3.000        2.000        0.000        2.000        0.000        6.000        1.000        0.000        0.000        0.000        0.000      100.000        0.000        0.000        1.986        2.046        3.409
     820.000  -229749.834    23849.987    14069.018    45463.420       68.222  -352798.527    39598.047       26.115       25.981        2.657        2.661        2.595        2.664        2.471        2.603        2.678        2.570        2.592        2.644        2.615        2.593        2.535        2.554        2.610        2.630        0.499        2.000        0.000        1.000        0.000        2.000        2.000        0.000        0.000        0.000        0.000        0.000        1.000        0.000        1.000        0.000        0.000        0.000        0.000        0.000        0.000        0.000        0.000        0.000        0.000        4.000        2.000        0.000        3.000        0.000       11.000        0.000        0.000        0.000        4.494        0.000       95.506        0.000        0.000        2.217        2.243        3.581
     830.000  -229617.960    22510.202    13642.370    45627.970      100.721  -353523.625    42024.403       26.043       25.798        2.687        2.612        2.565        2.647        2.415        2.620        2.640        2.547        2.603        2.638        2.625        2.592        2.505        2.534        2.611        2.571        0.478        1.000        0.000        0.000        1.000        3.000        2.000        0.000        0.000        0.000        0.000        0.000        1.000        0.000        0.000        1.000        0.000        0.000        0.000        0.000        0.000        0.000        0.000        0.000        0.000        4.000        3.000        2.000        2.000        0.000        8.000        0.000        0.000        0.000        0.000        0.000      100.000        0.000        0.000        2.081        2.111        3.758
     840.000  -229518.854    23620.008    14032.956    45463.558       78.959  -353655.340    40941.005       26.003       25.767        2.635        2.615        2.563        2.640        2.438        2.613        2.696        2.584        2.628        2.685        2.674        2.600        2.476        2.533        2.604        2.585        0.498        1.000        0.000        1.000        0.000        3.000        3.000        0.000        0.000        0.000        0.000        0.000        0.000        0.000        0.000        0.000        0.000        0.000        0.000        0.000        1.000        0.000        0.000        0.000        0.000        1.000        1.000        0.000        2.000        0.000        8.000        0.000        0.000        0.000        0.000        0.000      100.000        0.000        0.000        2.186        2.240        3.930
     850.000  -229507.833    23315.165    13899.693    45307.817       91.093  -352228.563    40106.962       25.845       25.750        2.665        2.610        2.583        2.672        2.447        2.559        2.679        2.489        2.571        2.707        2.662        2.622        2.500        2.536        2.670        2.616        0.510        2.000        0.000        1.000        0.000        3.000        3.000        0.000        0.000        0.000        0.000        1.000        0.000        0.000        0.000        0.000        0.000        0.000        0.000        0.000        0.000        0.000        0.000        0.000        0.000        2.000        0.000        0.000        1.000        0.000        2.000        0.000        0.000        0.000        0.000        0.000      100.000        0.000        0.000        2.597        2.620        4.071
     860.000  -229025.850    22825.384    14416.476    45467.656       72.015  -353355.547    41548.166       25.776       25.619        2.702        2.546        2.635        2.670        2.472        2.604        2.683        2.522        2.579        2.674        2.657        2.607        2.486        2.549        2.631        2.564        0.493        1.000        0.000        0.000        0.000        3.000        2.000        0.000        0.000        0.000        0.000        0.000        0.000        0.000        0.000        0.000        0.000        0.000        0.000        0.000        0.000        0.000        0.000        0.000        0.000        2.000        2.000        2.000        2.000        1.000        5.000        0.000        0.000        0.000        0.000        0.000      100.000        0.000        0.000        2.628        2.661        4.032
     870.000  -229520.500    22459.916    13883.378    45649.798       95.903  -353063.460    41453.965       25.811       25.403        2.627        2.601        2.582        2.599        2.459        2.604        2.716        2.509        2.533        2.676        2.675        2.611        2.469        2.588        2.645        2.607        0.503        1.000        0.000        1.000        0.000        3.000        1.000        0.000        0.000        0.000        0.000        1.000        1.000        0.000        2.000        0.000        0.000        0.000        0.000        0.000        0.000        0.000        0.000        0.000        0.000        1.000        2.000        2.000        0.000        0.000        5.000        0.000        0.000        0.000        0.000        0.000      100.000        0.000        0.000        2.432        2.441        4.214
     880.000  -230101.222    22613.202    13658.834    45445.691       68.820  -353508.530    41620.761       26.119       25.808        2.661        2.637        2.582        2.671        2.465        2.583        2.714        2.549        2.586        2.680        2.666        2.580        2.503        2.582        2.674        2.572        0.474        0.000        0.000        1.000        0.000        2.000        1.000        0.000        0.000        0.000        0.000        0.000        0.000        0.000        1.000        0.000        0.000        0.000        0.000        0.000        0.000        0.000        0.000        0.000        0.000        2.000        4.000        1.000        0.000        0.000        4.000        1.000        0.000        0.000        0.000        0.000      100.000        0.000        0.000        1.851        1.869        3.768
     890.000  -230404.021    23505.087    13631.228    45436.798       77.421  -354786.374    41731.820       25.965       25.604        2.653        2.672        2.569        2.673        2.521        2.578        2.643        2.536        2.566        2.700        2.633        2.605        2.470        2.614        2.718        2.619        0.517        1.000        0.000        0.000        0.000        2.000        3.000        0.000        0.000        0.000        0.000        0.000        0.000        0.000        0.000        0.000        0.000        0.000        0.000        0.000        0.000        0.000        0.000        0.000        0.000        3.000        4.000        0.000        0.000        1.000        5.000        0.000        0.000        0.000        0.000        0.000      100.000        0.000        0.000        1.650        1.674        3.876
     900.000  -229621.404    23818.670    14015.513    45617.733       86.104  -353014.839    39855.414       25.785       25.776        2.601        2.688        2.542        2.703        2.510        2.597        2.675        2.550        2.555        2.663        2.659        2.630        2.454        2.558        2.626        2.585        0.498        1.000        0.000        1.000        0.000        2.000        2.000        0.000        0.000        0.000        0.000        0.000        1.000        0.000        0.000        0.000        0.000        0.000        0.000        0.000        0.000        0.000        0.000        0.000        0.000        2.000        2.000        0.000        0.000        0.000        4.000        0.000        0.000        0.000        0.000        0.000      100.000        0.000        0.000        1.927        1.962        4.150
     910.000  -230426.079    23510.365    13697.126    45484.923       61.737  -354486.906    41306.676       26.011       25.922        2.642        2.607        2.572        2.672        2.534        2.576        2.655        2.533        2.531        2.653        2.586        2.613        2.499        2.555        2.623        2.643        0.499        1.000        0.000        0.000        0.000        2.000        3.000        0.000        0.000        0.000        0.000        0.000        0.000        0.000        1.000        0.000        0.000        0.000        0.000        0.000        0.000        0.000        0.000        0.000        0.000        2.000        1.000        1.000        0.000        0.000        4.000        1.000        0.000        0.000        0.000        0.000      100.000        0.000        0.000        2.019        2.040        4.103
     920.000  -230539.666    23853.820    13934.108    45710.947       80.196  -355299.399    41180.662       25.827       25.474        2.562        2.595        2.556        2.707        2.447        2.580        2.615        2.479        2.563        2.677        2.612        2.578        2.539        2.562        2.615        2.612        0.456        2.000        0.000        0.000        0.000        2.000        4.000        0.000        0.000        0.000        0.000        0.000        0.000        0.000        2.000        0.000        0.000        0.000        0.000        0.000        0.000        0.000        0.000        0.000        0.000        4.000        2.000        0.000        0.000        1.000        5.000        0.000        0.000        0.000        0.000        0.000      100.000        0.000        0.000        2.067        2.097        4.251
     930.000  -230592.236    21980.700    14145.750    45653.375       91.650  -354482.174    42018.463       26.075       25.790        2.646        2.585        2.605        2.620        2.497        2.638        2.671        2.521        2.584        2.698        2.678        2.595        2.512        2.537        2.648        2.591        0.475        0.000        0.000        0.000        0.000        2.000        4.000        0.000        0.000        0.000        0.000        0.000        1.000        0.000        0.000        1.000        0.000        0.000        0.000        0.000        0.000        0.000        0.000        0.000        0.000        2.000        1.000        0.000        3.000        0.000        3.000        0.000        0.000        0.000        0.000        0.000      100.000        0.000        0.000        2.058        2.067        4.234
     940.000  -230110.166    22352.299    13763.059    45464.658       66.843  -353990.995    42233.970       26.306       25.879        2.636        2.539        2.551        2.656        2.589        2.579        2.690        2.564        2.533        2.685        2.671        2.607        2.521        2.550        2.620        8.229        0.474        1.000        0.000        0.000        0.000        2.000        2.000        0.000        0.000        1.000        0.000        0.000        0.000        0.000        0.000        1.000        0.000        0.000        0.000        0.000        0.000        0.000        0.000        0.000        0.000        4.000        1.000        0.000        0.000        0.000        6.000        0.000        0.000        0.000        0.000        0.000      100.000        0.000        0.000        2.107        2.135        4.096
     950.000  -230318.478    22593.593    13881.668    45538.509       85.996  -352988.419    40570.174       25.925       25.755        2.638        2.557        2.543        2.669        2.482        2.621        2.678        2.534        2.559        2.653        2.642        2.595        2.518        2.514        2.601        2.558        0.497        1.000        0.000        0.000        0.000        2.000        2.000        0.000        0.000        0.000        0.000        0.000        1.000        0.000        0.000        0.000        0.000        0.000        0.000        0.000        0.000        0.000        0.000        0.000        0.000        0.000        1.000        1.000        2.000        0.000        8.000        0.000        0.000        0.000        0.000        0.000      100.000        0.000        0.000        1.959        2.001        3.818
     960.000  -231268.422    22967.744    13933.835    45551.619       54.678  -356217.012    42440.713       25.830       25.958        2.681        2.549        2.594        2.653        2.475        2.596        2.646        2.552        2.548        2.656        2.652        2.601        2.539        2.566        2.602        8.184        0.486        1.000        0.000        0.000        0.000        1.000        2.000        0.000        0.000        0.000        0.000        0.000        0.000        0.000        1.000        0.000        0.000        0.000        0.000        0.000        0.000        0.000        0.000        0.000        0.000        0.000        1.000        1.000        0.000        0.000        7.000        1.000        0.000        0.000        0.000        0.000      100.000        0.000        0.000        2.127        2.157        3.996
     970.000  -229380.736    21836.207    14005.417    45424.356       69.146  -353031.116    42315.254       25.829       25.981        2.641        2.615        2.601        2.706        2.470        2.609        2.695        2.485        2.583        2.665        2.633        2.625        2.477        2.578        2.588        2.624        0.465        0.000        0.000        1.000        0.000        2.000        3.000        0.000        0.000        0.000        0.000        0.000        0.000        0.000        1.000        0.000        0.000        0.000        0.000        0.000        0.000        0.000        0.000        0.000        0.000        2.000        0.000        2.000        0.000        0.000        5.000        1.000        0.000        0.000        0.000        0.000      100.000        0.000        0.000        1.819        1.846        3.500
     980.000  -230037.659    23501.295    13643.741    45440.333       72.401  -353029.028    40333.599       25.942       25.789        2.672        2.571        2.590        2.691        2.503        2.555        2.681        2.570        2.542        2.704        2.582        2.611        2.522        2.544        2.614        2.533        0.470        1.000        0.000        1.000        0.000        2.000        3.000        0.000        0.000        0.000        0.000        0.000        0.000        0.000        2.000        1.000        0.000        0.000        0.000        0.000        0.000        0.000        0.000        0.000        0.000        3.000        2.000        1.000        0.000        0.000        6.000        0.000        0.000        0.000        0.000        0.000      100.000        0.000        0.000        1.577        1.618        3.580
     990.000  -229581.450    22139.756    13759.458    45714.930       75.991  -353185.706    41914.121       26.044       25.747        2.643        2.593        2.581        2.674        2.436        2.521        2.662        2.527        2.605        2.641        2.655        2.601        2.490        2.518        2.647        8.183        0.490        2.000        0.000        0.000        0.000        2.000        3.000        0.000        0.000        1.000        0.000        1.000        1.000        0.000        1.000        0.000        0.000        0.000        0.000        0.000        0.000        0.000        0.000        0.000        0.000        3.000        1.000        1.000        1.000        0.000        8.000        0.000        0.000        0.000        0.000        0.000      100.000        0.000        0.000        1.545        1.591        3.654
    1000.000  -230394.595    21933.273    13758.003    45934.505       88.921  -354630.242    42520.945       25.851       25.386        2.551        2.541        2.527        2.669        2.495        2.539        2.685        2.532        2.614        2.654        2.712        2.579        2.485        2.531        2.689       10.988        0.477        1.000        0.000        0.000        0.000        2.000        3.000        0.000        0.000        0.000        0.000        0.000        0.000        0.000        0.000        0.000        0.000        0.000        0.000        0.000        0.000        0.000        0.000        0.000        0.000        2.000        5.000        1.000        2.000        2.000        6.000        1.000        0.000        0.000        0.000        0.000      100.000        0.000        0.000        1.369        1.420        3.798
     Average  -231724.032    23254.412    13939.969    45625.020       74.530  -356580.807    41962.844       25.945       25.789        2.657        2.593        2.577        2.648        2.533        2.582        2.660        2.518        2.594        2.647        2.666        2.609        2.477        2.556        2.663        2.846        0.489        1.436        0.030        0.545        0.149        2.257        3.089        0.000        0.000        0.198        0.020        0.030        0.337        0.020        0.911        0.238        0.000        0.000        0.000        0.000        0.465        0.000        0.000        0.000        0.000        1.891        1.218        0.921        1.059        0.584        7.089        0.356        0.000        0.000        0.089        0.000       99.911        0.000        0.000        2.143        2.180        3.054

