____Time[ps] Energy[ kJ/mol ]_____Bond _______Angle ____Dihedral ___Planarity _____Coulomb _________VdW _Your result _Your result _Your result _Your result _Your result _Your result _Your result _Your result _Your result _Your result _Your result _Your result _Your result _Your result _Your result _Your result _Your result _Your result _Your result _Your result _Your result _Your result _Your result _Your result _Your result _Your result _Your result _Your result _Your result _Your result _Your result _Your result _Your result _Your result _Your result _Your result _Your result _Your result _Your result _Your result _Your result _Your result _Your result _Your result _Your result _Your result _Your result _Your result _Your result _Your result _Your result _Your result _Your result _Your result _Your result _Your result _Your result _RMSDs[A]:CA ____Backbone __HeavyAtoms
       0.000  -343433.513     3763.880     4960.740    43932.587       10.253  -462533.573    66432.600       25.426       25.378        2.614        3.003        2.691        2.669        2.713        3.019        2.668        2.538        3.211        2.616        3.062        2.688        3.047        2.987        2.584        2.625        0.489        1.000        0.000        1.000        0.000        0.000        5.000        0.000        0.000        0.000        0.000        0.000        0.000        0.000        2.000        0.000        0.000        0.000        0.000        0.000        0.000        0.000        0.000        0.000        0.000        1.000        0.000        0.000        0.000        0.000        3.000        0.000        0.000        0.000        0.000        0.000      100.000        0.000        0.000        0.424        0.451        0.555
      10.000  -262137.090    31351.557    15352.232    43670.482       68.109  -403301.826    50722.357       25.932       25.995        2.643        2.941        2.656        2.667        2.693        3.056        2.641        2.553        3.224        2.649        3.063        2.514        3.082        3.030        2.610        2.674        0.475        1.000        0.000        1.000        0.000        0.000        6.000        0.000        0.000        0.000        0.000        0.000        0.000        0.000        2.000        0.000        0.000        0.000        0.000        0.000        0.000        0.000        0.000        0.000        0.000        0.000        0.000        1.000        0.000        0.000        7.000        0.000        0.000        0.000        0.000        0.000      100.000        0.000        0.000        1.454        1.480        1.537
      20.000  -262087.942    30059.865    15480.715    43624.095       76.726  -401639.172    50309.828       25.866       26.211        2.637        2.951        2.676        2.684        2.720        3.063        2.705        2.574        3.228        2.636        3.034        2.482        3.031        3.028        2.673        2.623        0.489        1.000        0.000        1.000        0.000        0.000        6.000        0.000        0.000        0.000        0.000        0.000        0.000        0.000        0.000        0.000        0.000        0.000        0.000        0.000        0.000        0.000        0.000        0.000        0.000        0.000        0.000        2.000        0.000        1.000        5.000        2.000        0.000        0.000        0.000        0.000      100.000        0.000        0.000        1.396        1.410        1.593
      30.000  -261683.292    30631.873    15397.794    43505.897       65.661  -399120.569    47836.051       26.109       26.169        2.641        2.945        2.712        2.671        2.713        3.045        2.669        2.547        3.250        2.653        3.035        2.531        3.052        3.049        2.681        2.605        0.464        1.000        0.000        1.000        0.000        0.000        6.000        0.000        0.000        0.000        0.000        0.000        0.000        0.000        3.000        0.000        0.000        0.000        0.000        0.000        0.000        0.000        0.000        0.000        0.000        2.000        0.000        1.000        0.000        0.000       10.000        0.000        0.000        0.000        0.000        0.000      100.000        0.000        0.000        1.605        1.612        1.907
      40.000  -261474.085    28724.514    15339.453    43591.136       95.364  -400137.633    50913.082       25.866       25.943        2.637        3.026        2.669        2.665        2.727        3.072        2.695        2.543        3.235        2.614        3.086        2.585        3.065        2.956        2.646        2.642        0.500        1.000        0.000        0.000        0.000        0.000        5.000        0.000        0.000        0.000        0.000        0.000        0.000        0.000        1.000        0.000        0.000        0.000        0.000        0.000        0.000        0.000        0.000        0.000        0.000        1.000        0.000        2.000        0.000        0.000        9.000        2.000        0.000        0.000        0.000        0.000      100.000        0.000        0.000        1.330        1.336        1.739
      50.000  -260492.539    28267.166    15928.767    43535.432       90.178  -398041.402    49727.321       25.761       25.912        2.604        3.023        2.711        2.671        2.699        3.098        2.705        2.550        3.242        2.606        3.073        2.512        3.089        3.051        2.665        2.618        0.472        1.000        0.000        1.000        0.000        0.000        5.000        0.000        0.000        0.000        0.000        0.000        0.000        0.000        1.000        0.000        0.000        0.000        0.000        0.000        0.000        0.000        0.000        0.000        0.000        0.000        0.000        2.000        0.000        1.000       10.000        2.000        0.000        0.000        0.000        0.000      100.000        0.000        0.000        1.314        1.341        1.739
      60.000  -260484.544    28757.847    15800.488    43535.298       75.970  -399185.343    50531.197       25.930       26.191        2.617        2.962        2.683        2.631        2.650        3.061        2.644        2.532        3.236        2.622        3.107        2.505        3.095        2.964        2.713        2.642        0.482        1.000        0.000        1.000        0.000        0.000        5.000        0.000        0.000        0.000        0.000        0.000        0.000        0.000        1.000        0.000        0.000        0.000        0.000        0.000        0.000        0.000        0.000        0.000        0.000        1.000        0.000        2.000        0.000        0.000       13.000        0.000        0.000        0.000        0.000        0.000      100.000        0.000        0.000        1.260        1.286        1.756
      70.000  -259621.923    28599.691    15826.413    43535.417       80.662  -395864.215    48200.110       25.833       26.046        2.619        3.022        2.715        2.642        2.658        3.073        2.648        2.557        3.223        2.584        3.059        2.494        3.118        2.995        2.690        2.643        0.469        1.000        0.000        0.000        0.000        0.000        7.000        0.000        0.000        0.000        0.000        0.000        0.000        0.000        3.000        0.000        0.000        0.000        0.000        0.000        0.000        0.000        0.000        0.000        0.000        0.000        0.000        2.000        0.000        0.000        8.000        0.000        0.000        0.000        0.000        0.000      100.000        0.000        0.000        1.433        1.467        1.934
      80.000  -259681.118    29118.800    16307.933    43494.669       84.091  -397382.151    48695.541       25.785       26.035        2.613        3.027        2.709        2.678        2.710        3.102        2.627        2.602        3.251        2.624        3.089        2.504        3.079        3.001        2.727        2.647        0.488        1.000        0.000        1.000        0.000        0.000        7.000        0.000        0.000        0.000        0.000        0.000        0.000        0.000        2.000        0.000        0.000        0.000        0.000        0.000        0.000        0.000        0.000        0.000        0.000        0.000        0.000        0.000        0.000        0.000       10.000        1.000        0.000        0.000        0.000        0.000      100.000        0.000        0.000        1.358        1.398        1.864
      90.000  -260648.807    27361.555    15780.134    43681.809       75.122  -396684.655    49137.229       25.762       26.020        2.629        3.007        2.726        2.684        2.701        3.079        2.626        2.578        3.244        2.618        3.128        2.540        3.173        3.000        2.704        2.599        0.525        1.000        0.000        0.000        0.000        0.000        6.000        0.000        0.000        0.000        0.000        0.000        0.000        0.000        2.000        0.000        0.000        0.000        0.000        0.000        0.000        0.000        0.000        0.000        0.000        0.000        0.000        1.000        0.000        0.000        9.000        0.000        0.000        0.000        0.000        0.000      100.000        0.000        0.000        1.365        1.384        1.916
     100.000  -259914.389    28927.269    15889.158    43759.051       81.720  -398098.013    49526.426       25.783       25.958        2.641        2.990        2.711        2.661        2.661        3.056        2.631        2.553        3.177        2.635        3.041        2.522        3.139        3.010        2.672        2.611        0.487        1.000        0.000        1.000        0.000        0.000        5.000        0.000        0.000        0.000        0.000        0.000        0.000        0.000        1.000        0.000        0.000        0.000        0.000        0.000        0.000        0.000        0.000        0.000        0.000        0.000        0.000        4.000        0.000        0.000        9.000        2.000        0.000        0.000        0.000        0.000      100.000        0.000        0.000        1.327        1.339        1.974
     110.000  -258382.119    27168.713    15624.857    43711.492       80.216  -394681.784    49714.387       25.646       25.890        2.701        2.965        2.654        2.672        2.636        3.030        2.623        2.532        3.169        2.623        3.097        2.488        3.077        2.929        2.629        2.585        0.475        1.000        0.000        0.000        0.000        0.000        5.000        0.000        0.000        0.000        0.000        0.000        0.000        0.000        2.000        0.000        0.000        0.000        0.000        0.000        0.000        0.000        0.000        0.000        0.000        1.000        0.000        1.000        0.000        0.000       11.000        0.000        0.000        0.000        0.000        0.000      100.000        0.000        0.000        1.435        1.462        1.974
     120.000  -258721.199    27915.991    15910.548    43559.299       56.576  -393764.271    47600.657       25.660       26.088        2.653        2.958        2.698        2.630        2.707        3.082        2.675        2.534        3.237        2.635        3.092        2.517        3.101        2.926        2.621        2.626        0.473        1.000        0.000        0.000        0.000        0.000        3.000        0.000        0.000        0.000        0.000        0.000        0.000        0.000        2.000        0.000        0.000        0.000        0.000        0.000        0.000        0.000        0.000        0.000        0.000        0.000        0.000        1.000        0.000        0.000        9.000        0.000        0.000        0.000        0.000        0.000      100.000        0.000        0.000        1.347        1.400        1.910
     130.000  -258058.238    26096.546    15814.636    43733.257       83.824  -392426.480    48639.978       25.619       26.043        2.646        2.938        2.702        2.669        2.670        3.114        2.692        2.574        3.231        2.619        3.071        2.569        3.062        2.997        2.679        2.599        0.479        1.000        0.000        0.000        0.000        0.000        6.000        0.000        0.000        0.000        0.000        0.000        0.000        0.000        1.000        0.000        0.000        0.000        0.000        0.000        0.000        0.000        0.000        0.000        0.000        1.000        0.000        2.000        0.000        0.000       12.000        1.000        0.000        0.000        0.000        0.000      100.000        0.000        0.000        1.332        1.356        2.055
     140.000  -257935.165    26785.410    15937.989    43590.151       90.871  -392360.591    48021.005       25.677       26.327        2.636        3.023        2.705        2.678        2.717        3.142        2.697        2.528        3.245        2.631        3.146        2.506        3.094        2.937        2.707        2.640        0.470        1.000        0.000        0.000        0.000        1.000        5.000        0.000        0.000        0.000        0.000        0.000        0.000        0.000        2.000        0.000        0.000        0.000        0.000        0.000        0.000        0.000        0.000        0.000        0.000        1.000        0.000        3.000        0.000        0.000       12.000        1.000        0.000        0.000        0.000        0.000      100.000        0.000        0.000        1.254        1.291        2.001
     150.000  -257711.995    26537.138    16022.012    43531.154       67.105  -392867.475    48998.071       25.790       26.238        2.669        2.963        2.683        2.660        2.654        2.997        2.681        2.570        3.284        2.634        3.052        2.553        3.075        2.979        2.684        2.654        0.480        1.000        0.000        0.000        0.000        1.000        5.000        0.000        0.000        0.000        0.000        0.000        0.000        0.000        2.000        0.000        0.000        0.000        0.000        0.000        0.000        0.000        0.000        0.000        0.000        1.000        0.000        3.000        0.000        1.000       13.000        0.000        0.000        0.000        0.000        0.000      100.000        0.000        0.000        1.320        1.359        2.057
     160.000  -258037.265    27304.862    15533.267    43542.048       57.980  -391813.784    47338.363       25.799       26.223        2.623        2.997        2.648        2.709        2.664        3.094        2.690        2.541        3.267        2.611        3.102        2.560        3.045        2.965        2.733        2.522        0.484        1.000        0.000        0.000        0.000        1.000        4.000        0.000        0.000        0.000        0.000        0.000        0.000        0.000        1.000        0.000        0.000        0.000        0.000        0.000        0.000        0.000        0.000        0.000        0.000        0.000        0.000        0.000        0.000        3.000       13.000        0.000        0.000        0.000        0.000        0.000      100.000        0.000        0.000        1.374        1.413        2.089
     170.000  -258159.332    26347.651    15558.213    43727.012       94.907  -392027.067    48139.952       25.830       26.051        2.567        2.943        2.719        2.639        2.659        3.089        2.733        2.547        3.204        2.632        3.087        2.517        3.027        2.969        2.661        2.589        0.478        1.000        0.000        0.000        0.000        1.000        4.000        0.000        0.000        0.000        0.000        0.000        0.000        0.000        1.000        0.000        0.000        0.000        0.000        0.000        0.000        0.000        0.000        0.000        0.000        0.000        0.000        2.000        0.000        0.000       10.000        1.000        0.000        0.000        0.000        0.000      100.000        0.000        0.000        1.349        1.396        2.070
     180.000  -257650.748    25797.227    15554.910    43567.220       79.248  -391319.301    48669.948       25.766       25.967        2.589        3.042        2.707        2.671        2.674        3.031        2.668        2.582        3.305        2.658        3.097        2.523        3.095        2.982        2.679        2.533        0.476        1.000        0.000        0.000        0.000        1.000        5.000        0.000        0.000        0.000        0.000        0.000        0.000        0.000        5.000        0.000        0.000        0.000        0.000        0.000        0.000        0.000        0.000        0.000        0.000        1.000        0.000        2.000        0.000        0.000        9.000        0.000        0.000        0.000        0.000        0.000      100.000        0.000        0.000        1.289        1.308        2.057
     190.000  -257978.792    27003.293    15559.608    43533.228       63.995  -392325.854    48186.937       25.525       25.878        2.618        2.981        2.763        2.661        2.693        3.094        2.697        2.544        3.225        2.617        3.104        2.462        3.111        2.980        2.703        2.590        0.481        1.000        0.000        1.000        0.000        1.000        4.000        0.000        0.000        0.000        0.000        0.000        0.000        0.000        2.000        0.000        0.000        0.000        0.000        0.000        0.000        0.000        0.000        0.000        0.000        1.000        0.000        1.000        0.000        1.000       12.000        2.000        0.000        0.000        4.494        0.000       95.506        0.000        0.000        1.536        1.550        2.249
     200.000  -257727.406    26050.982    15446.949    43509.777       69.073  -390880.193    48076.006       25.782       26.015        2.596        3.000        2.696        2.624        2.698        3.068        2.682        2.555        3.227        2.628        3.022        2.492        3.059        3.009        2.647        2.569        0.513        1.000        0.000        0.000        0.000        1.000        5.000        0.000        0.000        0.000        0.000        0.000        0.000        0.000        3.000        0.000        0.000        0.000        0.000        0.000        0.000        0.000        0.000        0.000        0.000        2.000        0.000        4.000        0.000        1.000       11.000        0.000        0.000        0.000        0.000        0.000      100.000        0.000        0.000        1.580        1.574        2.388
     210.000  -256961.596    25361.305    15795.622    43524.973       74.761  -390592.731    48874.475       25.778       26.150        2.593        3.008        2.688        2.607        2.690        3.048        2.691        2.564        3.201        2.595        3.104        2.583        3.133        3.026        2.686        2.611        0.488        1.000        0.000        1.000        0.000        1.000        5.000        0.000        0.000        0.000        0.000        0.000        0.000        0.000        2.000        0.000        0.000        0.000        0.000        0.000        0.000        0.000        0.000        0.000        0.000        1.000        0.000        2.000        0.000        1.000       10.000        0.000        0.000        0.000        0.000        0.000      100.000        0.000        0.000        1.460        1.485        2.323
     220.000  -257615.550    26176.922    15841.297    43569.781       61.038  -391908.965    48644.377       25.750       26.005        2.631        2.948        2.718        2.610        2.701        2.994        2.712        2.593        3.220        2.565        3.075        2.538        3.048        3.060        2.709        2.523        0.493        1.000        0.000        0.000        0.000        1.000        6.000        0.000        0.000        0.000        0.000        0.000        0.000        0.000        2.000        0.000        0.000        0.000        0.000        0.000        0.000        0.000        0.000        0.000        0.000        1.000        0.000        3.000        0.000        1.000        6.000        1.000        0.000        0.000        0.000        0.000      100.000        0.000        0.000        1.613        1.645        2.424
     230.000  -257809.689    26176.515    15624.886    43523.816       85.315  -390777.507    47557.286       26.100       26.147        2.592        2.953        2.707        2.592        2.673        3.069        2.701        2.563        3.251        2.604        3.073        2.527        3.129        3.072        2.723        2.577        0.500        1.000        0.000        0.000        0.000        1.000        6.000        0.000        0.000        0.000        0.000        0.000        0.000        0.000        1.000        0.000        0.000        0.000        0.000        0.000        0.000        0.000        0.000        0.000        0.000        1.000        0.000        3.000        0.000        0.000        3.000        0.000        0.000        0.000        0.000        0.000      100.000        0.000        0.000        1.946        1.990        2.778
     240.000  -256815.669    25901.329    15361.788    43330.055       94.664  -389468.569    47965.064       26.219       26.409        2.620        3.020        2.717        2.614        2.743        3.122        2.713        2.545        3.282        2.627        3.035        2.537        3.099        3.054        2.701        2.574        0.481        1.000        0.000        1.000        0.000        1.000        6.000        0.000        0.000        0.000        0.000        0.000        0.000        0.000        3.000        0.000        0.000        0.000        0.000        0.000        0.000        0.000        0.000        0.000        0.000        0.000        0.000        1.000        0.000        1.000        9.000        1.000        0.000        0.000        0.000        0.000      100.000        0.000        0.000        1.630        1.684        2.377
     250.000  -256299.299    26972.037    15099.624    43404.361       84.578  -388811.355    46951.455       25.932       26.133        2.647        3.004        2.720        2.608        2.710        3.060        2.662        2.576        3.269        2.622        3.099        2.546        3.053        3.007        2.702        2.587        0.502        1.000        0.000        1.000        0.000        1.000        6.000        0.000        0.000        0.000        0.000        0.000        0.000        0.000        1.000        0.000        0.000        0.000        0.000        0.000        0.000        0.000        0.000        0.000        0.000        0.000        0.000        2.000        0.000        1.000       10.000        0.000        0.000        0.000        0.000        0.000      100.000        0.000        0.000        1.334        1.382        2.232
     260.000  -256795.909    27080.683    15173.848    43212.887       81.734  -387900.465    45555.405       25.850       26.221        2.653        2.985        2.722        2.606        2.719        3.089        2.692        2.592        3.261        2.577        3.108        2.521        3.074        3.037        2.687        2.600        0.487        1.000        0.000        1.000        0.000        1.000        6.000        0.000        0.000        0.000        0.000        0.000        0.000        0.000        3.000        0.000        0.000        0.000        0.000        0.000        0.000        0.000        0.000        0.000        0.000        0.000        0.000        3.000        0.000        1.000        8.000        0.000        0.000        0.000        0.000        0.000      100.000        0.000        0.000        1.896        1.951        2.618
     270.000  -256615.889    26049.843    15202.129    43315.367       89.634  -387922.699    46649.836       25.786       25.985        2.583        2.980        2.689        2.632        2.730        3.138        2.648        2.513        3.281        2.633        3.141        2.528        3.093        3.058        2.694        2.548        0.507        1.000        0.000        1.000        0.000        1.000        5.000        0.000        0.000        0.000        0.000        0.000        0.000        0.000        2.000        0.000        0.000        0.000        0.000        0.000        0.000        0.000        0.000        0.000        0.000        1.000        0.000        3.000        0.000        0.000       12.000        1.000        0.000        0.000        0.000        0.000      100.000        0.000        0.000        1.796        1.862        2.732
     280.000  -256477.029    26287.824    15489.732    43529.301       86.364  -389211.519    47341.268       25.940       26.092        2.604        2.942        2.653        2.616        2.694        3.046        2.667        2.582        3.281        2.628        3.075        2.560        3.008        3.055        2.669        2.574        0.470        1.000        0.000        0.000        0.000        1.000        5.000        0.000        0.000        0.000        0.000        0.000        0.000        0.000        1.000        0.000        0.000        0.000        0.000        0.000        0.000        0.000        0.000        0.000        0.000        0.000        0.000        0.000        0.000        0.000        9.000        0.000        0.000        0.000        0.000        0.000      100.000        0.000        0.000        1.940        1.987        2.824
     290.000  -256482.367    25958.730    15326.290    43599.314       79.549  -387978.932    46532.683       26.356       26.190        2.586        3.008        2.698        2.607        2.683        3.068        2.712        2.561        3.277        2.638        3.073        2.558        3.036        3.025        2.712        2.592        0.498        1.000        0.000        1.000        0.000        1.000        5.000        0.000        0.000        0.000        0.000        0.000        0.000        0.000        1.000        0.000        0.000        0.000        0.000        0.000        0.000        0.000        0.000        0.000        0.000        1.000        0.000        3.000        0.000        2.000        7.000        1.000        0.000        0.000        0.000        0.000      100.000        0.000        0.000        2.091        2.134        2.945
     300.000  -256472.307    27030.652    15018.095    43554.070       87.940  -389056.610    46893.546       26.066       26.045        2.627        3.083        2.700        2.594        2.673        3.066        2.687        2.546        3.274        2.624        3.084        2.521        3.088        3.052        2.708        2.617        0.482        1.000        0.000        1.000        0.000        1.000        5.000        0.000        0.000        0.000        0.000        0.000        0.000        0.000        3.000        0.000        0.000        0.000        0.000        0.000        0.000        0.000        0.000        0.000        0.000        0.000        0.000        0.000        0.000        1.000        8.000        1.000        0.000        0.000        0.000        0.000      100.000        0.000        0.000        2.188        2.227        3.065
     310.000  -256295.083    25824.307    14988.857    43295.204       93.410  -386987.293    46490.431       26.215       26.476        2.638        3.015        2.725        2.626        2.703        3.078        2.720        2.582        3.301        2.635        3.102        2.515        3.114        2.998        2.650        2.571        0.499        1.000        0.000        1.000        0.000        1.000        4.000        0.000        0.000        0.000        0.000        0.000        0.000        0.000        1.000        0.000        0.000        0.000        0.000        0.000        0.000        0.000        0.000        0.000        0.000        1.000        0.000        2.000        0.000        1.000        7.000        0.000        0.000        0.000        0.000        0.000      100.000        0.000        0.000        2.253        2.275        3.196
     320.000  -256609.984    25172.792    15217.692    43538.246       99.511  -387786.531    47148.305       25.935       26.104        2.632        3.025        2.650        2.608        2.669        3.079        2.653        2.603        3.249        2.601        3.111        2.565        3.000        3.047        2.685        2.601        0.498        1.000        0.000        0.000        0.000        0.000        5.000        0.000        0.000        0.000        0.000        0.000        0.000        0.000        2.000        0.000        0.000        0.000        0.000        0.000        0.000        0.000        0.000        0.000        0.000        0.000        0.000        2.000        0.000        1.000       11.000        1.000        0.000        0.000        0.000        0.000      100.000        0.000        0.000        2.262        2.310        3.369
     330.000  -256452.992    26028.448    15087.102    43594.637       89.120  -389007.350    47755.051       25.799       26.143        2.616        3.049        2.703        2.596        2.700        3.065        2.686        2.557        3.244        2.614        3.059        2.562        3.071        3.008        2.675        2.618        0.487        1.000        0.000        1.000        0.000        0.000        4.000        0.000        0.000        0.000        0.000        0.000        0.000        0.000        3.000        0.000        0.000        0.000        0.000        0.000        0.000        0.000        0.000        0.000        0.000        1.000        0.000        3.000        0.000        1.000        8.000        0.000        0.000        0.000        0.000        0.000      100.000        0.000        0.000        2.479        2.552        3.682
     340.000  -256556.708    25543.541    15587.240    43490.262       75.591  -388155.490    46902.148       26.107       26.351        2.620        3.077        2.700        2.601        2.588        3.061        2.743        2.575        3.257        2.614        3.114        2.492        3.171        3.014        2.700        2.608        0.471        1.000        0.000        1.000        0.000        0.000        5.000        0.000        0.000        0.000        0.000        0.000        0.000        0.000        4.000        0.000        0.000        0.000        0.000        0.000        0.000        0.000        0.000        0.000        0.000        3.000        0.000        4.000        0.000        5.000       14.000        0.000        0.000        0.000        0.000        0.000      100.000        0.000        0.000        2.745        2.779        3.984
     350.000  -256398.674    24960.748    15265.161    43526.210      100.215  -388337.338    48086.330       26.212       26.467        2.685        3.104        2.716        2.612        2.681        3.101        2.701        2.539        3.267        2.660        3.087        2.582        3.114        2.994        2.673        2.579        0.487        1.000        0.000        1.000        0.000        0.000        5.000        0.000        0.000        0.000        0.000        0.000        0.000        0.000        4.000        0.000        0.000        0.000        0.000        0.000        0.000        0.000        0.000        0.000        0.000        0.000        0.000        2.000        0.000        1.000       13.000        0.000        0.000        0.000        4.494        0.000       95.506        0.000        0.000        2.416        2.458        3.789
     360.000  -256101.940    26689.168    15355.595    43434.788       87.458  -387568.132    45899.182       26.543       26.734        2.656        3.057        2.682        2.612        2.701        3.152        2.662        2.573        3.243        2.612        3.154        2.523        3.153        3.022        2.716        2.665        0.489        1.000        0.000        1.000        0.000        0.000        5.000        0.000        0.000        0.000        0.000        0.000        0.000        0.000        2.000        0.000        0.000        0.000        0.000        0.000        0.000        0.000        0.000        0.000        0.000        0.000        0.000        1.000        0.000        2.000       10.000        0.000        0.000        0.000        4.494        0.000       95.506        0.000        0.000        2.392        2.380        3.872
     370.000  -255818.582    26039.971    14929.027    43419.808       73.708  -386342.554    46061.459       26.440       26.654        2.622        3.133        2.727        2.592        2.695        3.151        2.708        2.543        3.209        2.603        3.056        2.568        3.075        3.007        2.683        2.586        0.484        1.000        0.000        1.000        0.000        0.000        4.000        0.000        0.000        0.000        0.000        0.000        0.000        0.000        1.000        0.000        0.000        0.000        0.000        0.000        0.000        0.000        0.000        0.000        0.000        1.000        0.000        1.000        0.000        3.000        8.000        0.000        0.000        0.000        0.000        0.000      100.000        0.000        0.000        2.344        2.362        3.678
     380.000  -256118.213    26039.961    15125.914    43476.021       76.301  -387272.225    46435.817       26.400       26.634        2.615        3.030        2.712        2.607        2.699        3.131        2.706        2.534        3.282        2.643        3.105        2.542        3.136        2.975        2.714        2.587        0.488        1.000        0.000        1.000        0.000        0.000        5.000        0.000        0.000        0.000        0.000        0.000        0.000        0.000        1.000        0.000        0.000        0.000        0.000        0.000        0.000        0.000        0.000        0.000        0.000        1.000        0.000        0.000        0.000        2.000        9.000        0.000        0.000        0.000        0.000        0.000      100.000        0.000        0.000        2.374        2.393        3.769
     390.000  -256083.380    26568.236    15116.392    43406.544       77.725  -387480.864    46228.587       26.166       26.648        2.663        3.160        2.690        2.586        2.706        3.057        2.714        2.558        3.197        2.606        3.105        2.479        3.131        2.994        2.719        2.599        0.491        1.000        0.000        0.000        0.000        0.000        5.000        0.000        0.000        0.000        0.000        0.000        0.000        0.000        2.000        0.000        0.000        0.000        0.000        0.000        0.000        0.000        0.000        0.000        0.000        1.000        0.000        1.000        0.000        2.000        9.000        0.000        0.000        0.000        0.000        0.000      100.000        0.000        0.000        2.454        2.472        3.686
     400.000  -256221.310    25415.765    15079.012    43646.347       93.251  -387259.363    46803.680       26.153       26.473        2.724        3.029        2.694        2.582        2.691        3.115        2.676        2.532        3.201        2.595        3.161        2.574        3.048        2.937        2.725        2.574        0.498        1.000        0.000        0.000        0.000        0.000        6.000        0.000        0.000        0.000        0.000        0.000        0.000        0.000        3.000        0.000        0.000        0.000        0.000        0.000        0.000        0.000        0.000        0.000        0.000        1.000        0.000        1.000        0.000        1.000        7.000        0.000        0.000        0.000        0.000        0.000      100.000        0.000        0.000        1.881        1.891        3.318
     410.000  -255973.366    25895.934    15367.045    43407.707       88.278  -387443.862    46711.533       26.123       26.340        2.623        3.095        2.693        2.593        2.639        3.153        2.674        2.555        3.238        2.585        3.062        2.541        3.084        3.060        2.693        2.642        0.488        1.000        0.000        1.000        0.000        0.000        4.000        0.000        0.000        0.000        0.000        0.000        0.000        0.000        2.000        0.000        0.000        0.000        0.000        0.000        0.000        0.000        0.000        0.000        0.000        0.000        0.000        0.000        0.000        4.000        6.000        0.000        0.000        0.000        0.000        0.000      100.000        0.000        0.000        1.706        1.708        3.204
     420.000  -255539.735    26358.095    15009.055    43391.233       86.485  -385182.990    44798.387       26.163       26.447        2.594        3.069        2.709        2.634        2.734        3.038        2.714        2.532        3.259        2.646        3.023        2.533        3.090        2.976        2.688        2.545        0.496        1.000        0.000        1.000        0.000        0.000        5.000        0.000        0.000        0.000        0.000        0.000        0.000        0.000        3.000        0.000        0.000        0.000        0.000        0.000        0.000        0.000        0.000        0.000        0.000        0.000        0.000        5.000        0.000        3.000       11.000        0.000        0.000        0.000        0.000        0.000      100.000        0.000        0.000        1.839        1.838        3.261
     430.000  -255462.622    25798.178    14942.918    43474.128       79.128  -386095.023    46338.049       26.192       26.422        2.588        3.071        2.699        2.638        2.696        3.113        2.686        2.549        3.298        2.624        3.084        2.493        3.014        3.004        2.664        2.562        0.483        1.000        0.000        0.000        0.000        0.000        5.000        0.000        0.000        0.000        0.000        0.000        0.000        0.000        1.000        0.000        0.000        0.000        0.000        0.000        0.000        0.000        0.000        0.000        0.000        0.000        0.000        1.000        0.000        2.000        8.000        0.000        0.000        0.000        0.000        0.000      100.000        0.000        0.000        1.764        1.753        3.278
     440.000  -255265.244    26351.162    15536.639    43367.193       87.760  -386063.865    45455.867       26.090       26.256        2.614        3.113        2.704        2.665        2.694        3.118        2.644        2.552        3.248        2.646        3.141        2.548        3.014        3.135        2.702        2.557        0.508        1.000        0.000        1.000        0.000        0.000        5.000        0.000        0.000        0.000        0.000        0.000        0.000        0.000        3.000        0.000        0.000        0.000        0.000        0.000        0.000        0.000        0.000        0.000        0.000        0.000        0.000        0.000        0.000        3.000        7.000        0.000        0.000        0.000        0.000        0.000      100.000        0.000        0.000        1.849        1.837        3.370
     450.000  -254842.080    25733.661    15464.637    43572.231       72.461  -384718.180    45033.112       26.322       26.610        2.608        3.001        2.693        2.656        2.719        3.036        2.707        2.528        3.221        2.609        3.073        2.529        3.098        2.975        2.746        2.600        0.486        0.000        0.000        1.000        0.000        0.000        5.000        0.000        0.000        0.000        0.000        0.000        0.000        0.000        1.000        0.000        0.000        0.000        0.000        0.000        0.000        0.000        0.000        0.000        0.000        0.000        0.000        1.000        0.000        1.000        4.000        0.000        0.000        0.000        0.000        0.000      100.000        0.000        0.000        2.066        2.069        3.267
     460.000  -255926.964    26352.447    15361.588    43567.366       69.721  -387730.622    46452.536       26.280       26.383        2.641        3.029        2.708        2.646        2.676        3.059        2.666        2.538        3.262        2.605        3.127        2.535        3.042        3.030        2.707        2.551        0.482        1.000        0.000        1.000        0.000        0.000        4.000        0.000        0.000        0.000        0.000        0.000        0.000        0.000        1.000        0.000        0.000        0.000        0.000        0.000        0.000        0.000        0.000        0.000        0.000        1.000        0.000        2.000        0.000        2.000       10.000        0.000        0.000        0.000        0.000        0.000      100.000        0.000        0.000        2.284        2.295        3.583
     470.000  -255778.412    25790.751    15077.039    43297.598       91.474  -386276.538    46241.265       26.174       26.593        2.566        3.111        2.645        2.636        2.691        3.083        2.725        2.510        3.230        2.634        3.000        2.487        3.150        3.008        2.631        2.615        0.489        1.000        0.000        1.000        0.000        0.000        5.000        0.000        0.000        0.000        0.000        0.000        0.000        0.000        1.000        0.000        0.000        0.000        0.000        0.000        0.000        0.000        0.000        0.000        0.000        0.000        0.000        1.000        0.000        3.000        5.000        0.000        0.000        0.000        0.000        0.000      100.000        0.000        0.000        2.473        2.487        3.633
     480.000  -255402.796    25668.695    15156.386    43527.231       96.396  -386599.022    46747.517       25.935       26.179        2.620        3.102        2.683        2.679        2.667        3.079        2.661        2.516        3.182        2.627        3.024        2.532        3.043        3.018        2.646        2.613        0.504        1.000        0.000        0.000        0.000        0.000        3.000        0.000        0.000        0.000        0.000        0.000        0.000        0.000        0.000        0.000        0.000        0.000        0.000        0.000        0.000        0.000        0.000        0.000        0.000        0.000        0.000        0.000        0.000        0.000        8.000        0.000        0.000        0.000        0.000        0.000      100.000        0.000        0.000        2.222        2.261        3.448
     490.000  -255218.913    25144.532    14914.751    43731.789       86.504  -385001.246    45904.756       26.012       26.124        2.584        2.995        2.686        2.631        2.668        3.017        2.676        2.585        3.184        2.628        3.006        2.496        3.060        3.001        2.711        2.639        0.478        1.000        0.000        1.000        0.000        0.000        2.000        0.000        0.000        0.000        0.000        0.000        0.000        0.000        0.000        0.000        0.000        0.000        0.000        0.000        0.000        0.000        0.000        0.000        0.000        1.000        0.000        0.000        0.000        2.000        5.000        0.000        0.000        0.000        0.000        0.000      100.000        0.000        0.000        2.152        2.172        3.387
     500.000  -255034.962    24829.674    15212.308    43374.742       82.846  -385200.982    46666.450       25.832       26.123        2.588        2.995        2.711        2.724        2.653        3.009        2.673        2.552        3.270        2.649        3.099        2.515        3.061        3.040        2.651        2.590        0.520        1.000        0.000        1.000        0.000        0.000        3.000        0.000        0.000        1.000        0.000        0.000        0.000        0.000        1.000        0.000        0.000        0.000        0.000        0.000        0.000        0.000        0.000        0.000        0.000        0.000        0.000        2.000        0.000        3.000       10.000        0.000        0.000        0.000        0.000        0.000      100.000        0.000        0.000        2.236        2.266        3.389
     510.000  -256051.616    24767.635    14598.455    43550.800       72.746  -387032.507    47991.255       26.014       26.258        2.592        3.095        2.722        2.612        2.736        3.030        2.656        2.556        3.269        2.565        3.099        2.509        3.104        3.024        2.598        2.602        0.491        1.000        0.000        1.000        0.000        0.000        3.000        0.000        0.000        0.000        0.000        0.000        0.000        0.000        2.000        0.000        0.000        0.000        0.000        0.000        0.000        0.000        0.000        0.000        0.000        1.000        0.000        2.000        0.000        1.000        8.000        0.000        0.000        0.000        0.000        0.000      100.000        0.000        0.000        2.165        2.197        3.452
     520.000  -255639.329    25360.883    14848.905    43563.302       90.613  -385338.000    45834.970       25.903       26.008        2.616        2.996        2.693        2.638        2.733        3.045        2.676        2.575        3.244        2.639        3.096        2.504        3.109        3.076        2.687        2.584        0.466        1.000        0.000        0.000        0.000        0.000        5.000        0.000        0.000        0.000        0.000        0.000        0.000        0.000        0.000        0.000        0.000        0.000        0.000        0.000        0.000        0.000        0.000        0.000        0.000        2.000        0.000        3.000        0.000        2.000        6.000        0.000        0.000        0.000        0.000        0.000      100.000        0.000        0.000        2.156        2.190        3.460
     530.000  -255703.857    25506.849    15056.720    43647.911       64.080  -386911.166    46931.749       25.800       25.804        2.616        3.011        2.706        2.684        2.679        3.105        2.695        2.547        3.310        2.610        3.075        2.521        3.091        3.003        2.606        2.634        0.475        1.000        0.000        1.000        0.000        0.000        6.000        0.000        0.000        0.000        0.000        0.000        0.000        0.000        1.000        0.000        0.000        0.000        0.000        0.000        0.000        0.000        0.000        0.000        0.000        1.000        0.000        2.000        0.000        1.000        9.000        0.000        0.000        0.000        0.000        0.000      100.000        0.000        0.000        2.058        2.073        3.322
     540.000  -255565.658    24525.300    15387.826    43582.267       80.951  -386825.667    47683.665       26.029       25.970        2.590        3.056        2.678        2.703        2.705        3.038        2.661        2.581        3.296        2.613        3.061        2.524        3.031        3.057        2.712        2.570        0.472        0.000        0.000        1.000        0.000        0.000        4.000        0.000        0.000        0.000        0.000        0.000        0.000        0.000        1.000        0.000        0.000        0.000        0.000        0.000        0.000        0.000        0.000        0.000        0.000        0.000        0.000        2.000        0.000        1.000        9.000        0.000        0.000        0.000        0.000        0.000      100.000        0.000        0.000        1.762        1.785        3.211
     550.000  -255523.020    25269.964    14954.656    43364.510      110.919  -384907.948    45684.878       26.118       26.140        2.587        3.112        2.684        2.682        2.664        3.043        2.682        2.556        3.213        2.650        3.108        2.549        3.038        3.069        2.675        2.599        0.472        1.000        0.000        1.000        0.000        0.000        6.000        0.000        0.000        0.000        0.000        0.000        0.000        0.000        2.000        0.000        0.000        0.000        0.000        0.000        0.000        0.000        0.000        0.000        0.000        1.000        0.000        1.000        0.000        1.000       10.000        0.000        0.000        0.000        0.000        0.000      100.000        0.000        0.000        1.809        1.855        3.175
     560.000  -255467.326    25170.653    14953.830    43612.557       85.479  -385697.663    46407.819       26.034       25.759        2.560        3.080        2.699        2.596        2.716        3.089        2.667        2.569        3.190        2.600        3.122        2.543        3.095        2.997        2.685        2.602        0.490        1.000        0.000        1.000        0.000        0.000        6.000        0.000        0.000        0.000        0.000        0.000        0.000        0.000        0.000        0.000        0.000        0.000        0.000        0.000        0.000        0.000        0.000        0.000        0.000        0.000        0.000        1.000        0.000        1.000        7.000        0.000        0.000        0.000        0.000        0.000      100.000        0.000        0.000        1.544        1.574        2.953
     570.000  -255111.243    25196.965    15103.308    43516.714       96.923  -385231.215    46206.061       25.774       26.031        2.559        3.023        2.690        2.629        2.687        3.005        2.671        2.559        3.223        2.611        3.069        2.548        3.097        3.006        2.663        2.636        0.490        1.000        0.000        1.000        0.000        0.000        4.000        0.000        0.000        0.000        0.000        0.000        0.000        0.000        2.000        0.000        0.000        0.000        0.000        0.000        0.000        0.000        0.000        0.000        0.000        0.000        0.000        2.000        0.000        1.000        6.000        0.000        0.000        0.000        4.494        0.000       95.506        0.000        0.000        2.089        2.147        3.232
     580.000  -255304.890    25131.804    15069.962    43577.788       80.554  -385400.176    46235.178       25.849       25.921        2.595        2.998        2.665        2.593        2.646        3.005        2.727        2.553        3.200        2.604        3.066        2.502        3.116        3.010        2.735        2.580        0.479        1.000        0.000        1.000        0.000        0.000        4.000        0.000        0.000        0.000        0.000        0.000        0.000        0.000        1.000        0.000        0.000        0.000        0.000        0.000        0.000        0.000        0.000        0.000        0.000        0.000        0.000        4.000        0.000        0.000        9.000        0.000        0.000        0.000        0.000        0.000      100.000        0.000        0.000        1.822        1.885        3.109
     590.000  -255909.471    26198.961    15089.552    43427.985       57.541  -385992.360    45308.849       26.006       26.202        2.600        3.093        2.707        2.600        2.569        3.130        2.667        2.548        3.277        2.610        3.027        2.500        3.041        2.990        2.693        2.602        0.498        1.000        0.000        1.000        0.000        0.000        5.000        0.000        0.000        0.000        0.000        0.000        0.000        0.000        0.000        0.000        0.000        0.000        0.000        0.000        0.000        0.000        0.000        0.000        0.000        0.000        0.000        1.000        0.000        1.000        4.000        0.000        0.000        0.000        0.000        0.000      100.000        0.000        0.000        2.025        2.080        3.404
     600.000  -255851.115    24742.198    15323.593    43514.180       80.436  -385603.085    46091.563       25.959       26.039        2.577        3.023        2.682        2.621        2.629        3.011        2.672        2.555        3.245        2.651        3.082        2.515        3.075        3.012        2.652        2.617        0.492        1.000        0.000        0.000        0.000        0.000        5.000        0.000        0.000        0.000        0.000        0.000        0.000        0.000        0.000        0.000        0.000        0.000        0.000        0.000        0.000        0.000        0.000        0.000        0.000        0.000        0.000        0.000        0.000        0.000        9.000        0.000        0.000        0.000        0.000        0.000      100.000        0.000        0.000        1.951        2.011        3.296
     610.000  -255200.360    25532.853    15397.100    43634.360       95.062  -386210.890    46351.154       25.817       26.089        2.529        2.927        2.704        2.542        2.585        3.003        2.706        2.554        3.259        2.627        3.092        2.552        3.061        3.026        2.640        2.627        0.472        1.000        0.000        1.000        0.000        0.000        4.000        0.000        0.000        0.000        0.000        0.000        0.000        0.000        0.000        0.000        0.000        0.000        0.000        0.000        0.000        0.000        0.000        0.000        0.000        1.000        0.000        1.000        0.000        0.000        6.000        0.000        0.000        0.000        0.000        0.000      100.000        0.000        0.000        1.963        1.996        3.213
     620.000  -254834.746    25377.740    15182.656    43462.635       96.092  -384564.409    45610.540       26.064       26.028        2.516        2.966        2.694        2.627        2.611        2.961        2.702        2.547        3.285        2.646        3.102        2.515        3.101        2.992        2.688        2.650        0.480        1.000        0.000        1.000        0.000        0.000        3.000        0.000        0.000        0.000        0.000        0.000        0.000        0.000        0.000        0.000        0.000        0.000        0.000        0.000        0.000        0.000        0.000        0.000        0.000        1.000        0.000        3.000        0.000        1.000       14.000        0.000        0.000        0.000        0.000        0.000      100.000        0.000        0.000        1.981        2.049        3.281
     630.000  -255525.683    25933.043    15509.728    43548.637       89.746  -386069.377    45462.540       26.109       26.142        2.567        3.077        2.713        2.572        2.665        3.032        2.681        2.555        3.283        2.605        3.087        2.499        3.103        3.015        2.687        2.658        0.466        1.000        0.000        1.000        0.000        0.000        4.000        0.000        0.000        0.000        0.000        0.000        0.000        0.000        0.000        0.000        0.000        0.000        0.000        0.000        0.000        0.000        0.000        0.000        0.000        1.000        0.000        1.000        0.000        1.000       13.000        0.000        0.000        0.000        0.000        0.000      100.000        0.000        0.000        2.406        2.464        3.505
     640.000  -254975.210    24284.638    15150.836    43657.601       93.281  -385203.250    47041.685       25.882       26.087        2.530        3.096        2.734        2.680        2.634        3.033        2.685        2.571        3.259        2.570        3.039        2.537        3.108        3.061        2.737        2.591        0.484        1.000        0.000        1.000        0.000        0.000        3.000        0.000        0.000        0.000        0.000        0.000        0.000        0.000        2.000        0.000        0.000        0.000        0.000        0.000        0.000        0.000        0.000        0.000        0.000        1.000        0.000        2.000        0.000        1.000       15.000        0.000        0.000        0.000        0.000        0.000      100.000        0.000        0.000        2.548        2.595        3.740
     650.000  -254705.554    25029.306    15281.147    43453.731       76.184  -385461.089    46915.167       25.979       26.208        2.621        3.059        2.675        2.613        2.699        3.006        2.690        2.557        3.246        2.591        3.088        2.519        3.108        3.022        2.703        2.623        0.467        1.000        0.000        1.000        0.000        0.000        3.000        0.000        0.000        0.000        0.000        0.000        0.000        0.000        1.000        0.000        0.000        0.000        0.000        0.000        0.000        0.000        0.000        0.000        0.000        1.000        0.000        2.000        0.000        0.000       13.000        0.000        0.000        0.000        0.000        0.000      100.000        0.000        0.000        2.476        2.511        3.543
     660.000  -255484.790    25904.146    14916.167    43540.857       84.121  -385724.547    45794.466       26.057       26.235        2.532        3.112        2.684        2.662        2.614        3.073        2.694        2.563        3.303        2.653        3.037        2.535        3.082        2.992        2.686        2.628        0.488        1.000        0.000        0.000        0.000        0.000        5.000        0.000        0.000        0.000        0.000        0.000        0.000        0.000        2.000        0.000        0.000        0.000        0.000        0.000        0.000        0.000        0.000        0.000        0.000        1.000        0.000        1.000        0.000        0.000        7.000        0.000        0.000        0.000        0.000        0.000      100.000        0.000        0.000        2.510        2.532        3.826
     670.000  -256396.346    25926.635    14954.714    43380.032       71.868  -388092.084    47362.490       26.128       26.247        2.556        3.062        2.688        2.690        2.678        2.977        2.676        2.568        3.226        2.600        3.106        2.570        3.102        3.028        2.612        2.639        0.477        1.000        0.000        1.000        0.000        0.000        5.000        0.000        0.000        0.000        0.000        0.000        0.000        0.000        0.000        0.000        0.000        0.000        0.000        0.000        0.000        0.000        0.000        0.000        0.000        1.000        0.000        2.000        0.000        0.000        7.000        0.000        0.000        0.000        0.000        0.000      100.000        0.000        0.000        2.333        2.352        3.790
     680.000  -254979.868    25388.255    15123.607    43519.311       92.065  -385922.775    46819.669       26.094       26.317        2.572        2.936        2.696        2.617        2.653        2.988        2.702        2.539        3.210        2.639        3.054        2.468        3.037        3.072        2.685        2.625        0.485        0.000        0.000        0.000        0.000        0.000        4.000        0.000        0.000        0.000        0.000        0.000        0.000        0.000        1.000        0.000        0.000        0.000        0.000        0.000        0.000        0.000        0.000        0.000        0.000        0.000        0.000        2.000        0.000        2.000       10.000        0.000        0.000        0.000        0.000        0.000      100.000        0.000        0.000        2.075        2.056        3.578
     690.000  -255824.615    24876.746    14957.847    43618.102       80.106  -385966.390    46608.975       26.129       26.022        2.521        3.071        2.717        2.615        2.690        3.078        2.727        2.531        3.216        2.620        3.052        2.533        3.072        3.081        2.644        2.603        0.473        0.000        0.000        0.000        0.000        0.000        3.000        0.000        0.000        0.000        0.000        0.000        0.000        0.000        1.000        0.000        0.000        0.000        0.000        0.000        0.000        0.000        0.000        0.000        0.000        0.000        0.000        0.000        0.000        0.000       16.000        0.000        0.000        0.000        4.494        0.000       95.506        0.000        0.000        1.858        1.842        3.544
     700.000  -254904.629    26226.698    14966.838    43463.471      105.617  -384358.872    44691.619       26.048       26.068        2.555        3.035        2.720        2.632        2.647        3.092        2.667        2.601        3.270        2.649        3.032        2.535        3.097        3.079        2.679        2.608        0.480        0.000        0.000        0.000        0.000        0.000        4.000        0.000        0.000        0.000        0.000        0.000        0.000        0.000        2.000        0.000        0.000        0.000        0.000        0.000        0.000        0.000        0.000        0.000        0.000        0.000        0.000        0.000        0.000        1.000        2.000        0.000        0.000        0.000        0.000        0.000      100.000        0.000        0.000        2.159        2.174        3.649
     710.000  -255401.633    25347.047    14873.117    43687.029       97.313  -386267.089    46860.950       26.212       25.923        2.536        3.035        2.689        2.571        2.656        3.027        2.681        2.548        3.200        2.622        3.089        2.547        3.123        3.022        2.664        2.612        0.503        1.000        0.000        0.000        0.000        0.000        5.000        0.000        0.000        0.000        0.000        0.000        0.000        0.000        2.000        0.000        0.000        0.000        0.000        0.000        0.000        0.000        0.000        0.000        0.000        0.000        0.000        2.000        0.000        1.000        7.000        0.000        0.000        0.000        0.000        0.000      100.000        0.000        0.000        1.982        1.980        3.440
     720.000  -254848.900    24722.994    15028.657    43649.058       73.213  -385362.781    47039.960       26.366       26.271        2.489        3.035        2.708        2.688        2.610        3.068        2.714        2.598        3.202        2.615        3.073        2.505        3.052        3.053        2.639        2.626        0.486        0.000        0.000        0.000        0.000        0.000        4.000        0.000        0.000        0.000        0.000        0.000        0.000        0.000        1.000        0.000        0.000        0.000        0.000        0.000        0.000        0.000        0.000        0.000        0.000        0.000        0.000        0.000        0.000        1.000       12.000        0.000        0.000        0.000        0.000        0.000      100.000        0.000        0.000        2.018        2.020        3.412
     730.000  -255898.402    25269.786    15073.131    43528.181       75.240  -386356.497    46511.757       26.263       26.020        2.579        3.102        2.678        2.611        2.627        2.994        2.674        2.527        3.232        2.586        3.078        2.555        3.058        2.995        2.680        2.564        0.488        1.000        0.000        0.000        0.000        0.000        5.000        0.000        0.000        0.000        0.000        0.000        0.000        0.000        1.000        0.000        0.000        0.000        0.000        0.000        0.000        0.000        0.000        0.000        0.000        1.000        0.000        3.000        0.000        1.000        7.000        0.000        0.000        0.000        0.000        0.000      100.000        0.000        0.000        1.900        1.922        3.413
     740.000  -254843.200    24633.554    14933.555    43644.311       78.033  -384889.206    46756.554       26.329       26.205        2.611        3.125        2.688        2.647        2.605        3.065        2.652        2.530        3.281        2.609        3.026        2.499        2.987        3.025        2.659        2.590        0.478        1.000        0.000        0.000        0.000        0.000        6.000        0.000        0.000        0.000        0.000        0.000        0.000        0.000        1.000        0.000        0.000        0.000        0.000        0.000        0.000        0.000        0.000        0.000        0.000        1.000        0.000        5.000        0.000        2.000       11.000        0.000        0.000        0.000        0.000        0.000      100.000        0.000        0.000        1.877        1.862        3.431
     750.000  -254851.753    25013.411    15200.629    43361.981       78.511  -385059.345    46553.059       26.052       26.029        2.554        3.010        2.686        2.597        2.604        3.016        2.641        2.559        3.249        2.598        3.047        2.518        3.051        3.031        2.727        2.632        0.475        1.000        0.000        0.000        0.000        0.000        4.000        0.000        0.000        0.000        0.000        0.000        0.000        0.000        2.000        0.000        0.000        0.000        0.000        0.000        0.000        0.000        0.000        0.000        0.000        1.000        0.000        0.000        0.000        1.000       10.000        0.000        0.000        0.000        4.494        0.000       95.506        0.000        0.000        1.672        1.656        3.225
     760.000  -255434.357    24331.238    15218.099    43453.167       76.459  -385369.997    46856.678       26.239       26.161        2.546        2.965        2.705        2.607        2.553        3.039        2.666        2.556        3.215        2.647        3.037        2.559        3.067        3.023        2.690        2.618        0.487        1.000        0.000        0.000        0.000        0.000        4.000        0.000        0.000        0.000        0.000        0.000        0.000        0.000        3.000        0.000        0.000        0.000        0.000        0.000        0.000        0.000        0.000        0.000        0.000        1.000        0.000        2.000        0.000        0.000       10.000        0.000        0.000        0.000        0.000        0.000      100.000        0.000        0.000        2.034        2.040        3.502
     770.000  -255903.984    25948.024    15222.786    43710.865       81.308  -387577.280    46710.313       26.223       26.019        2.586        3.038        2.681        2.643        2.586        3.016        2.652        2.564        3.239        2.629        3.046        2.514        3.059        3.046        2.647        2.610        0.494        1.000        0.000        0.000        0.000        0.000        3.000        0.000        0.000        0.000        0.000        0.000        0.000        0.000        2.000        0.000        0.000        0.000        0.000        0.000        0.000        0.000        0.000        0.000        0.000        1.000        0.000        2.000        0.000        1.000       12.000        0.000        0.000        0.000        0.000        0.000      100.000        0.000        0.000        1.981        1.994        3.302
     780.000  -255193.606    24891.436    14869.071    43540.929      106.244  -384846.227    46244.941       26.041       26.411        2.541        3.115        2.686        2.637        2.675        3.068        2.644        2.524        3.224        2.625        3.078        2.503        3.088        2.976        2.672        2.620        0.485        1.000        0.000        0.000        0.000        0.000        3.000        0.000        0.000        0.000        0.000        0.000        0.000        0.000        0.000        0.000        0.000        0.000        0.000        0.000        0.000        0.000        0.000        0.000        0.000        1.000        0.000        1.000        0.000        0.000       14.000        0.000        0.000        0.000        4.494        0.000       95.506        0.000        0.000        2.069        2.095        3.478
     790.000  -255595.422    26123.221    14959.670    43483.199       80.582  -386313.536    46071.443       25.979       26.327        2.630        2.906        2.668        2.589        2.610        3.032        2.674        2.561        3.192        2.615        3.034        2.550        3.068        2.933        2.688        2.582        0.479        1.000        0.000        0.000        0.000        0.000        5.000        0.000        0.000        0.000        0.000        0.000        0.000        0.000        0.000        0.000        0.000        0.000        0.000        0.000        0.000        0.000        0.000        0.000        0.000        1.000        0.000        1.000        0.000        3.000        3.000        2.000        0.000        0.000        0.000        0.000      100.000        0.000        0.000        1.995        2.042        3.342
     800.000  -255189.035    24912.785    14864.210    43465.098       85.364  -385358.253    46841.761       25.931       26.353        2.547        3.091        2.677        2.640        2.675        3.009        2.671        2.536        3.245        2.569        3.152        2.592        3.092        2.996        2.690        2.597        0.507        1.000        0.000        0.000        0.000        0.000        4.000        0.000        0.000        0.000        0.000        0.000        0.000        0.000        1.000        0.000        0.000        0.000        0.000        0.000        0.000        0.000        0.000        0.000        0.000        0.000        0.000        2.000        0.000        1.000       15.000        0.000        0.000        0.000        0.000        0.000      100.000        0.000        0.000        2.098        2.109        3.352
     810.000  -254751.873    24448.621    14716.527    43642.875       75.171  -384760.286    47125.220       25.907       26.183        2.510        3.085        2.716        2.631        2.666        2.957        2.678        2.513        3.268        2.587        2.984        2.473        3.105        3.017        2.701        2.630        0.492        1.000        0.000        0.000        0.000        0.000        4.000        0.000        0.000        0.000        0.000        0.000        0.000        0.000        1.000        0.000        0.000        0.000        0.000        0.000        0.000        0.000        0.000        0.000        0.000        0.000        0.000        0.000        0.000        0.000       10.000        0.000        0.000        0.000        0.000        0.000      100.000        0.000        0.000        1.924        1.935        3.200
     820.000  -255376.947    25094.987    14671.042    43594.608      112.021  -385518.289    46668.684       26.078       26.130        2.530        2.969        2.676        2.605        2.688        3.067        2.698        2.510        3.269        2.644        3.075        2.543        3.120        3.012        2.645        2.650        0.488        1.000        0.000        0.000        0.000        0.000        4.000        0.000        0.000        0.000        0.000        0.000        0.000        0.000        1.000        0.000        0.000        0.000        0.000        0.000        0.000        0.000        0.000        0.000        0.000        1.000        0.000        0.000        0.000        0.000        6.000        0.000        0.000        0.000        0.000        0.000      100.000        0.000        0.000        1.807        1.818        3.062
     830.000  -255048.975    24683.110    15223.060    43611.459       92.544  -385835.928    47176.780       25.773       25.907        2.605        3.041        2.696        2.625        2.561        3.083        2.712        2.547        3.291        2.548        3.047        2.536        3.103        2.957        2.662        2.564        0.462        0.000        0.000        0.000        0.000        0.000        3.000        0.000        0.000        0.000        0.000        0.000        0.000        0.000        1.000        0.000        0.000        0.000        0.000        0.000        0.000        0.000        0.000        0.000        0.000        0.000        0.000        0.000        0.000        0.000        9.000        0.000        0.000        0.000        0.000        0.000      100.000        0.000        0.000        1.821        1.825        3.163
     840.000  -254731.833    26290.912    15027.812    43530.251       88.493  -384876.607    45207.308       26.148       25.968        2.586        3.072        2.738        2.636        2.608        2.962        2.664        2.527        3.290        2.556        3.058        2.499        3.131        2.986        2.668        2.611        0.466        0.000        0.000        0.000        0.000        0.000        3.000        0.000        0.000        0.000        0.000        0.000        0.000        0.000        0.000        0.000        0.000        0.000        0.000        0.000        0.000        0.000        0.000        0.000        0.000        1.000        0.000        2.000        0.000        0.000        9.000        0.000        0.000        0.000        0.000        0.000      100.000        0.000        0.000        2.225        2.260        3.378
     850.000  -255140.807    25005.875    14867.997    43446.067       83.972  -382815.116    44270.398       26.199       26.030        2.550        3.066        2.626        2.611        2.604        2.979        2.724        2.576        3.228        2.604        3.038        2.533        3.106        3.046        2.624        2.602        0.480        0.000        0.000        0.000        0.000        0.000        3.000        0.000        0.000        0.000        0.000        0.000        0.000        0.000        0.000        0.000        0.000        0.000        0.000        0.000        0.000        0.000        0.000        0.000        0.000        0.000        0.000        0.000        0.000        0.000       13.000        1.000        0.000        0.000        0.000        0.000      100.000        0.000        0.000        2.305        2.351        3.337
     860.000  -254916.197    25716.961    14820.240    43663.148       82.864  -385251.378    46051.968       26.117       26.045        2.514        3.015        2.674        2.638        2.617        3.003        2.701        2.591        3.281        2.558        3.055        2.554        3.041        2.961        2.671        2.607        0.489        1.000        0.000        0.000        0.000        0.000        4.000        0.000        0.000        0.000        0.000        0.000        0.000        0.000        1.000        0.000        0.000        0.000        0.000        0.000        0.000        0.000        0.000        0.000        0.000        1.000        0.000        2.000        0.000        1.000        7.000        0.000        0.000        0.000        0.000        0.000      100.000        0.000        0.000        2.405        2.466        3.461
     870.000  -255382.219    25226.397    14962.671    43640.757       75.466  -384944.469    45656.960       25.911       25.816        2.574        3.027        2.726        2.576        2.580        3.077        2.696        2.563        3.237        2.594        3.025        2.535        3.020        2.963        2.708        2.626        0.498        0.000        0.000        0.000        0.000        0.000        3.000        0.000        0.000        0.000        0.000        0.000        0.000        0.000        0.000        0.000        0.000        0.000        0.000        0.000        0.000        0.000        0.000        0.000        0.000        0.000        0.000        1.000        0.000        0.000       14.000        0.000        0.000        0.000        0.000        0.000      100.000        0.000        0.000        2.442        2.497        3.519
     880.000  -255104.066    25217.315    15237.277    43549.367       69.067  -384901.157    45724.064       25.932       26.029        2.640        3.056        2.700        2.644        2.634        3.013        2.733        2.568        3.251        2.659        3.117        2.493        3.075        2.972        2.643        2.558        0.487        0.000        0.000        0.000        0.000        0.000        4.000        0.000        0.000        0.000        0.000        0.000        0.000        0.000        1.000        0.000        0.000        0.000        0.000        0.000        0.000        0.000        0.000        0.000        0.000        1.000        0.000        2.000        0.000        1.000       13.000        0.000        0.000        0.000        0.000        0.000      100.000        0.000        0.000        2.666        2.748        3.552
     890.000  -255537.778    24561.845    15451.176    43676.015       80.187  -387549.718    48242.717       25.842       25.852        2.573        2.921        2.703        2.613        2.660        3.032        2.701        2.575        3.279        2.618        3.070        2.545        3.045        3.067        2.708        2.648        0.497        1.000        0.000        0.000        0.000        0.000        5.000        0.000        0.000        0.000        0.000        0.000        0.000        0.000        3.000        0.000        0.000        0.000        0.000        0.000        0.000        0.000        0.000        0.000        0.000        0.000        0.000        0.000        0.000        1.000        5.000        0.000        0.000        0.000        0.000        0.000      100.000        0.000        0.000        2.697        2.760        3.588
     900.000  -255101.464    24401.654    15002.979    43453.957      104.778  -384311.088    46246.256       26.092       26.081        2.614        3.125        2.684        2.581        2.628        3.083        2.664        2.568        3.182        2.636        3.073        2.556        3.038        3.021        2.700        2.621        0.496        1.000        0.000        0.000        0.000        1.000        3.000        0.000        0.000        0.000        0.000        0.000        0.000        0.000        2.000        0.000        0.000        0.000        0.000        0.000        0.000        0.000        0.000        0.000        0.000        1.000        0.000        1.000        0.000        0.000       11.000        0.000        0.000        0.000        4.494        0.000       95.506        0.000        0.000        2.390        2.438        3.509
     910.000  -255100.805    24417.206    14849.363    43745.830       84.789  -385341.501    47143.509       25.909       25.811        2.558        3.027        2.702        2.671        2.661        3.180        2.705        2.525        3.252        2.588        3.069        2.527        3.067        3.009        2.685        2.643        0.478        1.000        0.000        0.000        0.000        1.000        3.000        0.000        0.000        0.000        0.000        0.000        0.000        0.000        0.000        0.000        0.000        0.000        0.000        0.000        0.000        0.000        0.000        0.000        0.000        1.000        0.000        0.000        0.000        0.000       14.000        0.000        0.000        0.000        4.494        0.000       95.506        0.000        0.000        2.221        2.292        3.517
     920.000  -255297.863    25214.153    14938.339    43444.342       74.877  -384399.436    45429.863       25.803       25.729        2.511        3.053        2.700        2.695        2.661        3.039        2.757        2.538        3.230        2.624        3.042        2.547        3.078        3.029        2.681        2.553        0.462        1.000        0.000        0.000        0.000        1.000        4.000        0.000        0.000        0.000        0.000        0.000        0.000        0.000        4.000        0.000        0.000        0.000        0.000        0.000        0.000        0.000        0.000        0.000        0.000        0.000        0.000        1.000        0.000        1.000       10.000        0.000        0.000        0.000        0.000        0.000      100.000        0.000        0.000        2.297        2.336        3.519
     930.000  -255370.522    25426.352    15107.660    43533.099       73.954  -384834.872    45323.284       26.042       26.078        2.491        3.040        2.711        2.702        2.659        3.063        2.694        2.598        3.226        2.611        3.116        2.513        3.094        3.032        2.690        2.542        0.504        1.000        0.000        0.000        0.000        1.000        5.000        0.000        0.000        0.000        0.000        0.000        0.000        0.000        4.000        0.000        0.000        0.000        0.000        0.000        0.000        0.000        0.000        0.000        0.000        1.000        0.000        1.000        0.000        0.000        6.000        0.000        0.000        0.000        0.000        0.000      100.000        0.000        0.000        2.361        2.412        3.638
     940.000  -254460.712    24257.380    15271.618    43593.020       94.321  -385016.611    47339.559       26.322       26.263        2.559        3.073        2.696        2.642        2.588        3.047        2.679        2.564        3.265        2.588        3.056        2.607        3.062        3.028        2.707        2.613        0.494        1.000        0.000        0.000        0.000        1.000        2.000        0.000        0.000        0.000        0.000        0.000        0.000        0.000        3.000        0.000        0.000        0.000        0.000        0.000        0.000        0.000        0.000        0.000        0.000        0.000        0.000        0.000        0.000        1.000        8.000        1.000        0.000        0.000        0.000        0.000      100.000        0.000        0.000        2.180        2.193        3.611
     950.000  -255436.425    25197.942    15129.535    43678.680       73.715  -386099.265    46582.968       26.243       26.014        2.581        3.086        2.666        2.626        2.525        3.066        2.735        2.515        3.257        2.619        3.119        2.532        3.056        3.020        2.674        2.669        0.482        1.000        0.000        0.000        0.000        1.000        2.000        0.000        0.000        0.000        0.000        0.000        0.000        0.000        3.000        0.000        0.000        0.000        0.000        0.000        0.000        0.000        0.000        0.000        0.000        1.000        0.000        0.000        0.000        1.000        8.000        0.000        0.000        0.000        0.000        0.000      100.000        0.000        0.000        2.048        2.069        3.562
     960.000  -254755.872    24936.179    15183.945    43469.888       80.478  -384399.479    45973.118       26.398       26.160        2.539        3.140        2.724        2.614        2.568        3.034        2.662        2.546        3.292        2.643        3.144        2.577        3.107        2.998        2.731        2.591        0.487        1.000        0.000        0.000        0.000        1.000        4.000        0.000        0.000        0.000        0.000        0.000        0.000        0.000        3.000        0.000        0.000        0.000        0.000        0.000        0.000        0.000        0.000        0.000        0.000        0.000        0.000        0.000        0.000        2.000        7.000        0.000        0.000        0.000        0.000        0.000      100.000        0.000        0.000        2.084        2.108        3.508
     970.000  -255006.017    25010.927    15068.398    43726.497       98.219  -386236.958    47326.900       26.133       25.767        2.559        3.058        2.687        2.654        2.537        3.061        2.675        2.553        3.212        2.640        3.154        2.524        3.123        2.973        2.682        2.608        0.480        1.000        0.000        0.000        0.000        1.000        3.000        0.000        0.000        0.000        0.000        0.000        0.000        0.000        1.000        0.000        0.000        0.000        0.000        0.000        0.000        0.000        0.000        0.000        0.000        0.000        0.000        0.000        0.000        0.000       10.000        0.000        0.000        0.000        0.000        0.000      100.000        0.000        0.000        1.721        1.775        3.229
     980.000  -255813.732    25504.317    14848.895    43847.911       78.804  -386102.874    46009.215       26.199       25.757        2.536        3.091        2.688        2.628        2.514        3.062        2.717        2.592        3.267        2.607        3.110        2.569        3.110        2.937        2.719        2.608        0.488        1.000        0.000        0.000        0.000        1.000        4.000        0.000        0.000        0.000        0.000        0.000        0.000        0.000        1.000        0.000        0.000        0.000        0.000        0.000        0.000        0.000        0.000        0.000        0.000        1.000        0.000        4.000        0.000        0.000        8.000        0.000        0.000        0.000        0.000        0.000      100.000        0.000        0.000        2.030        2.043        3.543
     990.000  -255293.547    24820.697    14918.673    43690.577       76.030  -385531.979    46732.454       26.338       26.009        2.537        2.919        2.677        2.599        2.539        3.028        2.690        2.536        3.282        2.601        3.105        2.531        3.116        2.992        2.682        2.611        0.473        1.000        0.000        0.000        0.000        1.000        2.000        0.000        0.000        0.000        0.000        0.000        0.000        0.000        1.000        0.000        0.000        0.000        0.000        0.000        0.000        0.000        0.000        0.000        0.000        1.000        0.000        3.000        0.000        0.000        9.000        0.000        0.000        0.000        0.000        0.000      100.000        0.000        0.000        2.219        2.242        3.564
    1000.000  -254904.641    25288.475    15006.240    43579.674       74.837  -385493.370    46639.503       26.396       26.449        2.540        3.044        2.718        2.583        2.445        3.108        2.681        2.521        3.188        2.640        3.126        2.509        3.056        2.995        2.700        2.622        0.486        0.000        0.000        0.000        0.000        1.000        3.000        0.000        0.000        0.000        0.000        0.000        0.000        0.000        3.000        0.000        0.000        0.000        0.000        0.000        0.000        0.000        0.000        0.000        0.000        0.000        0.000        0.000        0.000        1.000       10.000        0.000        0.000        0.000        0.000        0.000      100.000        0.000        0.000        2.429        2.440        3.796
     Average  -257248.720    25742.968    15139.884    43547.053       82.097  -388957.705    47196.984       26.012       26.134        2.593        3.030        2.696        2.633        2.658        3.058        2.684        2.554        3.245        2.617        3.079        2.531        3.080        3.011        2.681        2.604        0.486        0.881        0.000        0.446        0.000        0.287        4.455        0.000        0.000        0.010        0.000        0.000        0.000        0.000        1.564        0.000        0.000        0.000        0.000        0.000        0.000        0.000        0.000        0.000        0.000        0.574        0.000        1.505        0.000        0.921        9.158        0.238        0.000        0.000        0.400        0.000       99.600        0.000        0.000        1.938        1.966        3.042

