____Time[ps] Energy[ kJ/mol ]_____Bond _______Angle ____Dihedral ___Planarity _____Coulomb _________VdW _Your result _Your result _Your result _Your result _Your result _Your result _Your result _Your result _Your result _Your result _Your result _Your result _Your result _Your result _Your result _Your result _Your result _Your result _Your result _Your result _Your result _Your result _Your result _Your result _Your result _Your result _Your result _Your result _Your result _Your result _Your result _Your result _Your result _Your result _Your result _Your result _Your result _Your result _Your result _Your result _Your result _Your result _Your result _Your result _Your result _Your result _Your result _Your result _Your result _Your result _Your result _Your result _Your result _Your result _Your result _Your result _Your result _RMSDs[A]:CA ____Backbone __HeavyAtoms
       0.000  -357839.141    10056.168     5464.361    43787.790       11.833  -485313.418    68154.125       25.519       25.397        2.921        3.020        3.193        3.212        3.213        2.978        3.265        2.985        3.254        3.169        3.028        3.246        2.514        2.536        2.424        2.624        0.490        1.000        2.000        0.000        0.000        1.000        6.000        0.000        0.000        1.000        0.000        0.000        0.000        0.000        2.000        0.000        0.000        0.000        0.000        0.000        0.000        0.000        0.000        0.000        0.000        1.000        2.000        0.000        1.000        2.000        3.000        0.000        0.000        0.000        0.000        0.000      100.000        0.000        0.000        0.441        0.472        0.553
      10.000  -267608.017    30241.356    15913.279    43846.143       97.574  -411076.660    53370.290       25.947       25.727        2.987        3.109        3.093        3.213        3.171        2.940        3.265        2.976        3.277        3.200        2.994        3.090        2.552        2.563        2.375        2.584        0.467        0.000        1.000        0.000        1.000        2.000        6.000        0.000        0.000        0.000        1.000        0.000        0.000        0.000        2.000        0.000        0.000        0.000        0.000        0.000        0.000        0.000        0.000        0.000        0.000        1.000        1.000        0.000        3.000        1.000        7.000        0.000        0.000        0.000        0.000        0.000      100.000        0.000        0.000        1.063        1.092        1.230
      20.000  -268634.488    30238.020    16255.488    43748.519       82.548  -410677.422    51718.360       26.253       25.908        2.980        2.972        3.087        3.174        3.168        2.969        3.238        3.009        3.236        3.211        3.046        3.152        2.522        2.553        2.383        2.638        0.502        1.000        0.000        0.000        1.000        1.000        6.000        0.000        0.000        1.000        0.000        0.000        0.000        0.000        1.000        0.000        0.000        0.000        0.000        0.000        0.000        0.000        0.000        0.000        0.000        0.000        3.000        0.000        1.000        0.000        6.000        0.000        0.000        0.000        0.000        0.000      100.000        0.000        0.000        1.297        1.307        1.498
      30.000  -267085.838    30347.962    16520.249    43572.804       80.137  -407549.874    49942.885       26.201       25.923        2.899        2.983        3.079        3.197        3.211        3.011        3.224        3.048        3.254        3.228        3.050        3.110        2.495        2.556        2.547        2.631        0.490        2.000        0.000        0.000        1.000        2.000        4.000        0.000        0.000        1.000        1.000        0.000        0.000        0.000        1.000        0.000        0.000        0.000        0.000        0.000        0.000        0.000        0.000        0.000        0.000        1.000        4.000        0.000        2.000        0.000        5.000        0.000        0.000        0.000        4.494        0.000       95.506        0.000        0.000        1.411        1.423        1.582
      40.000  -267524.363    29152.443    16477.718    43749.971       72.326  -407999.124    51022.303       26.418       26.024        2.899        3.059        3.095        3.170        3.213        3.005        3.275        3.045        3.233        3.211        3.028        3.058        2.465        2.576        2.584        2.587        0.495        1.000        0.000        0.000        1.000        0.000        6.000        0.000        0.000        0.000        1.000        0.000        0.000        0.000        1.000        0.000        0.000        0.000        0.000        0.000        0.000        0.000        0.000        0.000        0.000        1.000        2.000        0.000        1.000        0.000        6.000        0.000        0.000        0.000        4.494        0.000       95.506        0.000        0.000        1.501        1.528        1.628
      50.000  -267900.300    28597.895    16283.581    43536.550       69.408  -407705.198    51317.463       26.646       26.356        2.856        3.059        3.105        3.174        3.260        3.026        3.244        3.053        3.286        3.265        2.999        3.041        2.514        2.574        2.601        2.565        0.482        1.000        0.000        0.000        1.000        2.000        6.000        0.000        0.000        1.000        1.000        0.000        0.000        0.000        2.000        0.000        0.000        0.000        0.000        0.000        0.000        0.000        0.000        0.000        0.000        0.000        1.000        0.000        2.000        0.000        4.000        0.000        0.000        0.000        4.494        0.000       95.506        0.000        0.000        1.900        1.930        2.007
      60.000  -266312.795    29455.818    16453.926    43587.448       97.848  -406056.861    50149.025       26.465       26.299        2.900        3.136        3.067        3.226        3.218        2.992        3.253        3.026        3.252        3.190        3.005        3.104        2.498        2.578        2.555        2.594        0.488        2.000        0.000        0.000        0.000        2.000        7.000        0.000        0.000        1.000        0.000        0.000        0.000        0.000        1.000        0.000        0.000        0.000        0.000        0.000        0.000        0.000        0.000        0.000        0.000        0.000        2.000        0.000        1.000        0.000        3.000        0.000        0.000        0.000        0.000        0.000      100.000        0.000        0.000        1.776        1.802        1.974
      70.000  -266591.493    29819.887    16258.405    43628.457       82.888  -405317.694    48936.563       26.366       26.114        2.903        3.083        3.062        3.199        3.190        2.998        3.252        3.008        3.231        3.263        3.082        3.105        2.506        2.566        2.539        2.578        0.496        2.000        0.000        0.000        1.000        2.000        7.000        0.000        0.000        1.000        0.000        0.000        0.000        0.000        0.000        0.000        0.000        0.000        0.000        0.000        0.000        0.000        0.000        0.000        0.000        1.000        4.000        0.000        2.000        0.000        5.000        0.000        0.000        0.000        0.000        0.000      100.000        0.000        0.000        1.510        1.511        1.720
      80.000  -265725.899    28178.000    16633.047    43545.104       83.406  -405884.176    51718.721       26.426       26.259        2.925        3.071        3.066        3.207        3.187        2.977        3.255        2.986        3.253        3.240        2.990        3.125        2.440        2.598        2.532        2.620        0.506        1.000        1.000        0.000        0.000        1.000        6.000        0.000        0.000        1.000        0.000        0.000        0.000        0.000        2.000        0.000        0.000        0.000        0.000        0.000        0.000        0.000        0.000        0.000        0.000        1.000        3.000        0.000        3.000        0.000        4.000        0.000        0.000        0.000        0.000        0.000      100.000        0.000        0.000        1.542        1.531        1.796
      90.000  -265596.689    28914.384    16341.169    43652.058       89.157  -404566.145    49972.687       26.063       25.814        2.983        3.031        3.041        3.164        3.235        2.961        3.241        2.973        3.282        3.356        3.002        3.082        2.490        2.596        2.570        2.581        0.494        2.000        0.000        0.000        1.000        0.000        7.000        0.000        0.000        0.000        1.000        0.000        0.000        0.000        1.000        0.000        0.000        0.000        0.000        0.000        0.000        0.000        0.000        0.000        0.000        0.000        1.000        0.000        1.000        2.000        5.000        0.000        0.000        0.000        0.000        0.000      100.000        0.000        0.000        1.546        1.540        1.891
     100.000  -265794.205    27432.782    16283.720    43720.671       79.312  -404249.219    50938.529       26.266       25.965        2.961        2.969        3.084        3.231        3.190        2.967        3.182        3.004        3.285        3.242        3.006        3.059        2.470        2.564        2.577        2.586        0.483        2.000        0.000        0.000        1.000        1.000        6.000        0.000        0.000        1.000        1.000        0.000        0.000        0.000        2.000        0.000        0.000        0.000        0.000        0.000        0.000        0.000        0.000        0.000        0.000        0.000        0.000        0.000        2.000        0.000        4.000        0.000        0.000        0.000        0.000        0.000      100.000        0.000        0.000        1.809        1.816        2.121
     110.000  -265322.826    27645.512    16353.567    43561.110       89.756  -404260.054    51287.283       26.507       25.946        2.832        3.093        3.083        3.210        3.231        2.946        3.210        3.034        3.189        3.303        3.041        3.017        2.484        2.564        2.601        2.614        0.483        1.000        0.000        0.000        1.000        1.000        7.000        0.000        0.000        0.000        1.000        0.000        0.000        0.000        1.000        0.000        0.000        0.000        0.000        0.000        0.000        0.000        0.000        0.000        0.000        1.000        2.000        0.000        1.000        1.000        8.000        0.000        0.000        0.000        0.000        0.000      100.000        0.000        0.000        1.824        1.805        2.095
     120.000  -264834.198    27200.635    16007.036    43594.647       89.212  -402990.059    51264.332       26.481       26.254        2.898        3.041        3.122        3.169        3.175        3.004        3.223        3.069        3.158        3.244        3.076        2.989        2.479        2.520        2.535        2.556        0.502        1.000        0.000        0.000        1.000        0.000        6.000        0.000        0.000        0.000        1.000        0.000        0.000        0.000        0.000        0.000        0.000        0.000        0.000        0.000        0.000        0.000        0.000        0.000        0.000        1.000        1.000        0.000        1.000        1.000        2.000        0.000        0.000        0.000        0.000        0.000      100.000        0.000        0.000        2.057        2.019        2.332
     130.000  -264948.239    27738.569    16234.987    43760.888       86.360  -402391.909    49622.867       26.115       25.981        2.896        3.107        3.044        3.163        3.215        3.078        3.188        3.094        3.190        3.239        3.082        3.141        2.459        2.587        2.554        2.603        0.486        2.000        0.000        0.000        1.000        1.000        6.000        0.000        0.000        0.000        2.000        0.000        0.000        0.000        0.000        0.000        0.000        0.000        0.000        0.000        0.000        0.000        0.000        0.000        0.000        1.000        3.000        0.000        2.000        1.000        6.000        0.000        0.000        0.000        0.000        0.000      100.000        0.000        0.000        2.034        2.012        2.293
     140.000  -265038.119    28258.542    16292.275    43563.464       91.009  -400568.735    47325.325       26.310       25.925        2.802        3.083        3.085        3.228        3.214        3.087        3.182        3.024        3.254        3.267        3.083        3.103        2.480        2.535        2.538        2.550        0.492        1.000        1.000        0.000        1.000        0.000        6.000        0.000        0.000        0.000        0.000        0.000        0.000        0.000        0.000        0.000        0.000        0.000        0.000        0.000        0.000        0.000        0.000        0.000        0.000        2.000        3.000        0.000        1.000        2.000        8.000        0.000        0.000        0.000        0.000        0.000      100.000        0.000        0.000        2.033        2.019        2.284
     150.000  -264417.358    28540.639    16058.018    43470.562       87.587  -400534.449    47960.285       26.203       25.841        2.821        3.058        3.143        3.191        3.210        3.077        3.216        3.046        3.197        3.248        3.064        3.064        2.497        2.575        2.581        2.633        0.504        1.000        0.000        0.000        1.000        0.000        6.000        0.000        0.000        0.000        1.000        0.000        0.000        0.000        0.000        0.000        0.000        0.000        0.000        0.000        0.000        0.000        0.000        0.000        0.000        1.000        0.000        0.000        0.000        1.000        5.000        0.000        0.000        0.000        0.000        0.000      100.000        0.000        0.000        2.176        2.163        2.462
     160.000  -264167.852    27214.195    16340.702    43682.760      118.787  -401473.357    49949.060       26.408       25.977        2.827        3.051        3.083        3.216        3.194        3.057        3.184        2.978        3.184        3.222        3.032        3.058        2.498        2.541        2.538        2.623        0.491        2.000        0.000        0.000        1.000        0.000        7.000        0.000        0.000        1.000        2.000        0.000        0.000        0.000        0.000        0.000        0.000        0.000        0.000        0.000        0.000        0.000        0.000        0.000        0.000        3.000        0.000        0.000        0.000        1.000        7.000        0.000        0.000        0.000        0.000        0.000      100.000        0.000        0.000        2.356        2.352        2.578
     170.000  -263974.164    27059.383    16145.796    43640.957       83.632  -400882.875    49978.943       26.253       25.924        2.841        2.997        3.053        3.237        3.168        2.993        3.207        3.055        3.167        3.246        2.991        3.133        2.484        2.556        2.537        2.552        0.489        1.000        0.000        0.000        1.000        0.000        5.000        0.000        0.000        0.000        2.000        0.000        0.000        0.000        1.000        0.000        0.000        0.000        0.000        0.000        0.000        0.000        0.000        0.000        0.000        0.000        4.000        0.000        1.000        1.000        7.000        0.000        0.000        0.000        0.000        0.000      100.000        0.000        0.000        2.290        2.286        2.498
     180.000  -264826.591    26809.340    15842.726    43687.136       77.314  -400506.656    49263.550       26.218       25.856        2.802        3.011        3.035        3.196        3.220        3.060        3.247        3.020        3.200        3.231        3.027        3.104        2.489        2.563        2.559        2.600        0.471        2.000        0.000        0.000        1.000        0.000        6.000        0.000        0.000        0.000        2.000        0.000        0.000        0.000        0.000        0.000        0.000        0.000        0.000        0.000        0.000        0.000        0.000        0.000        0.000        0.000        0.000        0.000        1.000        0.000        7.000        0.000        0.000        0.000        0.000        0.000      100.000        0.000        0.000        2.380        2.370        2.566
     190.000  -264205.256    27379.273    15792.664    43395.410       88.029  -400163.019    49302.386       26.507       25.823        2.811        3.004        3.014        3.207        3.210        3.058        3.270        3.117        3.218        3.238        3.087        3.127        2.477        2.556        2.579        2.540        0.490        2.000        0.000        0.000        1.000        0.000        6.000        0.000        0.000        1.000        1.000        0.000        0.000        0.000        0.000        0.000        0.000        0.000        0.000        0.000        0.000        0.000        0.000        0.000        0.000        0.000        3.000        0.000        0.000        2.000        3.000        0.000        0.000        0.000        0.000        0.000      100.000        0.000        0.000        2.390        2.411        2.529
     200.000  -264425.239    28378.951    15722.004    43662.644       74.963  -399746.996    47483.195       26.400       26.066        2.893        2.968        3.102        3.187        3.205        3.066        3.187        3.077        3.218        3.260        3.035        3.080        2.543        2.590        2.554        2.650        0.491        1.000        0.000        0.000        1.000        0.000        7.000        0.000        0.000        0.000        3.000        0.000        0.000        0.000        3.000        0.000        0.000        0.000        0.000        0.000        0.000        0.000        0.000        0.000        0.000        1.000        1.000        0.000        2.000        1.000        4.000        0.000        0.000        0.000        0.000        0.000      100.000        0.000        0.000        2.029        2.026        2.245
     210.000  -263371.149    26560.643    16032.886    43533.170       81.330  -399192.776    49613.598       26.520       26.254        2.961        3.085        3.025        3.231        3.173        3.018        3.194        3.064        3.261        3.243        2.992        3.155        2.466        2.592        2.526        2.579        0.482        1.000        0.000        0.000        0.000        0.000        4.000        0.000        0.000        0.000        0.000        0.000        1.000        0.000        1.000        0.000        0.000        0.000        0.000        0.000        0.000        0.000        0.000        0.000        0.000        0.000        1.000        0.000        1.000        1.000        5.000        0.000        0.000        0.000        0.000        0.000      100.000        0.000        0.000        2.066        2.076        2.296
     220.000  -263973.631    27550.180    15845.183    43334.913       79.973  -398252.068    47468.188       26.489       26.055        2.909        3.029        3.105        3.231        3.245        3.030        3.168        3.092        3.217        3.268        3.042        3.064        2.510        2.580        2.586        2.558        0.476        1.000        0.000        0.000        1.000        0.000        5.000        0.000        0.000        0.000        0.000        0.000        0.000        0.000        0.000        0.000        0.000        0.000        0.000        0.000        0.000        0.000        0.000        0.000        0.000        0.000        1.000        0.000        1.000        3.000        8.000        0.000        0.000        0.000        4.494        0.000       95.506        0.000        0.000        2.033        2.030        2.248
     230.000  -263798.851    26231.708    15958.744    43626.739       89.926  -399707.130    50001.162       26.476       26.170        2.812        3.023        3.081        3.202        3.176        3.034        3.211        3.051        3.242        3.226        3.044        3.072        2.524        2.583        2.566        2.585        0.513        1.000        1.000        0.000        1.000        0.000        6.000        0.000        0.000        0.000        2.000        0.000        0.000        0.000        1.000        0.000        0.000        0.000        0.000        0.000        0.000        0.000        0.000        0.000        0.000        1.000        3.000        0.000        1.000        1.000        7.000        0.000        0.000        0.000        0.000        0.000      100.000        0.000        0.000        2.191        2.183        2.348
     240.000  -262347.333    27289.252    15840.559    43629.995      106.102  -397184.655    47971.413       26.366       26.110        2.816        2.982        3.048        3.213        3.198        3.000        3.206        3.052        3.263        3.265        3.060        3.100        2.476        2.576        2.525        2.582        0.474        2.000        1.000        0.000        1.000        0.000        5.000        0.000        0.000        1.000        2.000        0.000        0.000        0.000        0.000        0.000        0.000        0.000        0.000        0.000        0.000        0.000        0.000        0.000        0.000        2.000        2.000        0.000        1.000        1.000       10.000        0.000        0.000        0.000        0.000        0.000      100.000        0.000        0.000        2.133        2.161        2.268
     250.000  -263827.180    26971.387    15925.204    43464.215       68.944  -398447.161    48190.232       26.410       26.004        2.831        3.043        3.101        3.180        3.251        3.068        3.275        3.057        3.284        3.265        2.983        3.132        2.511        2.597        2.606        2.565        0.488        2.000        1.000        0.000        1.000        0.000        7.000        0.000        0.000        0.000        2.000        0.000        0.000        0.000        1.000        0.000        0.000        0.000        0.000        0.000        0.000        0.000        0.000        0.000        0.000        0.000        0.000        0.000        1.000        3.000        8.000        0.000        0.000        0.000        0.000        0.000      100.000        0.000        0.000        1.951        1.970        2.163
     260.000  -263768.242    27680.606    15302.231    43514.498       86.921  -397507.186    47154.687       26.637       26.288        2.899        3.106        3.101        3.154        3.210        3.057        3.215        3.035        3.257        3.263        3.059        3.017        2.504        2.575        2.574        2.628        0.491        1.000        1.000        0.000        1.000        0.000        6.000        0.000        0.000        0.000        0.000        0.000        0.000        0.000        0.000        0.000        0.000        0.000        0.000        0.000        0.000        0.000        0.000        0.000        0.000        0.000        2.000        0.000        1.000        1.000        3.000        0.000        0.000        0.000        0.000        0.000      100.000        0.000        0.000        2.099        2.111        2.300
     270.000  -263450.992    26608.488    15492.614    43602.055       82.267  -397718.540    48482.123       26.490       26.227        2.871        3.067        3.101        3.242        3.220        2.993        3.268        2.977        3.265        3.250        3.046        3.126        2.513        2.557        2.567        2.548        0.481        1.000        1.000        0.000        1.000        0.000        6.000        0.000        0.000        0.000        2.000        0.000        1.000        0.000        2.000        0.000        0.000        0.000        0.000        0.000        0.000        0.000        0.000        0.000        0.000        1.000        0.000        0.000        2.000        1.000        6.000        0.000        0.000        0.000        0.000        0.000      100.000        0.000        0.000        2.169        2.182        2.366
     280.000  -262760.803    25990.409    15736.107    43546.803       88.094  -397048.299    48926.083       26.393       26.131        2.806        3.018        3.057        3.143        3.220        3.081        3.254        3.031        3.190        3.290        3.024        3.099        2.498        2.567        2.581        2.589        0.477        1.000        1.000        0.000        1.000        0.000        7.000        0.000        0.000        0.000        0.000        0.000        0.000        0.000        4.000        0.000        0.000        0.000        0.000        0.000        0.000        0.000        0.000        0.000        0.000        1.000        1.000        0.000        1.000        2.000        4.000        0.000        0.000        0.000        0.000        0.000      100.000        0.000        0.000        1.861        1.880        2.146
     290.000  -263315.376    26638.811    15537.096    43584.948       95.445  -398446.260    49274.583       26.422       25.909        2.952        3.013        3.093        3.178        3.229        3.045        3.162        3.098        3.254        3.225        3.049        3.117        2.513        2.570        2.615        2.556        0.508        2.000        1.000        0.000        0.000        0.000        6.000        0.000        0.000        0.000        2.000        0.000        0.000        0.000        2.000        0.000        0.000        0.000        0.000        0.000        0.000        0.000        0.000        0.000        0.000        1.000        1.000        0.000        1.000        1.000        7.000        0.000        0.000        0.000        4.494        0.000       95.506        0.000        0.000        2.453        2.479        2.612
     300.000  -262344.648    26790.017    15530.733    43884.084       83.359  -396274.091    47641.249       26.161       25.806        2.856        2.965        3.072        3.209        3.231        2.989        3.211        3.019        3.232        3.190        2.975        3.147        2.490        2.581        2.505        2.589        0.482        1.000        1.000        0.000        1.000        0.000        6.000        0.000        0.000        0.000        0.000        0.000        0.000        0.000        3.000        0.000        0.000        0.000        0.000        0.000        0.000        0.000        0.000        0.000        0.000        1.000        3.000        0.000        0.000        1.000       10.000        0.000        0.000        0.000        0.000        0.000      100.000        0.000        0.000        2.127        2.145        2.279
     310.000  -263114.091    26086.127    15807.920    43472.045       78.804  -397499.718    48940.730       26.259       25.931        2.832        3.099        3.058        3.143        3.187        2.994        3.205        3.093        3.208        3.268        2.992        3.091        2.529        2.590        2.525        2.561        0.466        2.000        0.000        0.000        1.000        0.000        5.000        0.000        0.000        0.000        0.000        0.000        0.000        0.000        1.000        0.000        0.000        0.000        0.000        0.000        0.000        0.000        0.000        0.000        0.000        0.000        2.000        0.000        0.000        1.000        8.000        0.000        0.000        0.000        0.000        0.000      100.000        0.000        0.000        2.084        2.119        2.209
     320.000  -262128.140    26733.663    15785.407    43374.877       82.543  -394344.535    46239.905       26.288       25.922        2.941        2.996        3.140        3.177        3.170        3.017        3.212        3.049        3.212        3.185        3.035        3.086        2.509        2.579        2.519        2.619        0.485        1.000        0.000        0.000        1.000        0.000        4.000        0.000        0.000        0.000        0.000        0.000        0.000        0.000        4.000        0.000        0.000        0.000        0.000        0.000        0.000        0.000        0.000        0.000        0.000        1.000        2.000        0.000        0.000        1.000        7.000        0.000        0.000        0.000        4.494        0.000       95.506        0.000        0.000        1.785        1.803        2.016
     330.000  -262464.903    25786.868    15644.565    43581.817      101.395  -395930.827    48351.279       26.156       26.046        2.830        2.959        3.116        3.217        3.191        3.026        3.210        3.136        3.207        3.239        3.034        3.000        2.602        2.544        2.523        2.571        0.499        2.000        1.000        0.000        1.000        0.000        6.000        0.000        0.000        0.000        1.000        0.000        0.000        0.000        1.000        0.000        0.000        0.000        0.000        0.000        0.000        0.000        0.000        0.000        0.000        3.000        1.000        0.000        0.000        0.000        8.000        0.000        0.000        0.000        0.000        0.000      100.000        0.000        0.000        1.764        1.799        2.012
     340.000  -262757.094    25832.235    15652.678    43700.273       76.944  -398231.832    50212.609       26.167       25.867        2.794        2.855        3.147        3.202        3.206        2.994        3.243        3.087        3.207        3.219        3.044        3.111        2.492        2.549        2.532        2.535        0.495        1.000        1.000        0.000        1.000        0.000        4.000        0.000        0.000        0.000        0.000        0.000        0.000        0.000        2.000        0.000        0.000        0.000        0.000        0.000        0.000        0.000        0.000        0.000        0.000        2.000        2.000        0.000        2.000        1.000        4.000        0.000        0.000        0.000        4.494        0.000       95.506        0.000        0.000        1.758        1.802        2.008
     350.000  -261756.947    27113.260    15640.424    43740.217      102.104  -395395.093    47042.141       26.312       26.055        2.869        2.968        3.039        3.222        3.230        3.100        3.260        3.181        3.194        3.225        3.047        3.117        2.518        2.552        2.538        2.577        0.487        1.000        1.000        0.000        1.000        0.000        5.000        0.000        0.000        0.000        0.000        0.000        0.000        0.000        3.000        0.000        0.000        0.000        0.000        0.000        0.000        0.000        0.000        0.000        0.000        0.000        3.000        0.000        0.000        0.000        6.000        0.000        0.000        0.000        0.000        0.000      100.000        0.000        0.000        2.232        2.315        2.410
     360.000  -262283.386    25771.296    15748.768    43453.442       98.155  -396384.720    49029.673       26.210       26.044        2.844        2.878        3.063        3.157        3.234        3.040        3.236        3.053        3.194        3.242        3.002        3.120        2.458        2.550        2.550        2.614        0.481        2.000        1.000        0.000        1.000        0.000        6.000        0.000        0.000        0.000        1.000        0.000        0.000        0.000        2.000        0.000        0.000        0.000        0.000        0.000        0.000        0.000        0.000        0.000        0.000        0.000        8.000        0.000        0.000        0.000       12.000        0.000        0.000        0.000        0.000        0.000      100.000        0.000        0.000        1.835        1.886        2.097
     370.000  -262736.899    26635.598    15608.578    43631.394       99.604  -397708.369    48996.296       26.260       25.988        2.835        2.882        3.037        3.209        3.205        3.035        3.262        3.096        3.251        3.224        3.065        3.044        2.530        2.552        2.496        2.576        0.483        1.000        1.000        0.000        0.000        0.000        5.000        0.000        0.000        0.000        0.000        0.000        0.000        0.000        1.000        0.000        0.000        0.000        0.000        0.000        0.000        0.000        0.000        0.000        0.000        0.000        3.000        0.000        1.000        0.000        2.000        0.000        0.000        0.000        0.000        0.000      100.000        0.000        0.000        1.748        1.825        2.029
     380.000  -261865.061    26312.475    15659.385    43599.504       96.773  -395637.983    48104.785       26.261       26.126        2.772        2.970        3.042        3.221        3.189        3.059        3.192        3.119        3.214        3.272        3.079        3.136        2.558        2.566        2.568        2.566        0.469        1.000        1.000        0.000        1.000        0.000        5.000        0.000        0.000        0.000        1.000        0.000        0.000        0.000        0.000        0.000        0.000        0.000        0.000        0.000        0.000        0.000        0.000        0.000        0.000        1.000        4.000        0.000        1.000        0.000        5.000        0.000        0.000        0.000        0.000        0.000      100.000        0.000        0.000        1.593        1.653        1.906
     390.000  -262829.765    26769.770    15626.850    43648.055       88.295  -395842.863    46880.127       26.364       25.928        2.871        2.796        3.065        3.177        3.206        3.037        3.180        3.017        3.239        3.180        3.018        3.076        2.483        2.529        2.506        2.547        0.499        2.000        1.000        0.000        1.000        0.000        4.000        0.000        0.000        0.000        2.000        0.000        0.000        0.000        1.000        0.000        0.000        0.000        0.000        0.000        0.000        0.000        0.000        0.000        0.000        1.000        2.000        0.000        1.000        0.000        6.000        0.000        0.000        0.000        0.000        0.000      100.000        0.000        0.000        1.585        1.663        1.881
     400.000  -261353.459    26620.561    15661.813    43591.408       88.163  -394755.935    47440.530       26.488       26.191        2.763        2.850        3.055        3.166        3.212        2.957        3.212        3.056        3.252        3.240        3.013        3.094        2.481        2.567        2.535        2.558        0.496        1.000        0.000        0.000        1.000        0.000        5.000        0.000        0.000        0.000        2.000        0.000        0.000        0.000        3.000        0.000        0.000        0.000        0.000        0.000        0.000        0.000        0.000        0.000        0.000        0.000        4.000        0.000        1.000        1.000        6.000        0.000        0.000        0.000        4.494        0.000       95.506        0.000        0.000        1.590        1.667        1.924
     410.000  -262771.837    25726.069    15845.569    43586.465      106.540  -397247.428    49210.948       26.290       26.356        2.783        3.008        3.034        3.158        3.211        2.970        3.199        3.056        3.212        3.253        3.029        3.014        2.520        2.530        2.545        2.624        0.496        2.000        0.000        0.000        1.000        0.000        6.000        0.000        0.000        0.000        1.000        0.000        0.000        0.000        2.000        0.000        0.000        0.000        0.000        0.000        0.000        0.000        0.000        0.000        0.000        2.000        4.000        0.000        0.000        0.000        3.000        0.000        0.000        0.000        0.000        0.000      100.000        0.000        0.000        1.765        1.848        1.994
     420.000  -262441.361    27010.288    15683.032    43546.468       72.726  -396314.897    47561.022       26.034       26.385        2.786        2.976        3.129        3.172        3.175        2.958        3.236        3.027        3.210        3.191        3.050        3.112        2.535        2.535        2.567        2.616        0.510        1.000        1.000        0.000        1.000        0.000        6.000        0.000        0.000        1.000        0.000        0.000        0.000        0.000        1.000        0.000        0.000        0.000        0.000        0.000        0.000        0.000        0.000        0.000        0.000        0.000        2.000        0.000        3.000        0.000        6.000        0.000        0.000        0.000        4.494        0.000       95.506        0.000        0.000        1.757        1.822        1.989
     430.000  -262169.526    25754.676    15239.973    43685.784       86.093  -395193.998    48257.945       25.983       26.188        2.916        2.894        3.154        3.179        3.210        3.043        3.215        2.990        3.214        3.253        3.063        3.096        2.459        2.524        2.534        2.515        0.488        2.000        1.000        0.000        1.000        0.000        6.000        0.000        0.000        0.000        2.000        0.000        0.000        0.000        3.000        0.000        0.000        0.000        0.000        0.000        0.000        0.000        0.000        0.000        0.000        0.000        2.000        0.000        0.000        0.000        8.000        0.000        0.000        0.000        0.000        0.000      100.000        0.000        0.000        1.901        1.983        2.163
     440.000  -261660.753    26002.246    15661.374    43632.262       91.284  -394837.191    47789.272       26.049       26.216        2.814        3.025        3.076        3.209        3.173        3.042        3.214        3.078        3.200        3.257        3.062        3.088        2.560        2.546        2.511        2.626        0.476        2.000        0.000        0.000        0.000        0.000        6.000        0.000        0.000        0.000        2.000        0.000        0.000        0.000        1.000        0.000        0.000        0.000        0.000        0.000        0.000        0.000        0.000        0.000        0.000        0.000        2.000        0.000        0.000        0.000        6.000        0.000        0.000        0.000        0.000        0.000      100.000        0.000        0.000        1.755        1.801        2.070
     450.000  -262079.082    27211.510    15717.602    43662.197       86.684  -395975.185    47218.110       26.169       26.184        2.927        2.994        3.150        3.195        3.224        3.068        3.225        3.102        3.271        3.279        3.166        3.131        2.487        2.585        2.570        2.528        0.492        2.000        0.000        0.000        1.000        1.000        6.000        0.000        0.000        0.000        2.000        0.000        1.000        0.000        0.000        0.000        0.000        0.000        0.000        0.000        0.000        0.000        0.000        0.000        0.000        0.000        1.000        0.000        0.000        0.000        9.000        0.000        0.000        0.000        0.000        0.000      100.000        0.000        0.000        2.046        2.066        2.307
     460.000  -262251.721    27279.616    15473.570    43568.711       77.340  -394891.215    46240.256       26.061       26.140        2.740        2.964        3.117        3.204        3.193        3.018        3.282        3.099        3.219        3.217        3.079        3.095        2.503        2.566        2.564        2.578        0.484        2.000        0.000        0.000        1.000        0.000        6.000        0.000        0.000        0.000        1.000        0.000        0.000        0.000        2.000        0.000        0.000        0.000        0.000        0.000        0.000        0.000        0.000        0.000        0.000        1.000        3.000        0.000        0.000        0.000        7.000        0.000        0.000        0.000        0.000        0.000      100.000        0.000        0.000        2.060        2.080        2.347
     470.000  -261914.618    25939.897    15564.092    43366.723       83.501  -394548.426    47679.595       26.147       26.217        2.828        2.901        3.199        3.189        3.142        2.987        3.250        3.066        3.244        3.255        3.052        3.112        2.515        2.583        2.536        2.603        0.503        1.000        0.000        0.000        1.000        1.000        4.000        0.000        0.000        1.000        1.000        0.000        0.000        0.000        3.000        0.000        0.000        0.000        0.000        0.000        0.000        0.000        0.000        0.000        0.000        1.000        3.000        0.000        0.000        0.000        6.000        0.000        0.000        0.000        0.000        0.000      100.000        0.000        0.000        1.986        2.048        2.242
     480.000  -261999.977    26000.242    15668.457    43647.886       79.592  -396437.869    49041.715       26.370       25.986        2.830        2.908        3.109        3.195        3.156        2.956        3.192        3.003        3.193        3.201        3.080        3.092        2.484        2.601        2.581        2.590        0.492        2.000        0.000        0.000        1.000        0.000        7.000        0.000        0.000        0.000        1.000        0.000        0.000        0.000        1.000        0.000        0.000        0.000        0.000        0.000        0.000        0.000        0.000        0.000        0.000        0.000        3.000        0.000        1.000        1.000        3.000        0.000        0.000        0.000        0.000        0.000      100.000        0.000        0.000        2.147        2.241        2.491
     490.000  -261840.400    25849.432    15203.335    43938.256      101.059  -395845.040    48912.558       25.963       25.744        2.670        2.946        3.136        3.187        3.218        2.998        3.212        3.050        3.182        3.216        3.032        3.152        2.585        2.537        2.563        2.613        0.470        2.000        0.000        0.000        1.000        0.000        7.000        0.000        0.000        1.000        1.000        0.000        0.000        0.000        1.000        0.000        0.000        0.000        0.000        0.000        0.000        0.000        0.000        0.000        0.000        1.000        1.000        0.000        1.000        0.000        7.000        0.000        0.000        0.000        0.000        0.000      100.000        0.000        0.000        1.932        2.029        2.294
     500.000  -262152.470    26667.602    15938.846    43833.397      102.108  -396568.838    47874.415       26.131       25.735        2.770        2.977        3.153        3.204        3.223        2.980        3.240        3.138        3.194        3.239        3.090        3.140        2.554        2.614        2.509        2.566        0.495        2.000        0.000        0.000        1.000        0.000        7.000        0.000        0.000        0.000        2.000        0.000        0.000        0.000        1.000        0.000        0.000        0.000        0.000        0.000        0.000        0.000        0.000        0.000        0.000        0.000        4.000        0.000        2.000        0.000        5.000        0.000        0.000        0.000        0.000        0.000      100.000        0.000        0.000        1.939        2.012        2.283
     510.000  -262321.009    25952.578    15727.199    43624.176      126.165  -396877.930    49126.805       26.095       25.859        2.772        2.905        3.068        3.213        3.212        2.977        3.239        3.063        3.285        3.236        3.019        3.163        2.475        2.531        2.558        2.617        0.505        1.000        0.000        0.000        1.000        0.000        6.000        0.000        0.000        0.000        1.000        0.000        0.000        0.000        0.000        0.000        0.000        0.000        0.000        0.000        0.000        0.000        0.000        0.000        0.000        1.000        6.000        0.000        1.000        0.000        7.000        0.000        0.000        0.000        4.494        0.000       95.506        0.000        0.000        2.260        2.321        2.572
     520.000  -262003.808    26467.692    15468.925    43598.505       92.882  -394557.521    46925.708       26.296       25.993        2.871        2.892        3.125        3.211        3.186        3.058        3.230        3.082        3.183        3.219        3.090        3.144        2.527        2.541        2.516        2.562        0.482        1.000        0.000        0.000        1.000        1.000        4.000        0.000        0.000        1.000        1.000        0.000        0.000        0.000        0.000        0.000        0.000        0.000        0.000        0.000        0.000        0.000        0.000        0.000        0.000        2.000        5.000        0.000        1.000        0.000        6.000        0.000        0.000        0.000        0.000        0.000      100.000        0.000        0.000        2.103        2.153        2.374
     530.000  -261816.529    26325.351    15751.965    43749.366       79.200  -395309.712    47587.300       26.290       25.999        2.797        2.980        3.145        3.239        3.239        2.987        3.243        3.066        3.223        3.269        3.080        3.115        2.495        2.575        2.559        2.586        0.474        1.000        0.000        0.000        1.000        0.000        6.000        0.000        0.000        1.000        1.000        0.000        0.000        0.000        1.000        0.000        0.000        0.000        0.000        0.000        0.000        0.000        0.000        0.000        0.000        1.000        2.000        0.000        1.000        0.000        6.000        0.000        0.000        0.000        0.000        0.000      100.000        0.000        0.000        1.904        1.960        2.275
     540.000  -262057.364    25791.516    15856.096    43632.405      110.992  -396128.282    48679.910       26.448       26.352        2.829        2.967        3.118        3.195        3.194        2.895        3.239        3.049        3.181        3.239        3.063        3.130        2.529        2.556        2.524        2.557        0.511        2.000        0.000        0.000        1.000        0.000        5.000        0.000        0.000        1.000        1.000        0.000        0.000        0.000        1.000        0.000        0.000        0.000        0.000        0.000        0.000        0.000        0.000        0.000        0.000        0.000        2.000        0.000        0.000        1.000        3.000        0.000        0.000        0.000        4.494        0.000       95.506        0.000        0.000        1.923        1.957        2.323
     550.000  -262265.364    25977.956    15721.114    43833.345       86.682  -396217.936    48333.475       26.129       25.961        2.801        3.008        3.153        3.210        3.252        3.029        3.255        3.007        3.226        3.294        3.065        3.095        2.487        2.560        2.522        2.563        0.502        2.000        0.000        0.000        1.000        1.000        4.000        0.000        0.000        0.000        0.000        0.000        0.000        0.000        1.000        0.000        0.000        0.000        0.000        0.000        0.000        0.000        0.000        0.000        0.000        1.000        4.000        0.000        1.000        0.000        6.000        0.000        0.000        0.000        0.000        0.000      100.000        0.000        0.000        1.774        1.779        2.186
     560.000  -262078.660    25055.737    15455.415    43910.098      105.968  -395398.663    48792.785       26.052       25.853        2.815        2.991        3.127        3.205        3.157        3.018        3.257        3.087        3.194        3.258        3.051        3.076        2.512        2.549        2.537        2.551        0.482        2.000        1.000        0.000        1.000        1.000        5.000        0.000        0.000        1.000        2.000        0.000        0.000        0.000        0.000        0.000        0.000        0.000        0.000        0.000        0.000        0.000        0.000        0.000        0.000        1.000        3.000        0.000        1.000        0.000       12.000        0.000        0.000        0.000        0.000        0.000      100.000        0.000        0.000        1.733        1.767        2.171
     570.000  -262874.113    25511.849    15423.514    43804.694       99.931  -396027.037    48312.937       26.435       26.084        2.911        3.010        3.068        3.188        3.186        2.990        3.253        3.021        3.221        3.264        3.056        3.064        2.503        2.565        2.518        2.573        0.475        0.000        1.000        0.000        1.000        0.000        5.000        0.000        0.000        1.000        0.000        0.000        0.000        0.000        1.000        0.000        0.000        0.000        0.000        0.000        0.000        0.000        0.000        0.000        0.000        1.000        3.000        0.000        1.000        0.000        9.000        0.000        0.000        0.000        0.000        0.000      100.000        0.000        0.000        1.727        1.752        2.151
     580.000  -261723.936    25618.580    15654.367    43743.726       79.660  -396410.421    49590.153       26.377       26.044        2.884        2.927        3.119        3.218        3.229        2.970        3.202        3.047        3.269        3.283        3.005        3.111        2.513        2.561        2.531        2.579        0.505        1.000        2.000        0.000        1.000        0.000        7.000        0.000        0.000        1.000        3.000        0.000        0.000        1.000        3.000        0.000        0.000        0.000        0.000        0.000        0.000        0.000        0.000        0.000        0.000        1.000        2.000        0.000        2.000        0.000        7.000        0.000        0.000        0.000        0.000        0.000      100.000        0.000        0.000        1.776        1.782        2.092
     590.000  -262386.865    25420.221    15540.633    43629.195       81.742  -396875.093    49816.438       26.322       26.209        2.834        3.037        3.074        3.226        3.150        2.943        3.218        2.992        3.268        3.298        3.060        3.082        2.503        2.594        2.534        2.553        0.474        1.000        1.000        0.000        1.000        0.000        7.000        0.000        0.000        1.000        1.000        0.000        0.000        0.000        2.000        0.000        0.000        0.000        0.000        0.000        0.000        0.000        0.000        0.000        0.000        0.000        1.000        0.000        1.000        0.000        8.000        0.000        0.000        0.000        0.000        0.000      100.000        0.000        0.000        1.757        1.782        2.122
     600.000  -261339.813    26240.857    15599.127    43661.230      107.716  -394762.112    47813.370       26.377       26.164        2.851        2.993        3.103        3.187        3.189        3.035        3.254        3.055        3.299        3.235        3.055        3.075        2.563        2.524        2.595        2.562        0.460        1.000        1.000        0.000        1.000        1.000        6.000        0.000        0.000        1.000        0.000        0.000        0.000        0.000        2.000        0.000        0.000        0.000        0.000        0.000        0.000        0.000        0.000        0.000        0.000        1.000        1.000        0.000        1.000        1.000        9.000        0.000        0.000        0.000        4.494        0.000       95.506        0.000        0.000        1.976        2.015        2.268
     610.000  -262097.396    25776.064    15523.447    43485.788       85.334  -395637.113    48669.084       26.267       26.044        2.855        2.988        3.043        3.210        3.264        3.054        3.223        2.940        3.265        3.263        3.044        3.041        2.493        2.532        2.648        2.573        0.481        2.000        1.000        0.000        0.000        1.000        7.000        0.000        0.000        1.000        1.000        0.000        0.000        0.000        1.000        0.000        0.000        0.000        0.000        0.000        0.000        0.000        0.000        0.000        0.000        1.000        1.000        0.000        1.000        0.000        5.000        0.000        0.000        0.000        0.000        0.000      100.000        0.000        0.000        1.953        2.003        2.269
     620.000  -261862.930    26737.676    15528.995    43802.180       89.958  -393958.553    45936.814       25.856       25.726        2.916        2.846        3.067        3.206        3.242        2.904        3.207        3.077        3.215        3.268        3.028        2.998        2.508        2.594        2.657        2.537        0.488        0.000        2.000        0.000        1.000        1.000        6.000        0.000        0.000        0.000        1.000        0.000        0.000        0.000        1.000        0.000        0.000        0.000        0.000        0.000        0.000        0.000        0.000        0.000        0.000        1.000        1.000        0.000        2.000        0.000        8.000        0.000        0.000        0.000        0.000        0.000      100.000        0.000        0.000        2.428        2.463        2.819
     630.000  -262154.671    25493.648    15480.312    43761.522       77.820  -396177.140    49209.167       25.974       25.704        2.862        2.923        3.133        3.204        3.223        3.003        3.218        3.007        3.245        3.290        3.056        3.081        2.507        2.475        2.637        2.567        0.488        0.000        1.000        0.000        1.000        0.000        7.000        0.000        0.000        1.000        1.000        0.000        1.000        0.000        3.000        0.000        0.000        0.000        0.000        0.000        0.000        0.000        0.000        0.000        0.000        2.000        1.000        0.000        0.000        0.000        7.000        0.000        0.000        0.000        0.000        0.000      100.000        0.000        0.000        2.657        2.691        3.021
     640.000  -260958.732    25416.795    15788.431    43864.895      105.066  -394397.884    48263.964       26.004       25.405        2.921        2.980        3.121        3.181        3.189        3.020        3.243        3.037        3.237        3.253        3.109        3.067        2.507        2.531        2.665        2.545        0.510        1.000        1.000        0.000        1.000        1.000        7.000        0.000        0.000        1.000        1.000        0.000        1.000        0.000        3.000        0.000        0.000        0.000        0.000        0.000        0.000        0.000        0.000        0.000        0.000        0.000        3.000        0.000        3.000        0.000        5.000        0.000        0.000        0.000        0.000        0.000      100.000        0.000        0.000        3.082        3.145        3.229
     650.000  -262110.703    24358.575    16049.667    43787.327       78.082  -395619.767    49235.413       26.055       25.571        2.927        2.923        3.088        3.269        3.188        2.964        3.234        3.018        3.335        3.284        3.117        3.010        2.493        2.501        2.554        2.533        0.495        1.000        2.000        0.000        1.000        1.000        6.000        0.000        0.000        1.000        3.000        0.000        0.000        0.000        1.000        0.000        0.000        0.000        0.000        0.000        0.000        0.000        0.000        0.000        0.000        0.000        1.000        0.000        1.000        1.000        9.000        0.000        0.000        0.000        0.000        0.000      100.000        0.000        0.000        2.702        2.750        2.974
     660.000  -261498.669    26373.223    15526.761    43668.722       72.583  -394715.445    47575.486       25.818       25.595        2.976        3.014        3.068        3.186        3.257        2.945        3.218        3.003        3.286        3.329        3.163        3.155        2.425        2.534        2.601        2.568        0.471        0.000        0.000        0.000        1.000        0.000        6.000        0.000        0.000        1.000        0.000        0.000        1.000        0.000        1.000        0.000        0.000        0.000        0.000        0.000        0.000        0.000        0.000        0.000        0.000        0.000        4.000        0.000        2.000        0.000        9.000        0.000        0.000        0.000        0.000        0.000      100.000        0.000        0.000        2.828        2.860        3.140
     670.000  -262535.735    25818.384    15577.481    43796.621       91.771  -396229.771    48409.778       25.860       25.534        2.921        3.015        3.107        3.235        3.217        3.038        3.190        3.087        3.262        3.198        3.104        3.043        2.511        2.522        2.550        2.554        0.503        0.000        0.000        0.000        1.000        1.000        6.000        0.000        0.000        1.000        1.000        0.000        0.000        0.000        0.000        0.000        0.000        0.000        0.000        0.000        0.000        0.000        0.000        0.000        0.000        1.000        2.000        0.000        1.000        0.000        6.000        0.000        0.000        0.000        0.000        0.000      100.000        0.000        0.000        3.249        3.282        3.466
     680.000  -260742.883    25056.573    15547.846    43812.596       88.086  -394533.678    49285.693       25.735       25.550        2.821        2.923        3.126        3.171        3.211        3.054        3.270        2.981        3.268        3.301        3.183        3.084        2.489        2.591        2.575        2.587        0.489        1.000        1.000        0.000        1.000        1.000        6.000        0.000        0.000        1.000        2.000        0.000        0.000        0.000        0.000        0.000        0.000        0.000        0.000        0.000        0.000        0.000        0.000        0.000        0.000        2.000        3.000        0.000        0.000        0.000        7.000        0.000        0.000        0.000        0.000        0.000      100.000        0.000        0.000        3.204        3.240        3.478
     690.000  -261852.486    26172.412    15583.183    43669.550       91.033  -395881.341    48512.677       25.725       25.490        2.881        3.053        3.096        3.264        3.205        2.984        3.250        3.058        3.281        3.228        3.191        3.089        2.482        2.556        2.602        2.578        0.474        0.000        1.000        0.000        1.000        1.000        4.000        0.000        0.000        1.000        0.000        0.000        0.000        0.000        1.000        0.000        0.000        0.000        0.000        0.000        0.000        0.000        0.000        0.000        0.000        1.000        2.000        0.000        1.000        1.000        7.000        0.000        0.000        0.000        0.000        0.000      100.000        0.000        0.000        3.060        3.085        3.224
     700.000  -261203.432    27096.045    15541.594    43722.662      100.376  -393747.717    46083.609       26.084       25.806        2.931        3.009        3.152        3.212        3.190        3.001        3.231        3.117        3.219        3.253        3.102        3.081        2.489        2.583        2.621        2.546        0.482        0.000        1.000        0.000        1.000        1.000        4.000        0.000        0.000        1.000        0.000        0.000        0.000        0.000        0.000        0.000        0.000        0.000        0.000        0.000        0.000        0.000        0.000        0.000        0.000        2.000        3.000        0.000        1.000        1.000       10.000        0.000        0.000        0.000        0.000        0.000      100.000        0.000        0.000        3.147        3.173        3.308
     710.000  -263128.502    26907.340    15475.306    43734.111       77.142  -396895.575    47573.174       26.028       25.654        2.748        3.051        3.122        3.198        3.180        3.047        3.188        3.009        3.284        3.221        3.088        3.122        2.465        2.593        2.654        2.514        0.507        0.000        1.000        0.000        1.000        1.000        4.000        0.000        0.000        1.000        0.000        0.000        0.000        0.000        1.000        0.000        0.000        0.000        0.000        0.000        0.000        0.000        0.000        0.000        0.000        3.000        2.000        0.000        0.000        2.000        7.000        0.000        0.000        0.000        0.000        0.000      100.000        0.000        0.000        2.911        2.948        3.203
     720.000  -262155.976    25937.753    15156.691    43646.146      112.207  -396558.514    49549.742       26.075       25.765        2.720        2.983        3.107        3.237        3.194        2.896        3.215        3.004        3.262        3.240        3.027        3.111        2.437        2.442        2.643        2.591        0.473        1.000        1.000        0.000        1.000        1.000        4.000        0.000        0.000        1.000        1.000        0.000        0.000        1.000        1.000        0.000        0.000        0.000        0.000        0.000        0.000        0.000        0.000        0.000        0.000        1.000        3.000        0.000        2.000        1.000        8.000        0.000        0.000        0.000        0.000        0.000      100.000        0.000        0.000        2.733        2.779        3.055
     730.000  -262354.353    26679.181    15257.353    43754.129      108.523  -395274.390    47120.850       25.871       25.748        2.864        2.930        3.138        3.231        3.194        2.977        3.201        3.032        3.231        3.284        3.102        3.144        2.511        2.611        2.641        2.530        0.492        1.000        0.000        0.000        1.000        1.000        5.000        0.000        0.000        1.000        0.000        0.000        0.000        0.000        0.000        0.000        0.000        0.000        0.000        0.000        0.000        0.000        0.000        0.000        0.000        1.000        2.000        0.000        0.000        1.000        5.000        0.000        0.000        0.000        0.000        0.000      100.000        0.000        0.000        3.265        3.334        3.433
     740.000  -261629.509    25519.600    15806.694    43796.762       97.294  -395984.973    49135.114       25.776       25.520        2.846        2.995        3.100        3.204        3.181        3.058        3.248        3.017        3.255        3.236        3.127        3.121        2.522        2.598        2.656        2.557        0.498        0.000        1.000        0.000        1.000        2.000        5.000        0.000        0.000        1.000        1.000        0.000        0.000        1.000        1.000        0.000        0.000        0.000        0.000        0.000        0.000        0.000        0.000        0.000        0.000        0.000        2.000        0.000        0.000        0.000        7.000        0.000        0.000        0.000        0.000        0.000      100.000        0.000        0.000        3.141        3.173        3.359
     750.000  -261956.968    26560.234    15318.644    43684.129       92.773  -395042.895    47430.146       25.826       25.985        3.016        3.023        3.117        3.191        3.222        2.989        3.203        3.058        3.276        3.246        3.207        3.049        2.502        2.611        2.637        2.568        0.475        0.000        1.000        0.000        1.000        2.000        3.000        0.000        0.000        0.000        1.000        0.000        0.000        0.000        0.000        0.000        0.000        0.000        0.000        0.000        0.000        0.000        0.000        0.000        0.000        0.000        1.000        0.000        0.000        1.000        5.000        0.000        0.000        0.000        0.000        0.000      100.000        0.000        0.000        3.178        3.195        3.406
     760.000  -263068.296    26233.427    15372.614    43639.268       83.462  -396171.629    47774.563       25.842       25.908        2.823        3.070        3.105        3.200        3.232        3.027        3.221        3.007        3.272        3.265        3.106        3.056        2.446        2.587        2.623        2.534        0.491        0.000        1.000        0.000        1.000        2.000        3.000        0.000        0.000        1.000        1.000        0.000        0.000        0.000        1.000        0.000        0.000        0.000        0.000        0.000        0.000        0.000        0.000        0.000        0.000        1.000        4.000        0.000        1.000        1.000        7.000        0.000        0.000        0.000        0.000        0.000      100.000        0.000        0.000        2.989        3.015        3.253
     770.000  -261956.338    25898.146    15112.334    43552.693      102.600  -393520.645    46898.534       26.143       26.172        2.887        2.953        3.158        3.222        3.237        3.035        3.275        3.067        3.270        3.232        3.159        3.079        2.495        2.562        2.649        2.515        0.477        0.000        1.000        0.000        1.000        2.000        4.000        0.000        0.000        0.000        2.000        0.000        1.000        1.000        1.000        0.000        0.000        0.000        0.000        0.000        0.000        0.000        0.000        0.000        0.000        1.000        1.000        0.000        1.000        1.000        6.000        0.000        0.000        0.000        0.000        0.000      100.000        0.000        0.000        2.704        2.720        3.028
     780.000  -262414.915    24884.100    15434.867    43937.202      101.203  -396947.081    50174.794       25.992       25.918        2.880        2.940        3.077        3.215        3.212        2.980        3.176        2.998        3.220        3.237        3.085        3.056        2.445        2.591        2.612        2.539        0.492        0.000        2.000        0.000        1.000        2.000        4.000        0.000        0.000        1.000        2.000        0.000        1.000        0.000        1.000        0.000        0.000        0.000        0.000        0.000        0.000        0.000        0.000        0.000        0.000        1.000        4.000        0.000        1.000        1.000       11.000        0.000        0.000        0.000        0.000        0.000      100.000        0.000        0.000        2.588        2.599        2.937
     790.000  -262143.458    27084.665    15511.039    43533.787       76.967  -395082.248    46732.332       25.722       25.810        2.865        3.045        3.153        3.261        3.219        3.090        3.246        3.027        3.252        3.196        3.134        3.087        2.473        2.493        2.615        2.543        0.498        0.000        0.000        0.000        1.000        2.000        5.000        0.000        0.000        1.000        1.000        0.000        1.000        0.000        0.000        0.000        0.000        0.000        0.000        0.000        0.000        0.000        0.000        0.000        0.000        2.000        3.000        0.000        1.000        1.000        9.000        0.000        0.000        0.000        0.000        0.000      100.000        0.000        0.000        3.093        3.124        3.397
     800.000  -261674.382    26512.810    15627.520    43379.979       88.159  -394572.865    47290.015       26.023       25.672        2.987        3.027        3.166        3.204        3.240        3.010        3.206        3.037        3.231        3.245        3.095        3.090        2.427        2.519        2.591        2.514        0.502        0.000        1.000        0.000        1.000        2.000        5.000        0.000        0.000        1.000        1.000        0.000        0.000        0.000        1.000        0.000        0.000        0.000        0.000        0.000        0.000        0.000        0.000        0.000        0.000        1.000        3.000        0.000        3.000        1.000        9.000        0.000        0.000        0.000        0.000        0.000      100.000        0.000        0.000        3.435        3.482        3.603
     810.000  -262018.257    25999.224    15588.388    43912.901       91.236  -395798.205    48188.199       25.872       25.696        2.935        2.944        3.081        3.192        3.200        3.012        3.216        3.021        3.225        3.212        3.171        3.087        2.476        2.545        2.638        2.554        0.478        0.000        2.000        0.000        1.000        2.000        5.000        0.000        0.000        1.000        0.000        0.000        0.000        0.000        1.000        0.000        0.000        0.000        0.000        0.000        0.000        0.000        0.000        0.000        0.000        2.000        4.000        0.000        1.000        0.000        9.000        0.000        0.000        0.000        0.000        0.000      100.000        0.000        0.000        3.241        3.321        3.415
     820.000  -262839.011    26779.749    15286.918    43587.444       95.206  -395988.732    47400.404       25.813       25.545        2.921        2.948        3.050        3.186        3.239        2.994        3.223        2.998        3.227        3.230        3.107        3.088        2.496        2.569        2.624        2.504        0.479        0.000        1.000        0.000        1.000        2.000        6.000        0.000        0.000        0.000        1.000        0.000        0.000        0.000        1.000        0.000        0.000        0.000        0.000        0.000        0.000        0.000        0.000        0.000        0.000        2.000        1.000        0.000        1.000        0.000        5.000        0.000        0.000        0.000        0.000        0.000      100.000        0.000        0.000        3.379        3.448        3.478
     830.000  -262301.721    25064.759    15579.224    43835.974       81.125  -394837.250    47974.447       25.856       25.476        2.949        2.986        3.082        3.156        3.156        3.001        3.166        2.993        3.131        3.198        3.083        3.080        2.430        2.563        2.574        2.520        0.511        0.000        0.000        0.000        1.000        2.000        4.000        0.000        0.000        0.000        1.000        0.000        0.000        0.000        1.000        0.000        0.000        0.000        0.000        0.000        0.000        0.000        0.000        0.000        0.000        2.000        3.000        0.000        1.000        1.000        5.000        0.000        0.000        0.000        0.000        0.000      100.000        0.000        0.000        3.678        3.745        3.685
     840.000  -262239.160    25602.672    15325.980    43689.487       97.810  -396036.048    49080.938       25.658       25.319        2.872        2.995        3.110        3.221        3.223        2.958        3.204        3.002        3.211        3.218        3.122        3.057        2.500        2.630        2.518        2.516        0.495        0.000        1.000        0.000        1.000        1.000        4.000        0.000        0.000        0.000        1.000        0.000        0.000        0.000        1.000        0.000        0.000        0.000        0.000        0.000        0.000        0.000        0.000        0.000        0.000        1.000        2.000        0.000        2.000        0.000        7.000        0.000        0.000        0.000        0.000        0.000      100.000        0.000        0.000        3.335        3.394        3.453
     850.000  -261595.932    26835.640    15844.831    43551.802       87.658  -395605.894    47690.031       25.635       25.219        2.940        2.918        3.065        3.220        3.249        3.051        3.240        3.062        3.299        3.265        3.177        3.016        2.476        2.520        2.670        2.567        0.477        0.000        2.000        0.000        1.000        1.000        4.000        0.000        0.000        0.000        1.000        0.000        0.000        0.000        0.000        0.000        0.000        0.000        0.000        0.000        0.000        0.000        0.000        0.000        0.000        2.000        3.000        0.000        1.000        1.000       10.000        0.000        0.000        0.000        4.494        0.000       95.506        0.000        0.000        3.307        3.352        3.474
     860.000  -262620.449    25746.020    15625.953    43582.866       87.448  -394832.586    47169.850       25.654       25.367        2.875        2.881        3.027        3.175        3.190        3.079        3.226        3.051        3.224        3.215        3.077        3.071        2.497        2.530        2.624        2.530        0.476        0.000        0.000        0.000        1.000        1.000        3.000        0.000        0.000        1.000        1.000        0.000        0.000        0.000        2.000        0.000        0.000        0.000        0.000        0.000        0.000        0.000        0.000        0.000        0.000        0.000        4.000        0.000        2.000        1.000        6.000        0.000        0.000        0.000        0.000        0.000      100.000        0.000        0.000        3.127        3.151        3.393
     870.000  -261660.308    25260.303    15500.778    43789.900       79.739  -394592.704    48301.675       25.574       25.620        2.926        2.940        3.041        3.216        3.251        3.033        3.215        3.092        3.190        3.177        3.109        2.990        2.470        2.558        2.606        2.512        0.498        0.000        1.000        0.000        1.000        2.000        4.000        0.000        0.000        1.000        0.000        0.000        0.000        0.000        1.000        0.000        0.000        0.000        0.000        0.000        0.000        0.000        0.000        0.000        0.000        0.000        1.000        0.000        1.000        1.000        5.000        0.000        0.000        0.000        0.000        0.000      100.000        0.000        0.000        3.055        3.085        3.354
     880.000  -261666.944    25641.599    15750.556    43760.112       79.210  -394164.524    47266.103       25.746       25.670        2.844        3.024        3.094        3.168        3.195        3.041        3.229        3.107        3.252        3.230        3.109        3.082        2.513        2.564        2.588        2.538        0.476        0.000        0.000        0.000        1.000        2.000        5.000        0.000        0.000        1.000        2.000        0.000        0.000        0.000        0.000        0.000        0.000        0.000        0.000        0.000        0.000        0.000        0.000        0.000        0.000        2.000        2.000        0.000        2.000        1.000        8.000        0.000        0.000        0.000        0.000        0.000      100.000        0.000        0.000        2.866        2.904        3.197
     890.000  -262423.571    26478.457    15569.417    43933.344       96.562  -395848.783    47347.432       25.650       25.659        2.941        3.025        3.088        3.262        3.239        3.036        3.234        3.081        3.230        3.241        3.147        3.063        2.463        2.555        2.621        2.541        0.485        0.000        0.000        0.000        1.000        2.000        6.000        0.000        0.000        1.000        0.000        0.000        1.000        0.000        0.000        0.000        0.000        0.000        0.000        0.000        0.000        0.000        0.000        0.000        0.000        0.000        1.000        0.000        1.000        0.000        5.000        0.000        0.000        0.000        0.000        0.000      100.000        0.000        0.000        2.616        2.640        3.066
     900.000  -261938.139    24475.417    15554.675    43784.896      113.660  -395975.655    50108.867       25.917       25.930        2.970        2.915        3.004        3.205        3.263        3.034        3.168        3.027        3.243        3.224        3.154        3.104        2.519        2.580        2.616        2.515        0.472        0.000        0.000        0.000        1.000        2.000        4.000        0.000        0.000        1.000        0.000        0.000        0.000        0.000        0.000        0.000        0.000        0.000        0.000        0.000        0.000        0.000        0.000        0.000        0.000        1.000        3.000        0.000        3.000        0.000        8.000        0.000        0.000        0.000        0.000        0.000      100.000        0.000        0.000        3.111        3.172        3.370
     910.000  -262511.581    25129.391    15588.136    43944.669       76.785  -395667.710    48417.148       25.605       25.304        2.991        2.944        3.051        3.207        3.204        3.002        3.211        2.956        3.258        3.199        3.096        3.016        2.504        2.524        2.625        2.544        0.483        0.000        0.000        0.000        1.000        2.000        4.000        0.000        0.000        0.000        1.000        0.000        1.000        0.000        1.000        0.000        0.000        0.000        0.000        0.000        0.000        0.000        0.000        0.000        0.000        0.000        1.000        0.000        1.000        0.000        9.000        0.000        0.000        0.000        0.000        0.000      100.000        0.000        0.000        2.893        2.964        3.234
     920.000  -261839.098    25259.322    15116.774    43985.244      107.849  -394302.162    47993.874       25.907       25.652        2.945        2.901        3.047        3.202        3.257        2.993        3.233        2.997        3.222        3.182        3.142        3.089        2.470        2.492        2.536        2.431        0.485        0.000        0.000        0.000        1.000        2.000        4.000        0.000        0.000        0.000        0.000        0.000        0.000        0.000        0.000        0.000        0.000        0.000        0.000        0.000        0.000        0.000        0.000        0.000        0.000        1.000        2.000        0.000        2.000        0.000        8.000        0.000        0.000        0.000        0.000        0.000      100.000        0.000        0.000        2.808        2.869        3.155
     930.000  -261587.924    25995.666    15639.804    43742.246       95.740  -394084.199    47022.821       25.839       25.765        2.913        2.916        3.081        3.158        3.198        3.003        3.210        3.084        3.222        3.180        3.133        3.106        2.470        2.502        2.577        2.517        0.482        0.000        0.000        0.000        1.000        2.000        3.000        0.000        0.000        0.000        0.000        0.000        0.000        1.000        1.000        0.000        0.000        0.000        0.000        0.000        0.000        0.000        0.000        0.000        0.000        1.000        2.000        0.000        3.000        0.000        7.000        0.000        0.000        0.000        0.000        0.000      100.000        0.000        0.000        2.649        2.714        2.959
     940.000  -262162.749    26501.007    15418.693    43823.337       82.956  -395309.393    47320.650       25.811       25.572        2.912        2.971        3.030        3.170        3.254        2.980        3.234        3.024        3.241        3.163        3.095        3.105        2.509        2.496        2.541        2.518        0.472        0.000        0.000        0.000        1.000        1.000        4.000        0.000        0.000        1.000        1.000        0.000        0.000        0.000        0.000        0.000        0.000        0.000        0.000        0.000        0.000        0.000        0.000        0.000        0.000        0.000        2.000        0.000        2.000        0.000        8.000        0.000        0.000        0.000        0.000        0.000      100.000        0.000        0.000        2.580        2.608        2.986
     950.000  -261924.773    25627.740    15676.419    43932.305       80.225  -394392.071    47150.609       25.507       25.230        2.939        2.867        3.069        3.191        3.194        3.048        3.213        3.002        3.183        3.208        3.119        3.067        2.483        2.482        2.538        2.546        0.464        1.000        0.000        0.000        1.000        1.000        3.000        0.000        0.000        0.000        0.000        0.000        0.000        0.000        0.000        0.000        0.000        0.000        0.000        0.000        0.000        0.000        0.000        0.000        0.000        1.000        5.000        0.000        0.000        0.000       10.000        0.000        0.000        0.000        0.000        0.000      100.000        0.000        0.000        2.862        2.907        3.170
     960.000  -262364.313    24885.934    15847.839    43734.430      115.780  -395603.301    48655.005       25.659       25.426        2.954        3.056        3.098        3.188        3.197        3.015        3.223        3.026        3.249        3.122        3.122        2.992        2.486        2.550        2.609        2.580        0.471        0.000        0.000        0.000        1.000        1.000        2.000        0.000        0.000        1.000        3.000        0.000        0.000        0.000        3.000        0.000        0.000        0.000        0.000        0.000        0.000        0.000        0.000        0.000        0.000        2.000        1.000        0.000        1.000        1.000       10.000        0.000        0.000        0.000        0.000        0.000      100.000        0.000        0.000        3.026        3.071        3.416
     970.000  -262242.185    26352.055    15494.364    43692.267      108.414  -396421.843    48532.559       25.633       25.321        2.917        2.924        3.107        3.250        3.159        3.064        3.213        3.041        3.228        3.232        3.135        3.086        2.463        2.518        2.663        2.560        0.480        1.000        0.000        0.000        1.000        1.000        4.000        0.000        0.000        1.000        0.000        0.000        0.000        0.000        0.000        0.000        0.000        0.000        0.000        0.000        0.000        0.000        0.000        0.000        0.000        1.000        1.000        0.000        1.000        1.000        5.000        0.000        0.000        0.000        0.000        0.000      100.000        0.000        0.000        3.310        3.370        3.610
     980.000  -261543.997    26263.976    15252.235    43763.219       80.517  -394561.253    47657.308       25.513       25.189        2.875        2.966        3.078        3.247        3.236        2.993        3.258        3.038        3.197        3.142        3.024        3.149        2.435        2.502        2.646        2.540        0.505        1.000        0.000        0.000        1.000        1.000        3.000        0.000        0.000        1.000        0.000        0.000        0.000        0.000        1.000        0.000        0.000        0.000        0.000        0.000        0.000        0.000        0.000        0.000        0.000        1.000        2.000        0.000        1.000        0.000        6.000        0.000        0.000        0.000        0.000        0.000      100.000        0.000        0.000        3.217        3.280        3.521
     990.000  -261555.145    25917.846    15421.336    43722.791       95.070  -394090.885    47378.697       25.534       25.305        2.934        3.003        3.059        3.194        3.211        3.020        3.202        3.080        3.281        3.174        3.152        3.065        2.469        2.481        2.655        2.499        0.482        0.000        0.000        0.000        1.000        1.000        4.000        0.000        0.000        1.000        0.000        0.000        0.000        0.000        1.000        0.000        0.000        0.000        0.000        0.000        0.000        0.000        0.000        0.000        0.000        1.000        3.000        0.000        1.000        1.000        6.000        0.000        0.000        0.000        0.000        0.000      100.000        0.000        0.000        3.420        3.480        3.532
    1000.000  -262016.287    25552.455    15494.326    43806.494       81.547  -396275.907    49324.799       25.315       25.304        2.954        2.998        3.019        3.266        3.181        3.000        3.238        3.055        3.249        3.152        3.113        3.079        2.459        2.487        2.650        2.573        0.481        0.000        0.000        0.000        1.000        1.000        3.000        0.000        0.000        1.000        0.000        0.000        0.000        0.000        0.000        0.000        0.000        0.000        0.000        0.000        0.000        0.000        0.000        0.000        0.000        1.000        2.000        0.000        3.000        0.000        6.000        0.000        0.000        0.000        0.000        0.000      100.000        0.000        0.000        3.483        3.517        3.694
     Average  -263878.437    26419.039    15610.932    43674.953       89.318  -398407.793    48735.115       26.094       25.864        2.874        2.986        3.091        3.202        3.208        3.012        3.224        3.043        3.234        3.236        3.071        3.088        2.495        2.555        2.571        2.566        0.488        0.950        0.535        0.000        0.921        0.762        5.267        0.000        0.000        0.505        0.921        0.000        0.109        0.050        1.089        0.000        0.000        0.000        0.000        0.000        0.000        0.000        0.000        0.000        0.000        0.861        2.277        0.000        1.109        0.584        6.574        0.000        0.000        0.000        0.578        0.000       99.422        0.000        0.000        2.326        2.361        2.583

