____Time[ps] Energy[ kJ/mol ]_____Bond _______Angle ____Dihedral ___Planarity _____Coulomb _________VdW _Your result _Your result _Your result _Your result _Your result _Your result _Your result _Your result _Your result _Your result _Your result _Your result _Your result _Your result _Your result _Your result _Your result _Your result _Your result _Your result _Your result _Your result _Your result _Your result _Your result _Your result _Your result _Your result _Your result _Your result _Your result _Your result _Your result _Your result _Your result _Your result _Your result _Your result _Your result _Your result _Your result _Your result _Your result _Your result _Your result _Your result _Your result _Your result _Your result _Your result _Your result _Your result _Your result _Your result _Your result _Your result _Your result _RMSDs[A]:CA ____Backbone __HeavyAtoms
       0.000  -292321.927     6302.482     3806.311    44873.179       14.372  -401389.469    54071.199       25.364       25.162        2.575        2.596        2.579        2.663        2.683        2.548        2.685        2.544        2.644        2.649        2.666        2.523        2.956        3.016        2.604        2.594        0.488        0.000        0.000        0.000        0.000        3.000        4.000        1.000        0.000        0.000        0.000        0.000        0.000        0.000        0.000        0.000        0.000        0.000        0.000        0.000        0.000        0.000        0.000        0.000        0.000        0.000        0.000        0.000        0.000        1.000        6.000        2.000        0.000        0.000        0.000        0.000      100.000        0.000        0.000        0.424        0.454        0.658
      10.000  -220992.938    24471.932    13395.439    44299.394       71.062  -345696.240    42465.475       25.820       25.746        2.590        2.643        2.574        2.658        2.656        2.565        2.621        2.516        2.717        2.645        2.645        2.522        2.950        3.017        2.508        2.600        0.456        0.000        0.000        0.000        0.000        3.000        4.000        1.000        0.000        0.000        0.000        0.000        0.000        0.000        1.000        1.000        0.000        0.000        0.000        0.000        0.000        0.000        0.000        0.000        0.000        0.000        0.000        1.000        1.000        3.000       10.000        1.000        0.000        0.000        4.494        0.000       95.506        0.000        0.000        0.935        0.959        1.221
      20.000  -221045.660    24366.667    13582.397    43942.595       63.490  -345701.033    42700.225       25.927       25.914        2.621        2.612        2.594        2.674        2.594        2.561        2.678        2.527        2.636        2.696        2.632        2.478        2.947        3.008        2.635        2.528        0.491        0.000        0.000        1.000        0.000        3.000        4.000        1.000        0.000        0.000        0.000        0.000        0.000        0.000        0.000        0.000        0.000        0.000        0.000        0.000        0.000        0.000        0.000        0.000        0.000        0.000        0.000        1.000        0.000        0.000        5.000        0.000        0.000        0.000        0.000        0.000      100.000        0.000        0.000        1.241        1.241        1.536
      30.000  -220670.105    25081.649    13736.938    43904.142       78.830  -343289.396    39817.731       25.968       26.174        2.621        2.591        2.593        2.688        2.602        2.593        2.711        2.516        2.631        2.667        2.625        2.527        2.897        3.020        2.625        2.590        0.492        0.000        0.000        1.000        0.000        3.000        4.000        0.000        0.000        0.000        0.000        0.000        0.000        0.000        0.000        2.000        0.000        0.000        0.000        0.000        0.000        0.000        0.000        0.000        0.000        1.000        0.000        0.000        1.000        0.000        6.000        1.000        0.000        0.000        0.000        0.000      100.000        0.000        0.000        1.403        1.416        1.793
      40.000  -220367.509    24663.264    13624.505    44019.796       66.726  -342579.048    39837.249       26.063       25.938        2.564        2.619        2.576        2.665        2.652        2.604        2.688        2.535        2.632        2.700        2.652        2.509        2.993        3.032        2.571        2.583        0.490        0.000        0.000        0.000        0.000        2.000        3.000        1.000        0.000        0.000        0.000        0.000        0.000        0.000        1.000        2.000        0.000        0.000        0.000        0.000        0.000        0.000        0.000        0.000        0.000        0.000        0.000        0.000        1.000        0.000        5.000        0.000        0.000        0.000        0.000        0.000      100.000        0.000        0.000        1.139        1.149        1.644
      50.000  -220375.608    24881.533    13775.224    43929.274       76.897  -343393.615    40355.080       25.974       25.983        2.600        2.624        2.630        2.634        2.608        2.555        2.687        2.493        2.616        2.699        2.619        2.500        2.954        3.023        2.611        2.567        0.514        0.000        0.000        1.000        0.000        2.000        4.000        1.000        0.000        0.000        0.000        0.000        0.000        0.000        1.000        0.000        0.000        0.000        0.000        0.000        0.000        0.000        0.000        0.000        0.000        0.000        0.000        0.000        1.000        1.000        6.000        3.000        0.000        0.000        0.000        0.000      100.000        0.000        0.000        1.296        1.306        1.777
      60.000  -219899.939    24271.964    14110.417    43835.139       78.761  -342734.696    40538.475       26.194       26.018        2.635        2.647        2.578        2.650        2.586        2.568        2.731        2.532        2.616        2.649        2.662        2.502        2.995        3.047        2.598        2.530        0.465        0.000        0.000        1.000        0.000        2.000        3.000        1.000        0.000        0.000        0.000        0.000        0.000        0.000        0.000        0.000        0.000        0.000        0.000        0.000        0.000        0.000        0.000        0.000        0.000        0.000        0.000        1.000        0.000        0.000        9.000        3.000        0.000        0.000        0.000        0.000      100.000        0.000        0.000        1.670        1.685        2.070
      70.000  -219583.534    23631.827    13961.816    43854.325       60.742  -342817.095    41724.853       25.975       26.062        2.558        2.597        2.589        2.687        2.600        2.585        2.634        2.493        2.600        2.652        2.650        2.543        2.976        3.020        2.658        2.552        0.485        0.000        0.000        1.000        0.000        3.000        2.000        0.000        0.000        0.000        0.000        0.000        0.000        0.000        1.000        0.000        0.000        0.000        0.000        0.000        0.000        0.000        0.000        0.000        0.000        1.000        0.000        2.000        1.000        2.000        9.000        0.000        0.000        0.000        0.000        0.000      100.000        0.000        0.000        1.673        1.685        2.092
      80.000  -219134.976    24483.203    13832.473    43634.419       66.714  -340599.978    39448.194       25.904       25.951        2.616        2.621        2.569        2.673        2.590        2.590        2.662        2.485        2.599        2.654        2.709        2.473        2.856        2.983        2.649        2.584        0.483        0.000        0.000        0.000        0.000        1.000        3.000        1.000        0.000        0.000        0.000        0.000        0.000        0.000        0.000        1.000        0.000        0.000        0.000        0.000        0.000        0.000        0.000        0.000        0.000        0.000        0.000        1.000        0.000        1.000        7.000        0.000        0.000        0.000        0.000        0.000      100.000        0.000        0.000        1.566        1.579        2.090
      90.000  -219160.259    23540.803    13734.848    43883.892       72.491  -339907.561    39515.268       26.263       26.144        2.544        2.612        2.575        2.704        2.551        2.558        2.663        2.477        2.590        2.651        2.662        2.487        2.921        3.042        2.624        2.539        0.509        0.000        0.000        0.000        0.000        2.000        3.000        0.000        0.000        0.000        0.000        0.000        0.000        0.000        0.000        0.000        0.000        0.000        0.000        0.000        0.000        0.000        0.000        0.000        0.000        0.000        0.000        0.000        0.000        1.000        4.000        0.000        0.000        0.000        0.000        0.000      100.000        0.000        0.000        1.663        1.664        2.230
     100.000  -218882.182    23374.969    13602.391    43680.395       68.798  -340362.521    40753.787       26.261       26.001        2.569        2.643        2.606        2.680        2.492        2.552        2.671        2.561        2.696        2.638        2.639        2.501        2.853        2.985        2.673        2.570        0.478        0.000        0.000        0.000        0.000        1.000        3.000        1.000        0.000        0.000        0.000        0.000        0.000        0.000        0.000        0.000        0.000        0.000        0.000        0.000        0.000        0.000        0.000        0.000        0.000        1.000        0.000        2.000        1.000        0.000        7.000        2.000        0.000        0.000        0.000        0.000      100.000        0.000        0.000        1.517        1.524        2.233
     110.000  -218911.443    22632.074    13746.524    43824.220       77.196  -340194.147    41002.689       26.065       25.652        2.569        2.613        2.562        2.648        2.546        2.598        2.651        2.550        2.657        2.666        2.613        2.483        2.903        3.009        2.604        2.569        0.497        0.000        0.000        0.000        0.000        1.000        3.000        0.000        0.000        0.000        0.000        0.000        0.000        0.000        0.000        0.000        0.000        0.000        0.000        0.000        0.000        0.000        0.000        0.000        0.000        1.000        0.000        2.000        0.000        2.000        5.000        0.000        0.000        0.000        0.000        0.000      100.000        0.000        0.000        1.433        1.451        2.122
     120.000  -218964.885    23065.061    13654.123    43861.823      100.183  -338733.209    39087.135       26.120       26.122        2.520        2.614        2.587        2.704        2.564        2.584        2.650        2.533        2.666        2.657        2.640        2.471        2.920        3.008        2.617        2.589        0.476        0.000        0.000        1.000        0.000        1.000        5.000        1.000        0.000        0.000        0.000        0.000        0.000        0.000        0.000        2.000        0.000        0.000        0.000        0.000        0.000        0.000        0.000        0.000        0.000        0.000        0.000        3.000        0.000        2.000        6.000        1.000        0.000        0.000        0.000        0.000      100.000        0.000        0.000        1.485        1.504        2.194
     130.000  -218930.661    23619.312    13189.186    43853.035       70.306  -338587.738    38925.238       26.147       26.085        2.587        2.633        2.548        2.707        2.544        2.601        2.659        2.525        2.718        2.605        2.652        2.480        2.988        3.043        2.591        2.551        0.479        0.000        0.000        0.000        0.000        2.000        3.000        0.000        0.000        0.000        0.000        0.000        0.000        0.000        0.000        0.000        0.000        0.000        0.000        0.000        0.000        0.000        0.000        0.000        0.000        0.000        0.000        3.000        0.000        0.000        5.000        0.000        0.000        0.000        0.000        0.000      100.000        0.000        0.000        1.700        1.728        2.390
     140.000  -218195.534    22970.284    13560.474    43788.635       77.183  -338060.564    39468.454       26.065       25.853        2.627        2.620        2.609        2.631        2.582        2.550        2.709        2.535        2.662        2.645        2.642        2.518        2.990        2.999        2.650        2.571        0.487        0.000        0.000        0.000        0.000        2.000        4.000        0.000        0.000        0.000        0.000        0.000        0.000        0.000        0.000        0.000        0.000        0.000        0.000        0.000        0.000        0.000        0.000        0.000        0.000        0.000        0.000        1.000        0.000        0.000        7.000        0.000        0.000        0.000        0.000        0.000      100.000        0.000        0.000        2.051        2.086        2.458
     150.000  -218399.335    22848.825    13457.640    43883.634       97.454  -337919.244    39232.355       26.158       25.863        2.588        2.652        2.569        2.669        2.529        2.556        2.732        2.516        2.662        2.650        2.641        2.444        2.997        3.080        2.576        2.524        0.471        0.000        0.000        0.000        0.000        2.000        3.000        1.000        0.000        0.000        0.000        0.000        0.000        0.000        1.000        1.000        0.000        0.000        0.000        0.000        0.000        0.000        0.000        0.000        0.000        0.000        0.000        1.000        0.000        0.000        7.000        0.000        0.000        0.000        0.000        0.000      100.000        0.000        0.000        2.245        2.282        2.541
     160.000  -218172.590    22160.572    13495.988    44028.457       86.002  -338152.859    40209.250       26.366       26.007        2.550        2.585        2.536        2.711        2.509        2.582        2.704        2.550        2.632        2.623        2.651        2.535        2.972        2.996        2.624        2.564        0.494        0.000        0.000        1.000        0.000        2.000        2.000        1.000        0.000        0.000        0.000        0.000        0.000        0.000        0.000        0.000        0.000        0.000        0.000        0.000        0.000        0.000        0.000        0.000        0.000        0.000        0.000        4.000        0.000        0.000        5.000        0.000        0.000        0.000        0.000        0.000      100.000        0.000        0.000        2.132        2.166        2.506
     170.000  -218437.463    23606.451    13336.368    43834.440       83.203  -338272.252    38974.327       26.193       26.072        2.489        2.565        2.532        2.687        2.505        2.606        2.612        2.569        2.588        2.577        2.699        2.508        3.016        3.017        2.666        2.511        0.508        0.000        0.000        0.000        0.000        2.000        3.000        0.000        0.000        0.000        0.000        0.000        0.000        0.000        0.000        0.000        0.000        0.000        0.000        0.000        0.000        0.000        0.000        0.000        0.000        0.000        0.000        3.000        0.000        0.000        9.000        1.000        0.000        0.000        0.000        0.000      100.000        0.000        0.000        2.140        2.182        2.617
     180.000  -218102.926    22948.919    13618.051    43724.898       63.202  -337120.901    38662.905       26.127       25.796        2.555        2.659        2.596        2.687        2.517        2.546        2.711        2.485        2.655        2.628        2.676        2.502        2.979        3.068        2.613        2.567        0.492        0.000        0.000        0.000        0.000        2.000        1.000        1.000        0.000        0.000        0.000        0.000        0.000        0.000        0.000        0.000        0.000        0.000        0.000        0.000        0.000        0.000        0.000        0.000        0.000        0.000        0.000        2.000        0.000        0.000       11.000        1.000        0.000        0.000        0.000        0.000      100.000        0.000        0.000        2.043        2.071        2.450
     190.000  -217920.629    22761.528    13513.944    43647.652       85.276  -335911.572    37982.544       26.169       25.741        2.629        2.639        2.595        2.748        2.538        2.588        2.710        2.487        2.677        2.633        2.654        2.593        2.984        3.016        2.606        2.566        0.510        0.000        0.000        0.000        0.000        2.000        3.000        0.000        0.000        0.000        0.000        0.000        0.000        0.000        1.000        0.000        0.000        0.000        0.000        0.000        0.000        0.000        0.000        0.000        0.000        0.000        0.000        1.000        0.000        0.000        6.000        0.000        0.000        0.000        0.000        0.000      100.000        0.000        0.000        1.827        1.854        2.387
     200.000  -217652.886    21294.407    13494.270    43931.243       78.820  -335742.355    39290.728       25.876       25.809        2.607        2.584        2.596        2.705        2.578        2.552        2.689        2.479        2.663        2.603        2.684        2.514        2.943        3.005        2.573        2.569        0.484        0.000        0.000        1.000        0.000        1.000        3.000        0.000        0.000        0.000        0.000        0.000        0.000        0.000        0.000        0.000        0.000        0.000        0.000        0.000        0.000        0.000        0.000        0.000        0.000        0.000        0.000        4.000        0.000        1.000        5.000        1.000        0.000        0.000        0.000        0.000      100.000        0.000        0.000        1.517        1.547        2.291
     210.000  -217208.035    22498.298    13526.954    43791.113       82.793  -336122.511    39015.317       25.935       25.925        2.535        2.567        2.560        2.684        2.498        2.611        2.674        2.556        2.660        2.604        2.703        2.506        3.013        3.019        2.597        2.573        0.489        0.000        0.000        1.000        0.000        2.000        2.000        0.000        0.000        0.000        0.000        0.000        0.000        0.000        0.000        0.000        0.000        0.000        0.000        0.000        0.000        0.000        0.000        0.000        0.000        0.000        0.000        2.000        0.000        0.000        8.000        0.000        0.000        0.000        0.000        0.000      100.000        0.000        0.000        1.611        1.628        2.253
     220.000  -217476.102    22912.235    13886.945    43744.425       81.170  -337077.945    38977.068       25.926       26.107        2.630        2.549        2.551        2.723        2.488        2.603        2.701        2.492        2.638        2.582        2.632        2.526        3.038        2.968        2.623        2.580        0.499        0.000        0.000        0.000        0.000        2.000        4.000        1.000        0.000        0.000        0.000        0.000        0.000        0.000        1.000        0.000        0.000        0.000        0.000        0.000        0.000        0.000        0.000        0.000        0.000        0.000        0.000        1.000        0.000        1.000        2.000        2.000        0.000        0.000        0.000        0.000      100.000        0.000        0.000        1.835        1.850        2.411
     230.000  -217255.393    21316.214    13673.215    43840.068       92.624  -336162.978    39985.464       25.685       25.991        2.637        2.519        2.582        2.653        2.532        2.603        2.651        2.551        2.633        2.637        2.624        2.522        2.974        2.987        2.629        2.550        0.461        0.000        0.000        0.000        0.000        2.000        1.000        1.000        0.000        0.000        0.000        0.000        0.000        0.000        0.000        1.000        0.000        0.000        0.000        0.000        0.000        0.000        0.000        0.000        0.000        0.000        0.000        1.000        0.000        0.000        4.000        3.000        0.000        0.000        0.000        0.000      100.000        0.000        0.000        1.861        1.882        2.546
     240.000  -216865.708    21505.804    13255.592    43724.411       68.886  -333773.991    38353.591       25.859       25.788        2.613        2.532        2.566        2.670        2.547        2.573        2.709        2.535        2.621        2.624        2.672        2.562        2.935        3.038        2.627        2.590        0.497        0.000        0.000        0.000        0.000        2.000        2.000        0.000        0.000        0.000        0.000        0.000        0.000        0.000        0.000        0.000        0.000        0.000        0.000        0.000        0.000        0.000        0.000        0.000        0.000        0.000        0.000        3.000        0.000        0.000        1.000        0.000        0.000        0.000        0.000        0.000      100.000        0.000        0.000        1.892        1.926        2.642
     250.000  -217280.888    22780.112    13920.576    43674.924       71.816  -336033.736    38305.420       26.090       26.079        2.579        2.548        2.588        2.699        2.548        2.591        2.679        2.496        2.676        2.609        2.691        2.528        2.942        2.968        2.604        2.605        0.475        0.000        0.000        0.000        0.000        1.000        3.000        0.000        0.000        0.000        0.000        0.000        0.000        0.000        0.000        0.000        0.000        0.000        0.000        0.000        0.000        0.000        0.000        0.000        0.000        0.000        0.000        0.000        0.000        1.000       11.000        0.000        0.000        0.000        0.000        0.000      100.000        0.000        0.000        2.064        2.097        2.655
     260.000  -217303.741    21333.120    13338.120    43803.713       57.786  -335482.784    39646.305       26.124       25.985        2.583        2.522        2.601        2.719        2.582        2.651        2.674        2.506        2.580        2.663        2.656        2.497        2.994        3.057        2.560        2.610        0.476        0.000        0.000        0.000        0.000        1.000        2.000        0.000        0.000        0.000        0.000        0.000        0.000        0.000        0.000        0.000        0.000        0.000        0.000        0.000        0.000        0.000        0.000        0.000        0.000        0.000        0.000        2.000        0.000        1.000       13.000        1.000        0.000        0.000        0.000        0.000      100.000        0.000        0.000        1.872        1.873        2.689
     270.000  -216894.267    23070.945    13251.442    43666.830       72.778  -335067.777    38111.516       25.813       25.864        2.638        2.560        2.607        2.671        2.531        2.595        2.675        2.553        2.593        2.631        2.709        2.498        3.043        3.042        2.550        2.587        0.479        0.000        0.000        0.000        0.000        1.000        3.000        0.000        0.000        0.000        0.000        0.000        0.000        0.000        0.000        0.000        0.000        0.000        0.000        0.000        0.000        0.000        0.000        0.000        0.000        0.000        0.000        0.000        0.000        0.000        8.000        0.000        0.000        0.000        4.494        0.000       95.506        0.000        0.000        1.943        1.952        2.761
     280.000  -217357.129    22656.072    13552.388    43886.877       62.777  -335585.573    38070.330       25.819       25.467        2.654        2.566        2.643        2.704        2.593        2.616        2.675        2.565        2.657        2.646        2.678        2.482        2.913        3.047        2.494        2.591        0.494        0.000        0.000        0.000        0.000        1.000        2.000        0.000        0.000        0.000        0.000        0.000        0.000        0.000        0.000        0.000        0.000        0.000        0.000        0.000        0.000        0.000        0.000        0.000        0.000        0.000        0.000        4.000        1.000        0.000        8.000        1.000        0.000        0.000        0.000        0.000      100.000        0.000        0.000        1.513        1.532        2.473
     290.000  -217535.227    22995.376    13243.334    43712.104       75.558  -335755.735    38194.137       26.378       26.119        2.628        2.563        2.640        2.657        2.540        2.554        2.706        2.511        2.641        2.625        2.645        2.464        2.971        3.012        2.580        2.529        0.494        0.000        0.000        0.000        0.000        1.000        2.000        1.000        0.000        0.000        0.000        0.000        0.000        0.000        1.000        0.000        0.000        0.000        0.000        0.000        0.000        0.000        0.000        0.000        0.000        0.000        0.000        4.000        0.000        0.000        4.000        0.000        0.000        0.000        0.000        0.000      100.000        0.000        0.000        1.813        1.833        2.628
     300.000  -216612.738    21248.853    13161.279    44266.372       70.083  -334895.843    39536.517       25.837       25.389        2.567        2.542        2.591        2.713        2.570        2.557        2.703        2.524        2.604        2.652        2.697        2.504        3.030        3.024        2.597        2.511        0.483        0.000        0.000        0.000        0.000        1.000        2.000        0.000        0.000        0.000        0.000        0.000        0.000        0.000        0.000        1.000        0.000        0.000        0.000        0.000        0.000        0.000        0.000        0.000        0.000        0.000        0.000        0.000        0.000        0.000        5.000        0.000        0.000        0.000        0.000        0.000      100.000        0.000        0.000        1.337        1.382        2.451
     310.000  -217528.789    21608.879    13227.011    44074.224       89.878  -335082.811    38554.031       25.981       25.774        2.651        2.558        2.611        2.676        2.555        2.597        2.638        2.504        2.630        2.628        2.647        2.528        2.979        3.008        2.617        2.598        0.477        0.000        0.000        0.000        0.000        1.000        3.000        0.000        0.000        0.000        0.000        0.000        0.000        0.000        0.000        0.000        0.000        0.000        0.000        0.000        0.000        0.000        0.000        0.000        0.000        0.000        0.000        1.000        1.000        0.000        4.000        0.000        0.000        0.000        0.000        0.000      100.000        0.000        0.000        1.407        1.432        2.462
     320.000  -216272.475    21008.442    13448.832    44007.091       83.860  -333862.559    39041.860       26.087       25.665        2.629        2.526        2.616        2.715        2.525        2.509        2.662        2.560        2.691        2.596        2.697        2.575        3.017        2.983        2.618        2.541        0.465        0.000        0.000        0.000        0.000        1.000        3.000        0.000        0.000        0.000        0.000        0.000        0.000        0.000        0.000        1.000        0.000        0.000        0.000        0.000        0.000        0.000        0.000        0.000        0.000        0.000        0.000        1.000        1.000        2.000        8.000        1.000        0.000        0.000        0.000        0.000      100.000        0.000        0.000        1.677        1.714        2.700
     330.000  -216374.294    21691.819    13580.482    43788.450       86.837  -333447.258    37925.376       26.082       25.782        2.668        2.550        2.557        2.691        2.605        2.595        2.678        2.535        2.703        2.603        2.682        2.539        2.982        2.974        2.584        2.548        0.481        0.000        0.000        0.000        0.000        2.000        3.000        0.000        0.000        0.000        0.000        0.000        0.000        0.000        0.000        0.000        0.000        0.000        0.000        0.000        0.000        0.000        0.000        0.000        0.000        0.000        0.000        1.000        0.000        0.000        3.000        0.000        0.000        0.000        0.000        0.000      100.000        0.000        0.000        1.759        1.780        2.863
     340.000  -216946.296    22282.661    13152.964    43863.257       66.647  -334755.857    38444.032       26.332       25.747        2.652        2.502        2.569        2.669        2.569        2.613        2.650        2.517        2.724        2.680        2.689        2.529        2.963        2.986        2.612        2.570        0.479        0.000        0.000        0.000        0.000        2.000        2.000        1.000        0.000        0.000        0.000        0.000        0.000        0.000        1.000        0.000        0.000        0.000        0.000        0.000        0.000        0.000        0.000        0.000        0.000        0.000        0.000        2.000        0.000        0.000        5.000        0.000        0.000        0.000        0.000        0.000      100.000        0.000        0.000        1.403        1.434        2.608
     350.000  -216422.785    21691.088    13379.605    43978.740       89.032  -334567.032    39005.783       26.186       25.662        2.629        2.561        2.598        2.735        2.535        2.587        2.687        2.506        2.689        2.651        2.663        2.514        2.999        3.038        2.680        2.569        0.473        0.000        0.000        0.000        0.000        1.000        2.000        0.000        0.000        0.000        0.000        0.000        0.000        0.000        0.000        0.000        0.000        0.000        0.000        0.000        0.000        0.000        0.000        0.000        0.000        0.000        0.000        2.000        0.000        0.000       10.000        1.000        0.000        0.000        0.000        0.000      100.000        0.000        0.000        1.410        1.433        2.463
     360.000  -216378.431    21240.633    13116.913    43907.213       80.644  -334428.280    39704.446       26.257       25.859        2.570        2.565        2.604        2.675        2.499        2.588        2.715        2.640        2.643        2.609        2.682        2.536        2.921        3.052        2.692        2.596        0.507        0.000        0.000        0.000        0.000        1.000        3.000        0.000        0.000        0.000        0.000        0.000        0.000        0.000        0.000        1.000        0.000        0.000        0.000        0.000        0.000        0.000        0.000        0.000        0.000        0.000        0.000        1.000        0.000        1.000        4.000        0.000        0.000        0.000        0.000        0.000      100.000        0.000        0.000        1.594        1.614        2.689
     370.000  -215914.966    22466.989    13225.982    43832.945       77.872  -332821.041    37302.287       26.333       26.113        2.615        2.536        2.637        2.746        2.600        2.567        2.666        2.557        2.606        2.624        2.699        2.556        2.969        3.022        2.650        2.592        0.485        0.000        0.000        0.000        0.000        1.000        4.000        0.000        0.000        0.000        0.000        0.000        0.000        0.000        1.000        0.000        0.000        0.000        0.000        0.000        0.000        0.000        0.000        0.000        0.000        0.000        0.000        1.000        1.000        1.000        4.000        0.000        0.000        0.000        0.000        0.000      100.000        0.000        0.000        1.667        1.672        2.745
     380.000  -216318.908    22337.318    13331.691    43878.058       81.429  -333302.080    37354.675       26.397       25.812        2.619        2.586        2.587        2.620        2.467        2.565        2.694        2.579        2.704        2.685        2.688        2.528        2.959        3.008        2.682        2.569        0.463        0.000        0.000        0.000        0.000        2.000        1.000        0.000        0.000        0.000        0.000        0.000        0.000        0.000        0.000        1.000        0.000        0.000        0.000        0.000        0.000        0.000        0.000        0.000        0.000        0.000        0.000        2.000        1.000        0.000        7.000        1.000        0.000        0.000        0.000        0.000      100.000        0.000        0.000        1.758        1.757        2.793
     390.000  -216461.585    22102.028    13194.180    43870.466       77.016  -333599.214    37893.938       26.409       26.112        2.566        2.543        2.601        2.662        2.473        2.564        2.749        2.593        2.699        2.648        2.643        2.467        3.010        3.014        2.617        2.650        0.492        0.000        0.000        0.000        0.000        2.000        3.000        0.000        0.000        0.000        0.000        0.000        0.000        0.000        0.000        0.000        0.000        0.000        0.000        0.000        0.000        0.000        0.000        0.000        0.000        0.000        0.000        0.000        1.000        0.000        8.000        0.000        0.000        0.000        0.000        0.000      100.000        0.000        0.000        1.878        1.865        2.785
     400.000  -215888.425    21349.212    13186.423    43908.482      100.072  -333084.219    38651.605       26.124       25.991        2.567        2.544        2.589        2.703        2.537        2.601        2.685        2.560        2.703        2.702        2.693        2.479        2.903        2.937        2.634        2.578        0.493        0.000        0.000        0.000        0.000        2.000        3.000        0.000        0.000        0.000        0.000        0.000        0.000        0.000        0.000        0.000        0.000        0.000        0.000        0.000        0.000        0.000        0.000        0.000        0.000        0.000        0.000        1.000        1.000        0.000        6.000        0.000        0.000        0.000        0.000        0.000      100.000        0.000        0.000        1.709        1.703        2.828
     410.000  -216285.459    20863.231    13311.351    43944.898       86.581  -334900.517    40408.996       25.941       25.929        2.596        2.582        2.570        2.679        2.481        2.590        2.657        2.443        2.695        2.613        2.698        2.517        2.840        2.939        2.632        2.582        0.483        0.000        0.000        0.000        0.000        2.000        3.000        0.000        0.000        0.000        0.000        0.000        0.000        0.000        0.000        0.000        0.000        0.000        0.000        0.000        0.000        0.000        0.000        0.000        0.000        0.000        0.000        2.000        1.000        1.000        4.000        1.000        0.000        0.000        0.000        0.000      100.000        0.000        0.000        1.435        1.439        2.683
     420.000  -216082.621    22012.143    13348.675    43959.048       73.320  -333598.498    38122.691       26.069       25.997        2.627        2.588        2.598        2.731        2.574        2.561        2.682        2.516        2.657        2.634        2.666        2.534        2.916        2.992        2.644        2.628        0.495        0.000        0.000        0.000        0.000        1.000        2.000        0.000        0.000        0.000        0.000        0.000        0.000        0.000        0.000        1.000        0.000        0.000        0.000        0.000        0.000        0.000        0.000        0.000        0.000        0.000        0.000        1.000        0.000        0.000        8.000        0.000        0.000        0.000        0.000        0.000      100.000        0.000        0.000        1.590        1.603        2.628
     430.000  -216346.358    22304.227    13426.538    43739.111       59.408  -334083.874    38208.232       26.151       26.037        2.604        2.528        2.611        2.696        2.542        2.615        2.655        2.462        2.649        2.685        2.683        2.558        2.918        3.066        2.643        2.619        0.483        0.000        0.000        0.000        0.000        1.000        3.000        0.000        0.000        0.000        0.000        0.000        0.000        0.000        1.000        1.000        0.000        0.000        0.000        0.000        0.000        0.000        0.000        0.000        0.000        0.000        0.000        2.000        1.000        0.000        3.000        0.000        0.000        0.000        0.000        0.000      100.000        0.000        0.000        1.565        1.558        2.638
     440.000  -216334.784    21731.587    13392.329    43714.951       82.117  -335582.622    40326.854       26.391       26.406        2.612        2.508        2.586        2.650        2.543        2.553        2.659        2.452        2.647        2.670        2.692        2.533        2.925        2.978        2.697        2.625        0.463        0.000        0.000        0.000        0.000        1.000        2.000        0.000        0.000        0.000        0.000        0.000        0.000        0.000        0.000        1.000        0.000        0.000        0.000        0.000        0.000        0.000        0.000        0.000        0.000        0.000        0.000        1.000        0.000        1.000        2.000        0.000        0.000        0.000        0.000        0.000      100.000        0.000        0.000        1.841        1.832        2.840
     450.000  -216310.836    21283.180    13320.082    43781.741       81.328  -334369.071    39591.905       26.011       26.178        2.649        2.588        2.597        2.691        2.522        2.595        2.680        2.500        2.635        2.643        2.668        2.515        2.906        2.975        2.610        2.585        0.490        0.000        0.000        1.000        0.000        1.000        2.000        0.000        0.000        0.000        0.000        0.000        0.000        0.000        0.000        1.000        0.000        0.000        0.000        0.000        0.000        0.000        0.000        0.000        0.000        0.000        0.000        1.000        0.000        2.000        7.000        1.000        0.000        0.000        0.000        0.000      100.000        0.000        0.000        1.996        1.980        2.909
     460.000  -217545.598    22448.162    13294.809    43666.524       91.728  -334629.794    37582.974       25.912       25.984        2.674        2.540        2.552        2.658        2.499        2.550        2.723        2.496        2.611        2.656        2.722        2.483        2.879        3.053        2.687        2.591        0.486        0.000        0.000        1.000        0.000        2.000        2.000        1.000        0.000        0.000        0.000        0.000        0.000        0.000        0.000        1.000        0.000        0.000        0.000        0.000        0.000        0.000        0.000        0.000        0.000        0.000        0.000        1.000        1.000        1.000       12.000        1.000        0.000        0.000        0.000        0.000      100.000        0.000        0.000        2.259        2.237        3.075
     470.000  -216630.422    22439.213    13377.296    43670.173       66.851  -333925.170    37741.215       26.348       26.094        2.653        2.556        2.562        2.710        2.562        2.583        2.718        2.540        2.635        2.668        2.686        2.533        2.939        2.966        2.655        2.608        0.454        0.000        0.000        1.000        0.000        2.000        4.000        0.000        0.000        0.000        0.000        0.000        0.000        0.000        0.000        0.000        0.000        0.000        0.000        0.000        0.000        0.000        0.000        0.000        0.000        0.000        0.000        1.000        0.000        3.000        7.000        0.000        0.000        0.000        0.000        0.000      100.000        0.000        0.000        2.284        2.255        3.153
     480.000  -216059.979    21303.678    13359.187    43729.165      104.727  -332653.065    38096.330       26.206       26.212        2.659        2.541        2.546        2.686        2.544        2.554        2.660        2.572        2.613        2.667        2.741        2.502        2.912        3.025        2.669        2.638        0.473        0.000        0.000        1.000        0.000        1.000        3.000        0.000        0.000        0.000        0.000        0.000        0.000        0.000        0.000        0.000        0.000        0.000        0.000        0.000        0.000        0.000        0.000        0.000        0.000        0.000        0.000        1.000        0.000        3.000        9.000        1.000        0.000        0.000        0.000        0.000      100.000        0.000        0.000        2.073        2.029        3.016
     490.000  -216835.568    21957.902    13310.642    43592.963       70.160  -334973.090    39205.855       26.592       26.418        2.647        2.585        2.589        2.693        2.498        2.584        2.704        2.500        2.628        2.605        2.663        2.563        2.885        3.025        2.628        2.611        0.486        0.000        0.000        1.000        0.000        1.000        3.000        0.000        0.000        0.000        0.000        0.000        0.000        0.000        0.000        0.000        0.000        0.000        0.000        0.000        0.000        0.000        0.000        0.000        0.000        0.000        0.000        1.000        0.000        0.000        6.000        2.000        0.000        0.000        0.000        0.000      100.000        0.000        0.000        2.175        2.145        3.061
     500.000  -216363.992    21458.685    13192.810    43869.041       94.083  -335029.324    40050.713       26.317       26.056        2.618        2.553        2.587        2.679        2.508        2.554        2.679        2.449        2.680        2.655        2.696        2.520        2.884        3.002        2.635        2.643        0.479        0.000        0.000        0.000        0.000        1.000        3.000        0.000        0.000        0.000        0.000        0.000        0.000        0.000        1.000        1.000        0.000        0.000        0.000        0.000        0.000        0.000        0.000        0.000        0.000        0.000        0.000        2.000        0.000        2.000        8.000        0.000        0.000        0.000        4.494        0.000       95.506        0.000        0.000        2.263        2.253        3.016
     510.000  -216664.861    21389.744    13158.066    44066.393       87.616  -333862.913    38496.233       25.982       25.750        2.613        2.568        2.597        2.688        2.534        2.613        2.626        2.506        2.590        2.621        2.650        2.495        2.883        2.998        2.635        2.593        0.503        0.000        0.000        1.000        0.000        1.000        1.000        0.000        0.000        0.000        0.000        0.000        0.000        0.000        0.000        0.000        0.000        0.000        0.000        0.000        0.000        0.000        0.000        0.000        0.000        0.000        0.000        1.000        0.000        0.000        8.000        0.000        0.000        0.000        4.494        0.000       95.506        0.000        0.000        2.293        2.309        3.074
     520.000  -216651.372    22052.056    13462.646    43917.468       80.596  -335044.901    38880.763       26.018       25.827        2.646        2.575        2.609        2.697        2.530        2.598        2.649        2.530        2.577        2.658        2.684        2.511        2.969        2.992        2.613        2.591        0.504        0.000        0.000        0.000        0.000        1.000        3.000        0.000        0.000        0.000        0.000        0.000        0.000        0.000        0.000        0.000        0.000        0.000        0.000        0.000        0.000        0.000        0.000        0.000        0.000        0.000        0.000        2.000        0.000        0.000        4.000        1.000        0.000        0.000        4.494        0.000       95.506        0.000        0.000        2.668        2.693        3.325
     530.000  -216982.937    21125.442    13031.807    43848.548       71.445  -334874.120    39813.941       25.899       25.590        2.600        2.550        2.609        2.695        2.568        2.583        2.689        2.504        2.598        2.624        2.686        2.520        2.885        2.996        2.656        2.578        0.463        0.000        0.000        1.000        0.000        1.000        3.000        0.000        0.000        0.000        0.000        0.000        0.000        0.000        0.000        0.000        0.000        0.000        0.000        0.000        0.000        0.000        0.000        0.000        0.000        0.000        0.000        2.000        0.000        1.000        6.000        0.000        0.000        0.000        0.000        0.000      100.000        0.000        0.000        2.249        2.269        3.146
     540.000  -216435.588    22268.661    13571.596    43556.924       86.086  -334520.695    38601.839       26.019       25.886        2.648        2.543        2.578        2.709        2.512        2.592        2.600        2.534        2.645        2.652        2.694        2.585        2.921        2.980        2.665        2.636        0.489        0.000        0.000        1.000        0.000        1.000        2.000        0.000        0.000        0.000        0.000        0.000        0.000        0.000        0.000        0.000        0.000        0.000        0.000        0.000        0.000        0.000        0.000        0.000        0.000        1.000        0.000        0.000        1.000        0.000        3.000        1.000        0.000        0.000        0.000        0.000      100.000        0.000        0.000        2.341        2.386        3.142
     550.000  -216610.165    22360.508    12943.301    43583.274       75.314  -333752.777    38180.216       26.295       26.085        2.617        2.587        2.634        2.701        2.508        2.540        2.679        2.570        2.630        2.661        2.715        2.538        2.922        3.059        2.688        2.639        0.479        0.000        0.000        1.000        0.000        1.000        2.000        0.000        0.000        0.000        0.000        0.000        0.000        0.000        0.000        0.000        0.000        0.000        0.000        0.000        0.000        0.000        0.000        0.000        0.000        0.000        0.000        1.000        0.000        1.000        6.000        0.000        0.000        0.000        4.494        0.000       95.506        0.000        0.000        2.381        2.392        3.285
     560.000  -216451.989    21397.852    13200.468    43750.292       64.611  -333883.252    39018.039       26.179       25.925        2.650        2.562        2.564        2.693        2.534        2.565        2.633        2.571        2.628        2.661        2.670        2.579        2.881        3.017        2.645        2.620        0.474        0.000        0.000        1.000        0.000        1.000        2.000        0.000        0.000        0.000        0.000        0.000        0.000        0.000        0.000        1.000        0.000        0.000        0.000        0.000        0.000        0.000        0.000        0.000        0.000        0.000        0.000        0.000        1.000        1.000        6.000        0.000        0.000        0.000        0.000        0.000      100.000        0.000        0.000        2.044        2.043        2.997
     570.000  -216764.675    22206.912    13082.062    43850.543      102.531  -333579.423    37572.701       26.223       25.826        2.641        2.631        2.637        2.719        2.570        2.562        2.722        2.528        2.646        2.655        2.715        2.556        3.059        3.055        2.703        2.632        0.486        0.000        0.000        0.000        0.000        1.000        3.000        0.000        0.000        0.000        0.000        0.000        0.000        0.000        0.000        0.000        0.000        0.000        0.000        0.000        0.000        0.000        0.000        0.000        0.000        0.000        0.000        3.000        0.000        3.000        9.000        0.000        0.000        0.000        4.494        0.000       95.506        0.000        0.000        2.026        2.037        3.035
     580.000  -216545.339    21584.636    13058.660    43773.235       81.582  -333386.005    38342.552       26.156       25.832        2.562        2.547        2.547        2.671        2.575        2.571        2.662        2.554        2.640        2.648        2.695        2.541        3.001        3.082        2.716        2.572        0.480        0.000        0.000        1.000        0.000        1.000        2.000        0.000        0.000        0.000        0.000        0.000        0.000        0.000        0.000        1.000        0.000        0.000        0.000        0.000        0.000        0.000        0.000        0.000        0.000        0.000        0.000        1.000        0.000        0.000        8.000        1.000        0.000        0.000        0.000        0.000      100.000        0.000        0.000        2.124        2.172        3.171
     590.000  -216560.755    21083.332    12824.827    43957.656       85.831  -332944.304    38431.904       26.076       25.805        2.621        2.586        2.611        2.700        2.545        2.557        2.615        2.512        2.653        2.654        2.667        2.441        2.918        3.031        2.713        2.570        0.474        0.000        0.000        1.000        0.000        1.000        2.000        0.000        0.000        0.000        0.000        0.000        0.000        0.000        0.000        1.000        0.000        0.000        0.000        0.000        0.000        0.000        0.000        0.000        0.000        0.000        0.000        4.000        0.000        1.000        7.000        0.000        0.000        0.000        0.000        0.000      100.000        0.000        0.000        1.594        1.617        2.767
     600.000  -216651.431    22329.674    13203.331    43617.929       81.341  -333197.593    37313.885       26.042       25.804        2.649        2.571        2.588        2.694        2.552        2.583        2.693        2.541        2.695        2.628        2.670        2.537        2.995        3.034        2.665        2.604        0.495        0.000        0.000        1.000        0.000        1.000        1.000        0.000        0.000        0.000        0.000        0.000        0.000        0.000        0.000        1.000        0.000        0.000        0.000        0.000        0.000        0.000        0.000        0.000        0.000        0.000        0.000        2.000        0.000        1.000        4.000        0.000        0.000        0.000        0.000        0.000      100.000        0.000        0.000        1.591        1.602        2.835
     610.000  -216437.396    22227.145    13193.051    43721.574       62.301  -332230.539    36589.073       26.291       25.980        2.609        2.564        2.614        2.716        2.597        2.571        2.678        2.504        2.665        2.634        2.654        2.520        2.977        3.018        2.703        2.625        0.477        0.000        0.000        1.000        0.000        0.000        1.000        0.000        0.000        0.000        0.000        0.000        0.000        0.000        0.000        0.000        0.000        0.000        0.000        0.000        0.000        0.000        0.000        0.000        0.000        0.000        0.000        3.000        0.000        4.000       11.000        2.000        0.000        0.000        0.000        0.000      100.000        0.000        0.000        2.017        2.027        3.111
     620.000  -215726.947    21651.878    13138.583    43796.376       78.762  -332708.188    38315.641       26.400       26.051        2.603        2.503        2.580        2.721        2.486        2.574        2.661        2.546        2.682        2.618        2.727        2.483        2.982        2.953        2.705        2.620        0.482        0.000        0.000        1.000        0.000        1.000        1.000        0.000        0.000        0.000        0.000        0.000        0.000        0.000        1.000        1.000        0.000        0.000        0.000        0.000        0.000        0.000        0.000        0.000        0.000        0.000        0.000        1.000        0.000        2.000        7.000        0.000        0.000        0.000        0.000        0.000      100.000        0.000        0.000        1.800        1.817        2.989
     630.000  -216138.228    22105.772    12836.107    43672.419       71.657  -332579.859    37755.675       26.236       26.056        2.618        2.553        2.566        2.655        2.476        2.586        2.660        2.470        2.702        2.668        2.667        2.571        2.937        3.006        2.689        2.550        0.480        0.000        0.000        0.000        0.000        0.000        1.000        0.000        0.000        0.000        0.000        0.000        0.000        0.000        0.000        0.000        0.000        0.000        0.000        0.000        0.000        0.000        0.000        0.000        0.000        0.000        0.000        1.000        0.000        1.000        3.000        1.000        0.000        0.000        0.000        0.000      100.000        0.000        0.000        1.874        1.878        3.074
     640.000  -216183.559    20799.290    13186.784    43699.655       77.628  -332900.230    38953.313       26.150       25.882        2.628        2.537        2.596        2.686        2.600        2.567        2.656        2.488        2.645        2.694        2.666        2.528        2.881        3.050        2.663        2.618        0.477        0.000        0.000        1.000        0.000        0.000        2.000        0.000        0.000        0.000        0.000        0.000        0.000        0.000        0.000        1.000        0.000        0.000        0.000        0.000        0.000        0.000        0.000        0.000        0.000        0.000        0.000        1.000        0.000        3.000        2.000        1.000        0.000        0.000        0.000        0.000      100.000        0.000        0.000        1.754        1.767        2.961
     650.000  -216124.165    21022.188    13814.650    43903.308       56.931  -333149.796    38228.555       26.273       26.084        2.594        2.577        2.567        2.706        2.494        2.594        2.697        2.507        2.647        2.650        2.658        2.528        2.964        3.085        2.641        2.605        0.493        0.000        0.000        1.000        0.000        1.000        1.000        0.000        0.000        0.000        0.000        0.000        0.000        0.000        0.000        0.000        0.000        0.000        0.000        0.000        0.000        0.000        0.000        0.000        0.000        0.000        0.000        1.000        0.000        4.000        6.000        0.000        0.000        0.000        0.000        0.000      100.000        0.000        0.000        1.921        1.977        3.140
     660.000  -216565.101    22577.433    12944.134    43729.456       68.164  -333292.623    37408.336       26.312       26.266        2.624        2.540        2.595        2.672        2.481        2.608        2.693        2.619        2.653        2.657        2.660        2.532        2.934        3.020        2.630        2.638        0.491        0.000        0.000        1.000        0.000        0.000        2.000        0.000        0.000        0.000        0.000        0.000        0.000        0.000        2.000        0.000        0.000        0.000        0.000        0.000        0.000        0.000        0.000        0.000        0.000        0.000        0.000        2.000        0.000        1.000       10.000        3.000        0.000        0.000        0.000        0.000      100.000        0.000        0.000        2.007        2.037        3.188
     670.000  -216825.604    21371.067    13533.937    43620.367       89.353  -333626.565    38186.237       26.213       26.082        2.598        2.632        2.599        2.708        2.524        2.602        2.721        2.480        2.649        2.712        2.669        2.541        2.983        3.037        2.682        2.590        0.496        0.000        0.000        1.000        0.000        0.000        1.000        0.000        0.000        0.000        0.000        0.000        0.000        0.000        0.000        0.000        0.000        0.000        0.000        0.000        0.000        0.000        0.000        0.000        0.000        0.000        0.000        2.000        1.000        3.000        9.000        1.000        0.000        0.000        0.000        0.000      100.000        0.000        0.000        2.078        2.102        3.303
     680.000  -216457.440    20782.163    13291.288    43845.711       85.833  -334435.657    39973.222       26.357       26.198        2.585        2.526        2.609        2.706        2.552        2.589        2.684        2.496        2.619        2.636        2.653        2.524        2.961        2.993        2.639        2.581        0.508        0.000        0.000        0.000        0.000        1.000        1.000        0.000        0.000        0.000        0.000        0.000        0.000        0.000        0.000        1.000        0.000        0.000        0.000        0.000        0.000        0.000        0.000        0.000        0.000        0.000        0.000        1.000        0.000        1.000        9.000        0.000        0.000        0.000        0.000        0.000      100.000        0.000        0.000        1.918        1.938        3.168
     690.000  -216694.216    20761.538    13560.173    43728.705       78.795  -335063.920    40240.493       26.418       26.155        2.551        2.593        2.580        2.706        2.519        2.592        2.673        2.485        2.664        2.728        2.677        2.562        2.870        2.975        2.651        2.591        0.498        0.000        0.000        1.000        1.000        0.000        1.000        0.000        0.000        0.000        0.000        0.000        0.000        0.000        0.000        0.000        0.000        0.000        0.000        0.000        0.000        0.000        0.000        0.000        0.000        0.000        0.000        1.000        0.000        1.000        6.000        0.000        0.000        0.000        0.000        0.000      100.000        0.000        0.000        1.962        1.961        3.195
     700.000  -215878.909    20939.300    13515.386    43633.979       67.391  -334022.218    39987.253       26.787       26.576        2.557        2.608        2.659        2.700        2.502        2.535        2.655        2.492        2.660        2.650        2.673        2.526        2.921        3.032        2.634        2.617        0.489        0.000        0.000        1.000        0.000        1.000        1.000        0.000        0.000        0.000        0.000        0.000        0.000        0.000        0.000        0.000        0.000        0.000        0.000        0.000        0.000        0.000        0.000        0.000        0.000        0.000        0.000        1.000        0.000        1.000        7.000        0.000        0.000        0.000        0.000        0.000      100.000        0.000        0.000        2.325        2.304        3.371
     710.000  -216673.751    21645.007    13063.242    43581.645       88.712  -332374.901    37322.543       26.404       26.348        2.505        2.599        2.604        2.702        2.519        2.603        2.667        2.550        2.615        2.637        2.713        2.508        2.844        3.038        2.648        2.577        0.488        0.000        0.000        1.000        0.000        0.000        1.000        0.000        0.000        0.000        0.000        0.000        0.000        0.000        0.000        0.000        0.000        0.000        0.000        0.000        0.000        0.000        0.000        0.000        0.000        0.000        0.000        1.000        0.000        2.000       12.000        3.000        0.000        0.000        0.000        0.000      100.000        0.000        0.000        2.213        2.238        3.505
     720.000  -216195.366    20569.287    13928.629    43719.862       88.722  -334262.233    39760.368       26.203       25.984        2.583        2.554        2.615        2.709        2.537        2.602        2.665        2.473        2.639        2.579        2.647        2.502        2.997        3.030        2.613        2.645        0.482        0.000        0.000        0.000        0.000        1.000        1.000        0.000        0.000        0.000        0.000        0.000        0.000        0.000        0.000        0.000        0.000        0.000        0.000        0.000        0.000        0.000        0.000        0.000        0.000        0.000        0.000        4.000        0.000        1.000        7.000        1.000        0.000        0.000        4.494        0.000       95.506        0.000        0.000        2.097        2.118        3.300
     730.000  -216105.048    20830.257    13552.152    43858.337       61.872  -333453.332    39045.665       26.242       26.207        2.574        2.562        2.557        2.702        2.564        2.640        2.637        2.471        2.640        2.658        2.670        2.591        2.928        3.059        2.642        2.600        0.475        0.000        0.000        1.000        0.000        0.000        1.000        0.000        0.000        0.000        0.000        0.000        0.000        0.000        1.000        0.000        0.000        0.000        0.000        0.000        0.000        0.000        0.000        0.000        0.000        1.000        0.000        2.000        0.000        0.000       11.000        0.000        0.000        0.000        0.000        0.000      100.000        0.000        0.000        2.404        2.417        3.535
     740.000  -215952.906    21916.354    13897.677    43832.198       56.535  -333983.174    38327.505       26.452       26.441        2.607        2.609        2.597        2.682        2.549        2.581        2.678        2.472        2.643        2.601        2.670        2.535        3.081        3.023        2.637        2.577        0.492        0.000        0.000        1.000        0.000        1.000        1.000        0.000        0.000        1.000        0.000        0.000        0.000        0.000        0.000        0.000        0.000        0.000        0.000        0.000        0.000        0.000        0.000        0.000        0.000        0.000        0.000        2.000        0.000        2.000        5.000        0.000        0.000        0.000        0.000        0.000      100.000        0.000        0.000        2.507        2.531        3.617
     750.000  -216226.859    22068.638    13555.623    43714.032       99.565  -333509.215    37844.498       26.432       26.178        2.660        2.583        2.629        2.693        2.571        2.573        2.715        2.462        2.695        2.681        2.694        2.495        2.922        2.990        2.600        2.627        0.476        0.000        0.000        1.000        0.000        0.000        1.000        0.000        0.000        0.000        0.000        0.000        0.000        0.000        1.000        1.000        0.000        0.000        0.000        0.000        0.000        0.000        0.000        0.000        0.000        0.000        0.000        4.000        0.000        1.000        5.000        2.000        0.000        0.000        0.000        0.000      100.000        0.000        0.000        2.398        2.395        3.525
     760.000  -215703.772    21392.526    13717.744    43624.628       92.484  -331948.996    37417.842       26.472       26.331        2.645        2.599        2.587        2.697        2.518        2.576        2.684        2.477        2.641        2.618        2.662        2.518        2.971        3.041        2.732        2.565        0.479        0.000        0.000        1.000        0.000        0.000        0.000        0.000        0.000        0.000        0.000        0.000        0.000        0.000        0.000        0.000        0.000        0.000        0.000        0.000        0.000        0.000        0.000        0.000        0.000        1.000        0.000        1.000        0.000        2.000        6.000        0.000        0.000        0.000        0.000        0.000      100.000        0.000        0.000        2.213        2.200        3.479
     770.000  -216140.357    21646.974    13207.216    43838.600       83.184  -332386.117    37469.785       26.677       26.501        2.616        2.573        2.590        2.672        2.474        2.593        2.731        2.497        2.708        2.603        2.659        2.470        2.954        3.025        2.683        2.635        0.484        0.000        0.000        1.000        0.000        0.000        1.000        0.000        0.000        0.000        0.000        0.000        0.000        0.000        0.000        0.000        0.000        0.000        0.000        0.000        0.000        0.000        0.000        0.000        0.000        0.000        0.000        1.000        0.000        3.000        5.000        0.000        0.000        0.000        0.000        0.000      100.000        0.000        0.000        2.336        2.309        3.622
     780.000  -216889.399    21489.492    13511.923    43664.827       63.047  -333165.876    37547.187       26.334       26.408        2.645        2.560        2.586        2.746        2.483        2.598        2.680        2.471        2.717        2.617        2.686        2.526        2.935        2.948        2.675        7.683        0.486        0.000        0.000        1.000        0.000        0.000        0.000        0.000        0.000        0.000        0.000        0.000        0.000        0.000        0.000        0.000        0.000        0.000        0.000        0.000        0.000        0.000        0.000        0.000        0.000        0.000        0.000        4.000        0.000        3.000        7.000        3.000        0.000        0.000        0.000        0.000      100.000        0.000        0.000        2.126        2.103        3.757
     790.000  -217030.708    21176.534    13107.515    43927.432       72.046  -334657.285    39343.051       26.348       26.331        2.623        2.593        2.594        2.682        2.494        2.574        2.635        2.465        2.721        2.658        2.667        2.516        2.969        2.990        2.684       10.247        0.469        0.000        0.000        1.000        0.000        0.000        1.000        0.000        0.000        0.000        0.000        0.000        0.000        0.000        0.000        0.000        0.000        0.000        0.000        0.000        0.000        0.000        0.000        0.000        0.000        0.000        0.000        3.000        0.000        1.000        7.000        0.000        0.000        0.000        0.000        0.000      100.000        0.000        0.000        2.395        2.421        3.760
     800.000  -215974.372    21484.398    13163.078    43923.995       67.530  -332525.623    37912.251       26.192       26.159        2.666        2.556        2.598        2.709        2.469        2.538        2.641        2.478        2.633        2.646        2.608        2.519        2.898        3.000        2.692        2.606        0.480        0.000        0.000        1.000        0.000        0.000        1.000        0.000        0.000        0.000        0.000        0.000        0.000        0.000        0.000        0.000        0.000        0.000        0.000        0.000        0.000        0.000        0.000        0.000        0.000        0.000        0.000        1.000        0.000        1.000        3.000        1.000        0.000        0.000        0.000        0.000      100.000        0.000        0.000        2.008        2.014        3.398
     810.000  -216143.902    21471.243    13099.126    43883.002       82.343  -332468.337    37788.721       26.440       26.480        2.663        2.578        2.574        2.652        2.517        2.566        2.688        2.485        2.671        2.680        2.583        2.555        2.990        3.000        2.689        2.587        0.484        0.000        0.000        1.000        0.000        0.000        0.000        0.000        0.000        0.000        0.000        0.000        0.000        0.000        1.000        0.000        0.000        0.000        0.000        0.000        0.000        0.000        0.000        0.000        0.000        0.000        0.000        3.000        0.000        0.000        4.000        1.000        0.000        0.000        0.000        0.000      100.000        0.000        0.000        2.442        2.426        3.751
     820.000  -216038.430    20958.530    13151.147    43682.113       53.457  -332410.994    38527.317       26.297       26.115        2.665        2.630        2.568        2.614        2.558        2.560        2.700        2.557        2.669        2.705        2.642        2.582        2.962        3.004        2.693        7.576       18.453        0.000        0.000        1.000        0.000        0.000        1.000        0.000        0.000        0.000        0.000        0.000        0.000        0.000        0.000        0.000        0.000        0.000        0.000        0.000        0.000        0.000        0.000        0.000        0.000        0.000        0.000        4.000        0.000        2.000        5.000        0.000        0.000        0.000        0.000        0.000      100.000        0.000        0.000        2.193        2.183        3.683
     830.000  -215808.389    20971.160    13148.713    43916.781       84.602  -332955.819    39026.174       26.052       25.824        2.685        2.568        2.548        2.716        2.492        2.532        2.711        2.537        2.636        2.655        2.663        2.503        2.997        3.026        2.645       15.806        0.488        0.000        0.000        0.000        0.000        0.000        1.000        0.000        0.000        0.000        0.000        0.000        0.000        0.000        0.000        1.000        0.000        0.000        0.000        0.000        0.000        0.000        0.000        0.000        0.000        0.000        0.000        4.000        1.000        1.000        3.000        2.000        0.000        0.000        0.000        0.000      100.000        0.000        0.000        1.896        1.895        3.732
     840.000  -215640.540    21582.089    13545.154    43855.521       85.416  -333157.221    38448.500       26.132       26.035        2.610        2.637        2.640        2.689        2.523        2.555        2.661        2.514        2.637        2.659        2.692        2.549        2.924        3.027        2.679        2.625        0.489        0.000        0.000        1.000        0.000        0.000        0.000        0.000        0.000        0.000        0.000        0.000        0.000        0.000        1.000        0.000        0.000        0.000        0.000        0.000        0.000        0.000        0.000        0.000        0.000        0.000        0.000        1.000        0.000        0.000        5.000        1.000        0.000        0.000        0.000        0.000      100.000        0.000        0.000        2.324        2.313        3.964
     850.000  -216279.755    22045.606    13225.677    44016.143       73.162  -332828.204    37187.862       26.262       26.293        2.623        2.608        2.563        2.692        2.541        2.562        2.678        2.465        2.660        2.670        2.669        2.489        2.984        3.013        2.700       10.095       18.405        0.000        0.000        1.000        0.000        0.000        1.000        0.000        0.000        0.000        0.000        0.000        0.000        0.000        0.000        1.000        0.000        0.000        0.000        0.000        0.000        0.000        0.000        0.000        0.000        0.000        0.000        2.000        0.000        0.000        5.000        1.000        0.000        0.000        0.000        0.000      100.000        0.000        0.000        2.158        2.144        3.792
     860.000  -216498.457    21145.749    12833.611    43819.605       98.677  -333884.775    39488.676       26.047       25.887        2.574        2.574        2.524        2.691        2.516        2.547        2.630        2.476        2.650        2.650        2.669        2.505        2.989        3.035        2.695        2.620        0.503        0.000        0.000        1.000        0.000        0.000        1.000        0.000        0.000        0.000        0.000        0.000        0.000        0.000        0.000        0.000        0.000        0.000        0.000        0.000        0.000        0.000        0.000        0.000        0.000        0.000        0.000        2.000        0.000        1.000        3.000        0.000        0.000        0.000        0.000        0.000      100.000        0.000        0.000        2.122        2.071        3.683
     870.000  -216326.308    20814.908    13166.017    43756.278      112.499  -333145.820    38969.811       26.212       26.137        2.618        2.540        2.582        2.657        2.462        2.557        2.668        2.498        2.640        2.641        2.668        2.540        2.998        3.045        2.621        2.579        0.493        0.000        0.000        1.000        0.000        0.000        0.000        0.000        0.000        0.000        0.000        0.000        0.000        0.000        0.000        1.000        0.000        0.000        0.000        0.000        0.000        0.000        0.000        0.000        0.000        0.000        0.000        1.000        0.000        0.000        2.000        1.000        0.000        0.000        0.000        0.000      100.000        0.000        0.000        2.368        2.306        3.884
     880.000  -216970.377    21850.731    12632.824    43741.067       77.516  -333035.044    37762.529       26.503       26.265        2.559        2.589        2.609        2.687        2.475        2.527        2.610        2.554        2.625        2.652        2.639        2.572        3.004        2.949        2.622        2.615        0.492        0.000        0.000        1.000        0.000        0.000        0.000        0.000        0.000        0.000        0.000        0.000        0.000        0.000        0.000        1.000        0.000        0.000        0.000        0.000        0.000        0.000        0.000        0.000        0.000        0.000        0.000        3.000        0.000        1.000       11.000        1.000        0.000        0.000        4.494        0.000       95.506        0.000        0.000        2.548        2.465        3.862
     890.000  -215544.366    21655.800    13130.328    43698.084       67.458  -332159.406    38063.370       26.415       26.308        2.605        2.578        2.583        2.697        2.514        2.609        2.632        2.420        2.663        2.671        2.576        2.488        2.954        3.029        2.658        2.593       18.426        0.000        0.000        0.000        0.000        0.000        0.000        0.000        0.000        0.000        0.000        0.000        0.000        0.000        0.000        0.000        0.000        0.000        0.000        0.000        0.000        0.000        0.000        0.000        0.000        0.000        0.000        3.000        0.000        1.000        4.000        1.000        0.000        0.000        4.494        0.000       95.506        0.000        0.000        2.505        2.431        3.990
     900.000  -216045.547    21154.881    12707.325    43773.420       65.852  -332002.406    38255.381       26.402       26.258        2.588        2.603        2.539        2.703        2.515        2.598        2.685        2.469        2.643        2.658        2.692        2.573        2.947        2.987        2.711        7.587       18.429        0.000        0.000        0.000        0.000        0.000        1.000        0.000        0.000        0.000        0.000        0.000        0.000        0.000        0.000        1.000        0.000        0.000        0.000        0.000        0.000        0.000        0.000        0.000        0.000        0.000        0.000        2.000        1.000        0.000        2.000        4.000        0.000        0.000        4.494        0.000       95.506        0.000        0.000        2.494        2.434        3.944
     910.000  -215789.889    21450.177    13305.006    43715.858       78.421  -332058.248    37718.897       26.427       26.026        2.583        2.554        2.564        2.658        2.489        2.596        2.690        2.492        2.629        2.606        2.656        2.499        2.958        2.989        2.674        7.567       18.495        0.000        0.000        0.000        0.000        0.000        1.000        0.000        0.000        0.000        0.000        0.000        0.000        0.000        0.000        0.000        0.000        0.000        0.000        0.000        0.000        0.000        0.000        0.000        0.000        0.000        0.000        3.000        1.000        1.000        6.000        1.000        0.000        0.000        4.494        0.000       95.506        0.000        0.000        2.373        2.327        3.734
     920.000  -216368.245    21001.997    12972.091    43983.433       81.460  -333421.650    39014.424       26.246       25.906        2.565        2.549        2.593        2.652        2.537        2.562        2.666        2.482        2.664        2.607        2.635        2.454        2.954        2.979        2.704        2.552        0.492        0.000        0.000        0.000        0.000        0.000        2.000        0.000        0.000        0.000        0.000        0.000        0.000        0.000        1.000        1.000        0.000        0.000        0.000        0.000        0.000        0.000        0.000        0.000        0.000        1.000        0.000        1.000        1.000        1.000        8.000        1.000        0.000        0.000        0.000        0.000      100.000        0.000        0.000        2.472        2.435        3.812
     930.000  -216416.501    22236.479    12798.702    43911.464       87.854  -332762.230    37311.231       26.207       25.927        2.588        2.535        2.550        2.648        2.489        2.561        2.670        2.536        2.694        2.588        2.652        2.480        2.923        3.008        2.633        2.561        0.486        0.000        0.000        0.000        0.000        0.000        1.000        0.000        0.000        0.000        0.000        0.000        0.000        0.000        0.000        0.000        0.000        0.000        0.000        0.000        0.000        0.000        0.000        0.000        0.000        0.000        0.000        0.000        0.000        1.000        4.000        2.000        0.000        0.000        0.000        0.000      100.000        0.000        0.000        2.546        2.480        4.006
     940.000  -216231.564    21783.155    13247.110    43823.207       90.698  -333516.745    38341.010       26.319       26.254        2.573        2.619        2.579        2.681        2.532        2.588        2.696        2.464        2.643        2.623        2.665        2.505        2.886        3.104        2.649        2.524        0.495        0.000        0.000        0.000        0.000        0.000        0.000        0.000        0.000        0.000        0.000        0.000        0.000        0.000        0.000        0.000        0.000        0.000        0.000        0.000        0.000        0.000        0.000        0.000        0.000        0.000        0.000        2.000        1.000        1.000        4.000        0.000        0.000        0.000        4.494        0.000       95.506        0.000        0.000        2.363        2.302        3.834
     950.000  -216574.119    22262.888    13052.139    43705.559       73.126  -333352.238    37684.408       25.960       26.176        2.619        2.563        2.541        2.720        2.545        2.556        2.630        2.496        2.691        2.605        2.681        2.549        2.928        3.085        2.695        2.572        0.487        0.000        0.000        0.000        1.000        0.000        1.000        0.000        0.000        0.000        0.000        0.000        0.000        0.000        0.000        0.000        0.000        0.000        0.000        0.000        0.000        0.000        0.000        0.000        0.000        0.000        0.000        4.000        1.000        1.000        7.000        0.000        0.000        0.000        4.494        0.000       95.506        0.000        0.000        2.390        2.321        3.807
     960.000  -215805.185    20752.458    13287.797    44024.267       79.031  -331715.629    37766.891       26.093       26.190        2.583        2.620        2.581        2.680        2.469        2.610        2.589        2.439        2.692        2.640        2.649        2.581        2.940        3.028        2.684        2.595        0.484        0.000        0.000        0.000        1.000        0.000        0.000        0.000        0.000        0.000        0.000        0.000        0.000        0.000        0.000        1.000        0.000        0.000        0.000        0.000        0.000        0.000        0.000        0.000        0.000        0.000        0.000        5.000        2.000        1.000        6.000        1.000        0.000        0.000        0.000        0.000      100.000        0.000        0.000        2.208        2.134        3.664
     970.000  -216328.551    21987.052    12997.230    43521.927       71.596  -332331.699    37425.343       26.381       26.147        2.589        2.662        2.580        2.690        2.597        2.597        2.661        2.470        2.726        2.631        2.698        2.545        2.943        3.051        2.687        2.569        0.474        0.000        0.000        0.000        0.000        0.000        1.000        0.000        0.000        0.000        0.000        0.000        0.000        0.000        0.000        0.000        0.000        0.000        0.000        0.000        0.000        0.000        0.000        0.000        0.000        0.000        0.000        4.000        1.000        0.000        1.000        0.000        0.000        0.000        0.000        0.000      100.000        0.000        0.000        2.371        2.327        3.906
     980.000  -216624.962    21829.063    13175.798    43487.928       70.556  -332433.518    37245.212       26.198       26.219        2.590        2.614        2.620        2.686        2.573        2.537        2.635        2.463        2.647        2.584        2.734        2.512        2.955        3.063        2.715        2.605        0.490        0.000        0.000        0.000        0.000        0.000        2.000        0.000        0.000        0.000        0.000        0.000        0.000        0.000        0.000        0.000        0.000        0.000        0.000        0.000        0.000        0.000        0.000        0.000        0.000        0.000        0.000        5.000        1.000        2.000        4.000        0.000        0.000        0.000        4.494        0.000       95.506        0.000        0.000        2.237        2.207        3.674
     990.000  -216090.344    22106.491    13206.239    43727.423       97.905  -332614.084    37385.682       25.963       26.156        2.658        2.611        2.605        2.675        2.541        2.567        2.656        2.517        2.630        2.655        2.677        2.509        2.931        2.958        2.700        2.602        0.473        0.000        0.000        0.000        0.000        0.000        2.000        0.000        0.000        0.000        0.000        0.000        0.000        0.000        1.000        0.000        0.000        0.000        0.000        0.000        0.000        0.000        0.000        0.000        0.000        0.000        0.000        1.000        0.000        1.000        2.000        1.000        0.000        0.000        4.494        0.000       95.506        0.000        0.000        2.271        2.224        3.665
    1000.000  -216050.889    21049.847    12955.232    43778.341       76.659  -333227.079    39316.111       25.934       26.408        2.654        2.591        2.625        2.690        2.573        2.618        2.692        2.452        2.612        2.661        2.630        2.501        2.927        3.050        2.680        2.573        0.480        0.000        0.000        0.000        1.000        0.000        2.000        0.000        0.000        0.000        0.000        0.000        1.000        0.000        0.000        1.000        0.000        0.000        0.000        0.000        0.000        0.000        0.000        0.000        0.000        0.000        0.000        6.000        1.000        0.000        4.000        1.000        0.000        0.000        0.000        0.000      100.000        0.000        0.000        2.376        2.333        3.664
     Average  -217752.815    21893.487    13248.613    43820.819       77.756  -335709.141    38915.651       26.170       26.022        2.607        2.579        2.588        2.688        2.539        2.578        2.674        2.512        2.651        2.644        2.668        2.520        2.950        3.016        2.645        3.067        1.374        0.000        0.000        0.455        0.040        0.990        2.000        0.168        0.000        0.010        0.000        0.000        0.010        0.000        0.208        0.356        0.000        0.000        0.000        0.000        0.000        0.000        0.000        0.000        0.000        0.079        0.000        1.812        0.297        0.931        6.119        0.713        0.000        0.000        0.712        0.000       99.288        0.000        0.000        1.950        1.951        2.956

