____Time[ps] Energy[ kJ/mol ]_____Bond _______Angle ____Dihedral ___Planarity _____Coulomb _________VdW _Your result _Your result _Your result _Your result _Your result _Your result _Your result _Your result _Your result _Your result _Your result _Your result _Your result _Your result _Your result _Your result _Your result _Your result _Your result _Your result _Your result _Your result _Your result _Your result _Your result _Your result _Your result _Your result _Your result _Your result _Your result _Your result _Your result _Your result _Your result _Your result _Your result _Your result _Your result _Your result _Your result _Your result _Your result _Your result _Your result _Your result _Your result _Your result _Your result _Your result _Your result _Your result _Your result _Your result _Your result _Your result _Your result _RMSDs[A]:CA ____Backbone __HeavyAtoms
       0.000  -317056.035     6642.726     4873.950    44086.963       10.868  -432617.024    59946.483       25.424       25.487        2.538        2.608        2.582        2.690        3.167        3.002        3.230        3.026        3.237        3.180        3.090        3.169        2.495        2.506        2.545        2.588        0.491        1.000        0.000        1.000        0.000        1.000        7.000        0.000        0.000        0.000        0.000        0.000        0.000        0.000        1.000        0.000        0.000        0.000        0.000        0.000        0.000        0.000        0.000        0.000        0.000        1.000        0.000        2.000        0.000        2.000        2.000        0.000        0.000        0.000        0.000        0.000      100.000        0.000        0.000        0.452        0.476        0.552
      10.000  -238780.628    27150.852    14111.198    43832.363       90.162  -370821.322    46856.119       25.777       25.689        2.527        2.644        2.674        2.702        3.252        3.049        3.209        3.080        3.297        3.164        3.114        3.122        2.477        2.519        2.595        2.541        0.476        0.000        0.000        1.000        0.000        1.000        4.000        0.000        0.000        0.000        0.000        0.000        0.000        0.000        2.000        0.000        0.000        0.000        0.000        0.000        0.000        0.000        0.000        0.000        0.000        1.000        0.000        2.000        0.000        0.000        8.000        0.000        0.000        0.000        0.000        0.000      100.000        0.000        0.000        1.444        1.462        1.648
      20.000  -238741.495    28627.661    14840.333    43525.747       71.780  -370569.757    44762.741       25.948       25.892        2.541        2.612        2.660        2.713        3.234        3.038        3.174        3.113        3.214        3.255        3.157        3.126        2.506        2.537        2.578        2.549        0.491        1.000        0.000        1.000        0.000        1.000        5.000        0.000        0.000        0.000        0.000        0.000        0.000        0.000        0.000        0.000        0.000        0.000        0.000        0.000        0.000        0.000        0.000        0.000        0.000        1.000        0.000        1.000        0.000        0.000        0.000        0.000        0.000        0.000        0.000        0.000      100.000        0.000        0.000        1.826        1.854        1.939
      30.000  -238814.925    26882.971    14559.659    43694.755       80.336  -369250.108    45217.463       25.695       25.734        2.538        2.654        2.647        2.693        3.180        3.039        3.234        3.059        3.296        3.217        3.151        3.066        2.540        2.490        2.578        2.530        0.509        0.000        0.000        1.000        0.000        1.000        4.000        0.000        0.000        0.000        0.000        0.000        0.000        0.000        1.000        0.000        0.000        0.000        0.000        0.000        0.000        0.000        0.000        0.000        0.000        1.000        0.000        1.000        0.000        1.000        5.000        1.000        0.000        0.000        0.000        0.000      100.000        0.000        0.000        1.556        1.573        1.737
      40.000  -238340.720    25532.667    14877.691    43793.410       78.948  -368303.917    45680.480       25.695       25.765        2.578        2.649        2.652        2.709        3.234        3.011        3.265        3.093        3.262        3.216        3.171        3.099        2.493        2.561        2.578        2.541        0.502        1.000        0.000        1.000        0.000        1.000        5.000        0.000        0.000        0.000        0.000        0.000        0.000        1.000        1.000        0.000        0.000        0.000        0.000        0.000        0.000        0.000        0.000        0.000        0.000        0.000        0.000        2.000        0.000        0.000        6.000        0.000        0.000        0.000        0.000        0.000      100.000        0.000        0.000        1.300        1.305        1.605
      50.000  -238290.866    25550.626    15145.583    43830.394       75.351  -367743.596    44850.775       26.002       25.955        2.551        2.573        2.619        2.704        3.202        2.944        3.262        3.083        3.242        3.209        3.146        3.045        2.509        2.548        2.627        2.552        0.489        1.000        0.000        1.000        0.000        1.000        5.000        0.000        0.000        0.000        0.000        0.000        0.000        0.000        0.000        0.000        0.000        0.000        0.000        0.000        0.000        0.000        0.000        0.000        0.000        0.000        0.000        1.000        0.000        0.000        5.000        0.000        0.000        0.000        0.000        0.000      100.000        0.000        0.000        1.453        1.463        1.697
      60.000  -237838.250    25894.678    15001.542    43388.168       75.162  -366510.157    44312.358       26.039       26.103        2.554        2.655        2.574        2.684        3.263        3.072        3.285        3.077        3.260        3.202        3.103        3.185        2.510        2.496        2.598        2.548        0.475        1.000        0.000        1.000        0.000        1.000        4.000        0.000        0.000        0.000        0.000        1.000        0.000        0.000        3.000        0.000        0.000        0.000        0.000        0.000        0.000        0.000        0.000        0.000        0.000        1.000        0.000        1.000        0.000        0.000        2.000        0.000        0.000        0.000        0.000        0.000      100.000        0.000        0.000        1.596        1.608        1.820
      70.000  -236881.376    25441.165    14775.434    43639.176       72.313  -365606.147    44796.683       25.899       25.883        2.551        2.606        2.639        2.711        3.295        2.983        3.253        3.118        3.234        3.261        3.148        3.202        2.569        2.514        2.552        2.603        0.476        1.000        0.000        1.000        0.000        1.000        4.000        0.000        0.000        0.000        0.000        0.000        0.000        0.000        1.000        0.000        0.000        0.000        0.000        0.000        0.000        0.000        0.000        0.000        0.000        1.000        0.000        1.000        0.000        0.000        1.000        0.000        0.000        0.000        0.000        0.000      100.000        0.000        0.000        1.599        1.650        1.948
      80.000  -236561.354    26545.933    14932.631    43679.902       93.936  -364233.217    42419.461       25.951       25.802        2.561        2.617        2.596        2.705        3.332        3.051        3.277        3.093        3.218        3.263        3.086        3.179        2.514        2.508        2.568        2.566        0.489        0.000        0.000        1.000        0.000        1.000        4.000        0.000        0.000        0.000        0.000        0.000        0.000        0.000        1.000        0.000        0.000        0.000        0.000        0.000        0.000        0.000        0.000        0.000        0.000        0.000        0.000        3.000        0.000        0.000        2.000        0.000        0.000        0.000        0.000        0.000      100.000        0.000        0.000        1.354        1.395        1.728
      90.000  -236253.899    25716.081    14737.233    43736.917       74.134  -363686.359    43168.095       25.521       25.907        2.505        2.640        2.639        2.757        3.299        3.130        3.246        3.096        3.268        3.308        3.109        3.202        2.466        2.530        2.557        2.558        0.486        1.000        0.000        1.000        0.000        1.000        5.000        0.000        0.000        0.000        0.000        1.000        0.000        0.000        0.000        0.000        0.000        0.000        0.000        0.000        0.000        0.000        0.000        0.000        0.000        0.000        0.000        2.000        1.000        0.000        4.000        0.000        0.000        0.000        0.000        0.000      100.000        0.000        0.000        1.384        1.402        1.743
     100.000  -236551.804    23912.302    14917.134    43661.256       69.007  -364074.169    44962.667       25.548       25.722        2.471        2.610        2.614        2.693        3.273        3.091        3.243        3.143        3.275        3.248        3.110        3.178        2.498        2.543        2.564        2.490        0.491        0.000        0.000        0.000        0.000        1.000        4.000        0.000        0.000        0.000        0.000        0.000        0.000        0.000        0.000        0.000        0.000        0.000        0.000        0.000        0.000        0.000        0.000        0.000        0.000        0.000        0.000        2.000        2.000        0.000        7.000        1.000        0.000        0.000        0.000        0.000      100.000        0.000        0.000        1.463        1.475        1.846
     110.000  -236236.683    24223.287    14672.663    43836.657       75.037  -365197.567    46153.241       25.360       25.603        2.544        2.583        2.634        2.687        3.226        3.071        3.257        3.057        3.232        3.236        3.172        3.074        2.460        2.510        2.589        2.518        0.478        0.000        0.000        1.000        0.000        1.000        5.000        0.000        0.000        0.000        0.000        0.000        0.000        0.000        1.000        0.000        0.000        0.000        0.000        0.000        0.000        0.000        0.000        0.000        0.000        2.000        0.000        2.000        2.000        0.000        5.000        0.000        0.000        0.000        0.000        0.000      100.000        0.000        0.000        1.438        1.452        2.019
     120.000  -236485.771    24252.540    14959.752    43601.412       68.750  -363348.950    43980.725       25.632       25.856        2.514        2.588        2.668        2.701        3.249        3.050        3.230        3.129        3.243        3.168        3.101        3.086        2.459        2.510        2.600        2.625        0.490        1.000        0.000        0.000        0.000        1.000        5.000        0.000        0.000        0.000        0.000        0.000        0.000        0.000        1.000        0.000        0.000        0.000        0.000        0.000        0.000        0.000        0.000        0.000        0.000        0.000        0.000        6.000        0.000        1.000        4.000        1.000        0.000        0.000        0.000        0.000      100.000        0.000        0.000        1.622        1.637        2.192
     130.000  -235446.322    23666.015    14774.647    43890.902       73.732  -362249.467    44397.849       25.685       25.892        2.517        2.670        2.639        2.708        3.269        3.051        3.202        3.052        3.273        3.296        3.105        3.042        2.503        2.533        2.576        2.599        0.486        0.000        0.000        1.000        0.000        1.000        4.000        0.000        0.000        0.000        0.000        0.000        0.000        0.000        0.000        0.000        0.000        0.000        0.000        0.000        0.000        0.000        0.000        0.000        0.000        0.000        0.000        1.000        0.000        1.000        4.000        0.000        0.000        0.000        0.000        0.000      100.000        0.000        0.000        1.487        1.527        2.154
     140.000  -235014.163    24733.813    14978.546    43610.300       70.861  -362534.381    44126.698       25.972       26.274        2.561        2.624        2.638        2.742        3.247        3.029        3.210        3.039        3.254        3.188        3.020        3.152        2.535        2.520        2.578        2.604        0.463        0.000        0.000        1.000        0.000        1.000        5.000        0.000        0.000        0.000        0.000        0.000        0.000        0.000        1.000        0.000        0.000        0.000        0.000        0.000        0.000        0.000        0.000        0.000        0.000        0.000        0.000        4.000        0.000        0.000        6.000        0.000        0.000        0.000        0.000        0.000      100.000        0.000        0.000        1.736        1.772        2.375
     150.000  -235835.444    24733.226    14536.381    43618.557       79.108  -362807.834    44005.118       25.861       25.951        2.532        2.624        2.694        2.701        3.250        3.006        3.180        3.036        3.221        3.184        3.025        3.068        2.524        2.524        2.640        2.608        0.470        1.000        0.000        1.000        0.000        1.000        5.000        0.000        0.000        0.000        0.000        0.000        0.000        0.000        1.000        0.000        0.000        0.000        0.000        0.000        0.000        0.000        0.000        0.000        0.000        1.000        0.000        3.000        0.000        2.000        0.000        0.000        0.000        0.000        0.000        0.000      100.000        0.000        0.000        1.648        1.670        2.287
     160.000  -235520.889    24357.418    14733.441    43834.336       82.457  -363686.864    45158.323       25.921       26.055        2.474        2.523        2.685        2.698        3.167        3.085        3.160        3.046        3.238        3.210        3.026        3.050        2.491        2.540        2.605        2.569        0.492        0.000        0.000        1.000        0.000        1.000        4.000        0.000        0.000        0.000        0.000        0.000        0.000        0.000        1.000        0.000        0.000        0.000        0.000        0.000        0.000        0.000        0.000        0.000        0.000        0.000        0.000        2.000        0.000        2.000        4.000        0.000        0.000        0.000        0.000        0.000      100.000        0.000        0.000        1.680        1.702        2.271
     170.000  -236253.405    23911.441    14410.327    43874.635       76.721  -362795.718    44269.189       25.598       25.720        2.482        2.642        2.642        2.683        3.258        3.033        3.144        3.085        3.219        3.139        3.106        3.081        2.485        2.534        2.576        2.605        0.465        0.000        0.000        0.000        0.000        1.000        4.000        0.000        0.000        0.000        0.000        0.000        0.000        0.000        1.000        0.000        0.000        0.000        0.000        0.000        0.000        0.000        0.000        0.000        0.000        1.000        0.000        3.000        0.000        2.000        7.000        0.000        0.000        0.000        0.000        0.000      100.000        0.000        0.000        1.750        1.774        2.288
     180.000  -235559.877    24411.274    14600.659    43878.972       69.964  -361725.737    43204.992       25.704       25.904        2.549        2.619        2.618        2.700        3.323        3.003        3.196        3.102        3.257        3.209        3.093        3.053        2.493        2.494        2.580        2.588        0.478        0.000        0.000        0.000        0.000        0.000        3.000        0.000        0.000        0.000        0.000        0.000        0.000        0.000        0.000        0.000        0.000        0.000        0.000        0.000        0.000        0.000        0.000        0.000        0.000        0.000        0.000        0.000        1.000        0.000        8.000        0.000        0.000        0.000        0.000        0.000      100.000        0.000        0.000        1.651        1.681        2.214
     190.000  -234783.389    24995.511    14675.097    43839.348       86.050  -360228.552    41849.155       25.949       26.321        2.536        2.670        2.706        2.710        3.274        3.022        3.176        3.111        3.210        3.177        3.173        3.193        2.476        2.518        2.628        2.634        0.487        1.000        0.000        0.000        0.000        0.000        2.000        0.000        0.000        0.000        0.000        0.000        0.000        0.000        0.000        0.000        0.000        0.000        0.000        0.000        0.000        0.000        0.000        0.000        0.000        1.000        0.000        3.000        0.000        2.000        8.000        0.000        0.000        0.000        0.000        0.000      100.000        0.000        0.000        1.749        1.785        2.257
     200.000  -235029.858    24191.232    14309.343    43910.795       85.338  -359901.215    42374.649       25.855       26.260        2.535        2.614        2.676        2.739        3.288        3.112        3.188        3.112        3.234        3.226        3.050        3.137        2.493        2.505        2.596        2.606        0.467        1.000        0.000        0.000        0.000        0.000        3.000        0.000        0.000        0.000        0.000        0.000        0.000        0.000        1.000        0.000        0.000        0.000        0.000        0.000        0.000        0.000        0.000        0.000        0.000        0.000        0.000        2.000        0.000        1.000        5.000        0.000        0.000        0.000        0.000        0.000      100.000        0.000        0.000        1.772        1.816        2.242
     210.000  -235185.521    25266.038    14454.982    43701.647       88.520  -361750.498    43053.791       25.739       26.132        2.462        2.623        2.635        2.716        3.219        3.026        3.182        3.100        3.270        3.229        3.028        3.179        2.547        2.542        2.611        2.528        0.480        1.000        0.000        0.000        0.000        0.000        4.000        0.000        0.000        0.000        0.000        0.000        0.000        0.000        2.000        0.000        0.000        0.000        0.000        0.000        0.000        0.000        0.000        0.000        0.000        1.000        0.000        1.000        0.000        0.000        6.000        0.000        0.000        0.000        0.000        0.000      100.000        0.000        0.000        2.023        2.065        2.409
     220.000  -233808.122    23148.462    14761.224    43942.063       70.666  -359377.121    43646.585       25.411       25.921        2.665        2.620        2.675        2.698        3.164        3.073        3.193        3.131        3.192        3.261        3.058        3.179        2.517        2.553        2.631        2.581        0.481        1.000        0.000        1.000        0.000        0.000        3.000        0.000        0.000        0.000        0.000        0.000        0.000        0.000        1.000        0.000        0.000        0.000        0.000        0.000        0.000        0.000        0.000        0.000        0.000        1.000        0.000        2.000        0.000        1.000        7.000        0.000        0.000        0.000        0.000        0.000      100.000        0.000        0.000        2.164        2.214        2.544
     230.000  -234439.352    24710.750    14357.193    43548.185       76.627  -358633.625    41501.518       25.615       25.970        2.564        2.649        2.686        2.713        3.261        3.053        3.218        3.027        3.227        3.190        3.075        3.120        2.503        2.590        2.595        2.556        0.500        1.000        0.000        0.000        0.000        0.000        2.000        0.000        0.000        0.000        0.000        0.000        0.000        0.000        0.000        0.000        0.000        0.000        0.000        0.000        0.000        0.000        0.000        0.000        0.000        1.000        0.000        1.000        0.000        1.000        4.000        0.000        0.000        0.000        0.000        0.000      100.000        0.000        0.000        2.039        2.081        2.404
     240.000  -234774.203    24446.765    14435.991    43720.569       77.578  -359662.171    42207.065       25.667       26.117        2.573        2.673        2.654        2.690        3.217        3.038        3.216        3.023        3.242        3.213        3.024        3.156        2.536        2.569        2.565        2.573        0.475        1.000        0.000        0.000        0.000        0.000        2.000        0.000        0.000        0.000        0.000        0.000        0.000        0.000        0.000        0.000        0.000        0.000        0.000        0.000        0.000        0.000        0.000        0.000        0.000        1.000        0.000        3.000        0.000        0.000        6.000        0.000        0.000        0.000        0.000        0.000      100.000        0.000        0.000        2.006        2.052        2.412
     250.000  -234217.444    23596.149    14059.257    43726.519       78.734  -357938.468    42260.364       25.559       26.009        2.553        2.668        2.680        2.684        3.254        2.976        3.218        3.110        3.253        3.163        3.054        3.162        2.483        2.566        2.628        2.527        0.473        1.000        0.000        1.000        0.000        0.000        2.000        0.000        0.000        0.000        0.000        0.000        0.000        0.000        1.000        0.000        0.000        0.000        0.000        0.000        0.000        0.000        0.000        0.000        0.000        1.000        0.000        1.000        0.000        0.000        7.000        0.000        0.000        0.000        0.000        0.000      100.000        0.000        0.000        1.980        2.033        2.453
     260.000  -234140.544    24154.421    14267.513    43730.184       65.287  -358710.514    42352.564       25.741       26.155        2.568        2.615        2.588        2.728        3.215        2.996        3.200        3.082        3.236        3.149        3.167        3.163        2.475        2.555        2.659        2.541        0.481        0.000        0.000        1.000        0.000        0.000        2.000        0.000        0.000        0.000        0.000        0.000        0.000        1.000        0.000        0.000        0.000        0.000        0.000        0.000        0.000        0.000        0.000        0.000        0.000        0.000        0.000        1.000        0.000        0.000        6.000        0.000        0.000        0.000        0.000        0.000      100.000        0.000        0.000        2.147        2.164        2.572
     270.000  -233487.955    24350.573    14229.679    43696.111       85.030  -357223.247    41373.900       25.771       26.110        2.599        2.671        2.583        2.650        3.298        3.068        3.239        3.023        3.225        3.157        3.123        3.160        2.479        2.540        2.600        2.630        0.489        0.000        0.000        1.000        0.000        1.000        2.000        0.000        0.000        0.000        0.000        0.000        0.000        0.000        2.000        0.000        0.000        0.000        0.000        0.000        0.000        0.000        0.000        0.000        0.000        0.000        0.000        0.000        0.000        0.000        5.000        0.000        0.000        0.000        0.000        0.000      100.000        0.000        0.000        1.929        1.932        2.521
     280.000  -234346.945    24116.765    14240.629    43403.343      112.451  -358535.373    42315.240       25.809       25.940        2.564        2.700        2.574        2.698        3.227        3.094        3.213        2.978        3.223        3.143        3.120        3.077        2.517        2.562        2.627        2.605        0.490        0.000        0.000        1.000        0.000        0.000        2.000        0.000        0.000        0.000        0.000        0.000        0.000        0.000        1.000        0.000        0.000        0.000        0.000        0.000        0.000        0.000        0.000        0.000        0.000        2.000        0.000        2.000        0.000        0.000        3.000        0.000        0.000        0.000        0.000        0.000      100.000        0.000        0.000        1.355        1.373        2.200
     290.000  -233461.611    23385.632    14167.876    43651.823       99.725  -357524.820    42758.154       25.739       26.125        2.547        2.682        2.688        2.645        3.247        3.026        3.235        2.994        3.204        3.232        3.138        3.141        2.486        2.578        2.654        2.597        0.475        0.000        0.000        1.000        0.000        0.000        2.000        0.000        0.000        0.000        0.000        0.000        0.000        0.000        1.000        0.000        0.000        0.000        0.000        0.000        0.000        0.000        0.000        0.000        0.000        2.000        0.000        3.000        0.000        0.000        4.000        0.000        0.000        0.000        0.000        0.000      100.000        0.000        0.000        1.671        1.717        2.283
     300.000  -234628.733    22933.770    14226.226    43420.645       79.830  -358044.270    42755.066       25.792       25.871        2.515        2.607        2.617        2.655        3.286        3.064        3.220        3.015        3.225        3.147        3.081        3.234        2.489        2.631        2.676        2.639        0.487        1.000        0.000        1.000        0.000        0.000        2.000        0.000        0.000        0.000        0.000        0.000        0.000        0.000        0.000        0.000        0.000        0.000        0.000        0.000        0.000        0.000        0.000        0.000        0.000        2.000        0.000        2.000        0.000        0.000        3.000        0.000        0.000        0.000        0.000        0.000      100.000        0.000        0.000        1.686        1.714        2.355
     310.000  -234184.702    23009.184    14320.263    43779.012       97.441  -357902.949    42512.347       25.920       25.840        2.609        2.656        2.658        2.636        3.216        3.058        3.191        2.988        3.157        3.122        3.097        3.153        2.483        2.555        2.667        2.589        0.456        1.000        0.000        0.000        0.000        0.000        2.000        0.000        0.000        0.000        0.000        0.000        0.000        0.000        4.000        0.000        0.000        0.000        0.000        0.000        0.000        0.000        0.000        0.000        0.000        1.000        0.000        2.000        0.000        0.000        5.000        0.000        0.000        0.000        0.000        0.000      100.000        0.000        0.000        1.910        1.939        2.523
     320.000  -233967.205    22645.010    14388.851    43616.184       90.229  -357752.278    43044.799       25.958       26.091        2.568        2.674        2.656        2.670        3.256        3.049        3.174        2.964        3.209        3.214        3.111        3.200        2.493        2.558        2.668        2.631        0.501        1.000        0.000        1.000        0.000        0.000        3.000        0.000        0.000        0.000        0.000        0.000        0.000        0.000        0.000        0.000        0.000        0.000        0.000        0.000        0.000        0.000        0.000        0.000        0.000        0.000        0.000        2.000        0.000        0.000        8.000        0.000        0.000        0.000        0.000        0.000      100.000        0.000        0.000        1.886        1.923        2.531
     330.000  -233642.480    22968.009    14186.566    43648.657       71.591  -357707.655    43190.352       25.770       25.908        2.574        2.706        2.646        2.618        3.209        3.055        3.187        2.995        3.188        3.193        3.087        3.191        2.531        2.593        2.646        2.584        0.482        0.000        0.000        1.000        0.000        0.000        4.000        0.000        0.000        0.000        0.000        0.000        0.000        0.000        3.000        0.000        0.000        0.000        0.000        0.000        0.000        0.000        0.000        0.000        0.000        0.000        0.000        0.000        0.000        0.000        5.000        0.000        0.000        0.000        0.000        0.000      100.000        0.000        0.000        2.258        2.302        2.802
     340.000  -233895.380    23049.532    14193.190    43463.131       89.401  -356018.077    41327.442       25.759       25.951        2.548        2.628        2.659        2.655        3.263        3.014        3.159        2.982        3.206        3.235        3.123        3.239        2.578        2.592        2.696        2.589        0.479        1.000        0.000        1.000        0.000        0.000        2.000        0.000        0.000        0.000        0.000        0.000        0.000        0.000        1.000        0.000        0.000        0.000        0.000        0.000        0.000        0.000        0.000        0.000        0.000        0.000        0.000        1.000        0.000        0.000        5.000        0.000        0.000        0.000        0.000        0.000      100.000        0.000        0.000        2.140        2.195        2.690
     350.000  -233418.845    22469.601    14396.499    43582.567       72.279  -357306.007    43366.215       25.855       25.949        2.572        2.624        2.675        2.654        3.270        3.034        3.243        2.967        3.210        3.246        3.118        3.173        2.512        2.585        2.712        2.564        0.503        1.000        0.000        1.000        0.000        2.000        3.000        0.000        0.000        0.000        0.000        0.000        0.000        0.000        1.000        0.000        0.000        0.000        0.000        0.000        0.000        0.000        0.000        0.000        0.000        1.000        0.000        1.000        0.000        0.000        6.000        0.000        0.000        0.000        0.000        0.000      100.000        0.000        0.000        1.990        2.010        2.706
     360.000  -233590.048    24110.659    14331.169    43442.477       84.507  -356421.296    40862.436       25.886       26.128        2.588        2.667        2.658        2.688        3.262        2.985        3.202        2.988        3.242        3.205        3.139        3.070        2.570        2.593        2.701        2.666        0.479        0.000        0.000        1.000        0.000        2.000        2.000        0.000        0.000        0.000        0.000        0.000        0.000        0.000        1.000        0.000        0.000        0.000        0.000        0.000        0.000        0.000        0.000        0.000        0.000        1.000        0.000        1.000        0.000        0.000        8.000        0.000        0.000        0.000        0.000        0.000      100.000        0.000        0.000        2.275        2.346        2.829
     370.000  -234044.116    23319.770    14244.979    43649.900       85.603  -358154.836    42810.468       25.612       25.984        2.566        2.664        2.600        2.671        3.258        2.975        3.209        3.047        3.260        3.159        3.111        3.143        2.508        2.539        2.668        2.594        0.478        1.000        0.000        1.000        0.000        0.000        1.000        0.000        0.000        0.000        0.000        0.000        0.000        0.000        2.000        0.000        0.000        0.000        0.000        0.000        0.000        0.000        0.000        0.000        0.000        0.000        0.000        1.000        0.000        0.000        7.000        0.000        0.000        0.000        0.000        0.000      100.000        0.000        0.000        2.206        2.229        2.783
     380.000  -233435.689    23519.403    14418.932    43476.028       75.877  -356534.638    41608.709       25.724       26.027        2.604        2.677        2.617        2.681        3.189        2.966        3.207        3.041        3.255        3.151        3.205        3.085        2.533        2.592        2.638        2.611        0.491        1.000        0.000        1.000        0.000        1.000        1.000        0.000        0.000        0.000        0.000        0.000        0.000        0.000        1.000        0.000        0.000        0.000        0.000        0.000        0.000        0.000        0.000        0.000        0.000        1.000        0.000        1.000        0.000        0.000        8.000        0.000        0.000        0.000        0.000        0.000      100.000        0.000        0.000        2.284        2.327        2.893
     390.000  -233805.227    24055.559    13862.962    43642.342       72.086  -356282.257    40844.082       25.881       26.180        2.567        2.663        2.609        2.664        3.211        2.917        3.194        2.966        3.219        3.171        3.160        3.076        2.521        2.564        2.682        2.665        0.475        1.000        0.000        1.000        0.000        1.000        1.000        0.000        0.000        0.000        0.000        0.000        0.000        0.000        2.000        0.000        0.000        0.000        0.000        0.000        0.000        0.000        0.000        0.000        0.000        1.000        0.000        1.000        0.000        0.000        4.000        0.000        0.000        0.000        0.000        0.000      100.000        0.000        0.000        2.422        2.445        3.099
     400.000  -234315.079    23954.745    14282.889    43455.371       71.353  -358172.395    42092.959       25.883       26.088        2.577        2.644        2.634        2.613        3.241        2.907        3.172        3.003        3.230        3.130        3.117        3.120        2.542        2.615        2.668        2.618        0.498        0.000        0.000        1.000        0.000        0.000        3.000        0.000        0.000        0.000        0.000        0.000        0.000        0.000        1.000        0.000        0.000        0.000        0.000        0.000        0.000        0.000        0.000        0.000        0.000        2.000        0.000        1.000        0.000        0.000       14.000        0.000        0.000        0.000        0.000        0.000      100.000        0.000        0.000        2.446        2.482        3.062
     410.000  -234010.358    22746.694    14063.967    43631.328       69.437  -357575.421    43053.638       25.545       26.028        2.585        2.662        2.612        2.657        3.217        2.955        3.231        2.982        3.257        3.179        3.096        3.035        2.548        2.601        2.687        2.596        0.472        0.000        0.000        1.000        0.000        1.000        2.000        0.000        0.000        0.000        0.000        0.000        0.000        0.000        0.000        0.000        0.000        0.000        0.000        0.000        0.000        0.000        0.000        0.000        0.000        1.000        0.000        1.000        0.000        0.000        8.000        0.000        0.000        0.000        0.000        0.000      100.000        0.000        0.000        2.922        2.984        3.451
     420.000  -233661.711    23179.995    14297.582    43601.836       73.275  -356034.361    41219.961       25.698       26.029        2.523        2.669        2.689        2.654        3.164        2.984        3.238        2.962        3.210        3.165        3.166        3.017        2.555        2.580        2.675        2.612        0.471        1.000        0.000        0.000        0.000        2.000        2.000        0.000        0.000        0.000        0.000        0.000        0.000        0.000        3.000        0.000        0.000        0.000        0.000        0.000        0.000        0.000        0.000        0.000        0.000        0.000        0.000        3.000        0.000        0.000        9.000        0.000        0.000        0.000        0.000        0.000      100.000        0.000        0.000        2.807        2.850        3.369
     430.000  -233601.138    22794.646    14084.760    43825.280       78.047  -358498.541    44114.669       25.432       25.566        2.563        2.673        2.648        2.649        3.205        2.981        3.237        2.946        3.241        3.267        3.099        3.081        2.487        2.585        2.581        2.664        0.501        0.000        0.000        0.000        0.000        1.000        2.000        0.000        0.000        0.000        0.000        0.000        0.000        0.000        2.000        0.000        0.000        0.000        0.000        0.000        0.000        0.000        0.000        0.000        0.000        0.000        0.000        2.000        0.000        0.000       12.000        1.000        0.000        0.000        0.000        0.000      100.000        0.000        0.000        3.222        3.268        3.723
     440.000  -233464.397    23537.656    14369.221    43606.025       86.771  -357415.823    42351.753       25.903       25.736        2.524        2.697        2.641        2.646        3.207        3.021        3.189        2.903        3.245        3.172        3.154        3.180        2.472        2.615        2.612        2.566        0.468        1.000        0.000        0.000        0.000        1.000        2.000        0.000        0.000        0.000        0.000        0.000        0.000        0.000        2.000        0.000        0.000        0.000        0.000        0.000        0.000        0.000        0.000        0.000        0.000        2.000        0.000        3.000        0.000        0.000        8.000        0.000        0.000        0.000        0.000        0.000      100.000        0.000        0.000        2.844        2.898        3.356
     450.000  -233866.652    22376.785    14240.696    43818.550       74.670  -357505.206    43127.852       25.973       26.226        2.623        2.669        2.654        2.690        3.208        3.039        3.182        2.999        3.190        3.105        3.147        3.158        2.536        2.572        2.650        2.597        0.483        1.000        0.000        0.000        0.000        0.000        3.000        0.000        0.000        0.000        0.000        0.000        0.000        0.000        2.000        0.000        0.000        0.000        0.000        0.000        0.000        0.000        0.000        0.000        0.000        1.000        0.000        3.000        0.000        1.000        9.000        0.000        0.000        0.000        0.000        0.000      100.000        0.000        0.000        2.668        2.721        3.414
     460.000  -233188.645    23914.688    14193.752    43604.497       92.545  -356094.276    41100.149       25.865       26.126        2.567        2.626        2.705        2.588        3.205        3.042        3.217        2.916        3.212        3.227        3.128        3.165        2.527        2.608        2.595        2.530        0.482        0.000        0.000        0.000        0.000        1.000        3.000        0.000        0.000        0.000        0.000        0.000        0.000        0.000        3.000        0.000        0.000        0.000        0.000        0.000        0.000        0.000        0.000        0.000        0.000        0.000        0.000        0.000        0.000        0.000        4.000        0.000        0.000        0.000        0.000        0.000      100.000        0.000        0.000        2.672        2.718        3.426
     470.000  -234039.529    23406.074    14094.061    43886.490       68.146  -357707.347    42213.047       25.622       26.149        2.541        2.683        2.657        2.583        3.177        3.019        3.242        3.051        3.229        3.167        3.131        3.090        2.539        2.606        2.636        2.606        0.465        0.000        0.000        0.000        0.000        1.000        3.000        0.000        0.000        0.000        0.000        0.000        0.000        0.000        5.000        0.000        0.000        0.000        0.000        0.000        0.000        0.000        0.000        0.000        0.000        0.000        0.000        1.000        0.000        0.000       11.000        0.000        0.000        0.000        4.494        0.000       95.506        0.000        0.000        2.605        2.642        3.448
     480.000  -232773.145    22499.266    14090.265    44068.503      122.719  -356476.356    42922.458       25.668       26.361        2.572        2.637        2.678        2.574        3.277        3.000        3.245        2.982        3.227        3.155        3.111        3.011        2.531        2.601        2.593        2.548        0.505        1.000        0.000        0.000        0.000        0.000        3.000        0.000        0.000        0.000        0.000        0.000        0.000        0.000        2.000        0.000        0.000        0.000        0.000        0.000        1.000        0.000        0.000        0.000        0.000        0.000        0.000        2.000        0.000        0.000        6.000        0.000        0.000        0.000        4.494        0.000       95.506        0.000        0.000        2.669        2.697        3.577
     490.000  -233907.770    23509.107    14154.121    43821.685       83.643  -357267.353    41791.027       25.499       26.004        2.613        2.601        2.671        2.568        3.260        3.014        3.217        2.982        3.262        3.223        3.151        3.044        2.544        2.607        2.595        2.537        0.498        0.000        0.000        0.000        1.000        1.000        3.000        0.000        0.000        0.000        0.000        0.000        0.000        0.000        1.000        0.000        0.000        0.000        0.000        0.000        1.000        0.000        0.000        0.000        0.000        2.000        0.000        2.000        1.000        0.000        7.000        0.000        0.000        0.000        0.000        0.000      100.000        0.000        0.000        3.055        3.069        3.792
     500.000  -232670.581    23616.334    14424.748    43701.323       88.410  -356619.338    42117.943       25.512       25.702        2.509        2.675        2.721        2.581        3.230        2.921        3.276        2.993        3.201        3.207        3.118        3.086        2.547        2.637        2.603        2.616        0.476        0.000        0.000        0.000        0.000        1.000        3.000        0.000        0.000        0.000        0.000        0.000        0.000        0.000        2.000        0.000        0.000        0.000        0.000        0.000        0.000        0.000        0.000        0.000        0.000        0.000        0.000        1.000        2.000        0.000       10.000        0.000        0.000        0.000        0.000        0.000      100.000        0.000        0.000        2.985        2.996        3.714
     510.000  -233537.665    23914.404    14009.787    43816.322       80.591  -355928.904    40570.135       25.596       25.987        2.554        2.629        2.685        2.569        3.274        3.021        3.226        3.002        3.224        3.192        3.112        3.102        2.527        2.600        2.604        2.578        0.491        0.000        0.000        0.000        0.000        2.000        2.000        0.000        0.000        0.000        0.000        0.000        0.000        0.000        0.000        0.000        0.000        0.000        0.000        0.000        0.000        0.000        0.000        0.000        0.000        1.000        0.000        1.000        0.000        0.000       10.000        0.000        0.000        0.000        0.000        0.000      100.000        0.000        0.000        3.056        3.096        3.759
     520.000  -233669.737    22926.301    14099.409    43881.508       91.034  -358392.850    43724.861       25.718       26.024        2.551        2.667        2.601        2.609        3.276        2.925        3.166        2.989        3.215        3.172        3.127        3.031        2.562        2.551        2.594        2.633        0.487        0.000        0.000        0.000        0.000        1.000        3.000        0.000        0.000        0.000        0.000        0.000        0.000        0.000        0.000        0.000        0.000        0.000        0.000        0.000        0.000        0.000        0.000        0.000        0.000        0.000        0.000        2.000        0.000        0.000        7.000        0.000        0.000        0.000        0.000        0.000      100.000        0.000        0.000        2.782        2.831        3.457
     530.000  -232908.121    22372.136    13895.432    43666.474       76.739  -355495.034    42576.134       25.786       26.351        2.583        2.605        2.645        2.606        3.314        2.975        3.205        3.036        3.221        3.194        3.162        3.129        2.515        2.566        2.643        2.582        0.474        1.000        0.000        0.000        1.000        1.000        3.000        0.000        0.000        0.000        0.000        0.000        0.000        0.000        1.000        0.000        0.000        0.000        0.000        0.000        0.000        0.000        0.000        0.000        0.000        0.000        0.000        2.000        2.000        0.000        5.000        0.000        0.000        0.000        0.000        0.000      100.000        0.000        0.000        2.532        2.562        3.345
     540.000  -233476.417    22442.997    14290.516    43578.788       78.902  -356721.366    42853.747       25.670       26.520        2.581        2.681        2.667        2.673        3.272        3.018        3.254        3.055        3.242        3.222        3.244        3.027        2.508        2.632        2.619        2.600        0.476        1.000        0.000        0.000        1.000        0.000        2.000        0.000        0.000        0.000        0.000        0.000        0.000        0.000        1.000        0.000        0.000        0.000        0.000        0.000        0.000        0.000        0.000        0.000        0.000        0.000        0.000        1.000        3.000        0.000        5.000        0.000        0.000        0.000        0.000        0.000      100.000        0.000        0.000        2.875        2.911        3.745
     550.000  -233242.619    23752.363    13898.612    43752.580       71.175  -355406.328    40688.979       25.637       26.344        2.547        2.616        2.639        2.674        3.253        2.959        3.246        3.009        3.266        3.201        3.131        3.078        2.561        2.597        2.652        2.614        0.475        1.000        0.000        0.000        0.000        2.000        1.000        0.000        0.000        0.000        0.000        0.000        0.000        0.000        1.000        0.000        0.000        0.000        0.000        0.000        1.000        0.000        0.000        0.000        0.000        0.000        0.000        1.000        3.000        0.000        6.000        0.000        0.000        0.000        0.000        0.000      100.000        0.000        0.000        2.919        2.952        3.822
     560.000  -233075.883    22501.509    14199.958    43576.173       89.144  -355817.565    42374.898       25.481       26.221        2.555        2.578        2.647        2.689        3.253        3.026        3.232        3.001        3.261        3.188        3.169        3.112        2.561        2.592        2.620        2.577        0.476        1.000        0.000        0.000        0.000        0.000        2.000        0.000        0.000        0.000        0.000        0.000        0.000        0.000        1.000        0.000        0.000        0.000        0.000        0.000        0.000        0.000        0.000        0.000        0.000        1.000        0.000        2.000        0.000        0.000        5.000        0.000        0.000        0.000        0.000        0.000      100.000        0.000        0.000        3.109        3.168        4.077
     570.000  -233701.190    22487.390    13780.409    44080.436       94.256  -356979.692    42836.010       25.406       25.809        2.511        2.606        2.573        2.667        3.256        2.978        3.213        2.990        3.243        3.255        3.180        3.154        2.565        2.636        2.590        2.609        0.502        1.000        0.000        0.000        1.000        0.000        3.000        0.000        0.000        0.000        0.000        0.000        0.000        0.000        3.000        0.000        0.000        0.000        0.000        0.000        0.000        0.000        0.000        0.000        0.000        0.000        0.000        1.000        2.000        0.000        7.000        0.000        0.000        0.000        0.000        0.000      100.000        0.000        0.000        2.700        2.749        3.846
     580.000  -233787.656    22542.506    14234.136    43578.024       88.579  -356526.959    42296.058       25.842       25.985        2.613        2.641        2.621        2.663        3.279        3.048        3.160        3.006        3.221        3.211        3.162        3.103        2.514        2.592        2.666        2.567        0.458        1.000        0.000        0.000        0.000        1.000        3.000        0.000        0.000        0.000        0.000        0.000        0.000        0.000        2.000        0.000        0.000        0.000        0.000        0.000        0.000        0.000        0.000        0.000        0.000        0.000        0.000        0.000        2.000        0.000        4.000        0.000        0.000        0.000        0.000        0.000      100.000        0.000        0.000        2.767        2.822        3.759
     590.000  -233773.677    22607.658    13867.042    43653.671       71.449  -356672.125    42698.627       25.741       25.882        2.563        2.635        2.621        2.706        3.129        2.967        3.227        2.962        3.256        3.161        3.107        3.093        2.500        2.558        2.687        2.589        0.475        0.000        0.000        0.000        0.000        0.000        1.000        0.000        0.000        0.000        0.000        0.000        0.000        0.000        2.000        0.000        0.000        0.000        0.000        0.000        0.000        0.000        0.000        0.000        0.000        1.000        0.000        0.000        0.000        0.000        4.000        0.000        0.000        0.000        0.000        0.000      100.000        0.000        0.000        3.013        3.076        3.817
     600.000  -233048.181    22872.425    14065.697    43826.899       83.417  -356174.041    42277.422       25.771       26.066        2.555        2.633        2.594        2.645        3.234        2.944        3.246        3.000        3.176        3.187        3.215        3.126        2.520        2.578        2.706        2.535        0.477        0.000        0.000        0.000        0.000        2.000        1.000        0.000        0.000        0.000        0.000        1.000        0.000        0.000        0.000        0.000        0.000        0.000        0.000        0.000        0.000        0.000        0.000        0.000        0.000        1.000        0.000        0.000        1.000        0.000        6.000        0.000        0.000        0.000        0.000        0.000      100.000        0.000        0.000        3.456        3.505        4.115
     610.000  -232862.030    23599.565    14283.211    43485.014       76.093  -355905.428    41599.514       25.717       26.112        2.528        2.663        2.650        2.644        3.213        3.032        3.243        3.003        3.189        3.243        3.148        3.109        2.530        2.613        2.599        2.555        0.482        0.000        0.000        0.000        0.000        1.000        1.000        0.000        0.000        0.000        0.000        0.000        0.000        1.000        0.000        0.000        0.000        0.000        0.000        0.000        0.000        0.000        0.000        0.000        0.000        0.000        0.000        0.000        0.000        0.000       11.000        0.000        0.000        0.000        0.000        0.000      100.000        0.000        0.000        3.707        3.783        4.327
     620.000  -233804.513    22653.685    14164.283    43579.227       98.131  -358170.316    43870.477       25.644       25.932        2.546        2.572        2.609        2.664        3.221        3.008        3.189        3.029        3.210        3.210        3.152        3.147        2.488        2.580        2.593        2.588        0.470        0.000        0.000        0.000        0.000        2.000        1.000        0.000        0.000        0.000        0.000        0.000        0.000        0.000        1.000        0.000        0.000        0.000        0.000        0.000        0.000        0.000        0.000        0.000        0.000        1.000        0.000        1.000        0.000        0.000        6.000        0.000        0.000        0.000        0.000        0.000      100.000        0.000        0.000        3.671        3.765        4.263
     630.000  -233287.953    23326.800    14151.465    43743.323       65.879  -357161.727    42586.308       25.731       25.977        2.585        2.604        2.625        2.651        3.169        2.968        3.220        2.962        3.194        3.180        3.189        3.091        2.562        2.592        2.618        2.521        0.509        0.000        0.000        0.000        1.000        0.000        0.000        0.000        0.000        0.000        0.000        0.000        0.000        0.000        0.000        0.000        0.000        0.000        0.000        0.000        1.000        0.000        0.000        0.000        0.000        1.000        0.000        3.000        2.000        0.000        8.000        0.000        0.000        0.000        4.494        0.000       95.506        0.000        0.000        3.557        3.649        4.214
     640.000  -233341.219    23443.752    14032.124    43556.695       87.993  -355656.072    41194.290       25.743       25.699        2.585        2.705        2.645        2.656        3.215        3.007        3.199        2.956        3.197        3.175        3.169        3.177        2.553        2.606        2.636        2.555        0.500        0.000        0.000        0.000        1.000        1.000        1.000        0.000        0.000        0.000        0.000        0.000        0.000        0.000        3.000        0.000        0.000        0.000        0.000        0.000        1.000        0.000        0.000        0.000        0.000        0.000        0.000        1.000        1.000        0.000        8.000        0.000        0.000        0.000        0.000        0.000      100.000        0.000        0.000        3.527        3.600        4.131
     650.000  -234018.699    23212.991    14202.125    43581.350       79.638  -356951.704    41856.901       25.802       26.124        2.643        2.616        2.617        2.610        3.271        3.061        3.248        2.949        3.201        3.144        3.159        3.115        2.541        2.592        2.626        2.599        0.487        0.000        0.000        0.000        1.000        1.000        1.000        0.000        0.000        0.000        0.000        0.000        0.000        0.000        0.000        0.000        0.000        0.000        0.000        0.000        1.000        0.000        0.000        0.000        0.000        0.000        0.000        1.000        2.000        0.000        5.000        0.000        0.000        0.000        0.000        0.000      100.000        0.000        0.000        2.948        3.030        3.704
     660.000  -233277.431    23223.305    14259.819    43550.708       79.041  -355752.375    41362.071       25.720       26.151        2.597        2.623        2.650        2.676        3.187        2.996        3.223        2.909        3.251        3.188        3.177        3.093        2.522        2.615        2.591        2.546        0.469        0.000        0.000        0.000        1.000        1.000        2.000        0.000        0.000        0.000        0.000        0.000        0.000        0.000        3.000        0.000        0.000        0.000        0.000        0.000        1.000        0.000        0.000        0.000        0.000        0.000        0.000        0.000        0.000        0.000        4.000        0.000        0.000        0.000        0.000        0.000      100.000        0.000        0.000        3.029        3.106        3.780
     670.000  -233563.929    23013.909    14164.500    43536.511       95.108  -355143.822    40769.866       25.376       25.770        2.588        2.596        2.658        2.688        3.271        2.958        3.245        3.026        3.217        3.210        3.165        3.108        2.543        2.577        2.649        2.587        0.477        0.000        0.000        0.000        1.000        1.000        2.000        0.000        0.000        0.000        0.000        0.000        0.000        0.000        1.000        0.000        0.000        0.000        0.000        0.000        1.000        0.000        0.000        0.000        0.000        1.000        0.000        0.000        1.000        0.000        8.000        0.000        0.000        0.000        4.494        0.000       95.506        0.000        0.000        2.910        2.989        3.841
     680.000  -233176.540    22700.989    14331.897    43568.856       86.837  -356553.935    42688.817       25.642       26.098        2.559        2.649        2.597        2.663        3.276        2.998        3.198        3.047        3.210        3.237        3.131        3.121        2.541        2.601        2.610        2.584        0.498        1.000        0.000        0.000        1.000        0.000        2.000        0.000        0.000        0.000        0.000        0.000        0.000        0.000        0.000        0.000        0.000        0.000        0.000        0.000        1.000        0.000        0.000        0.000        0.000        0.000        0.000        1.000        2.000        0.000        3.000        0.000        0.000        0.000        0.000        0.000      100.000        0.000        0.000        2.381        2.435        3.379
     690.000  -233731.879    23172.959    13846.236    43539.085       86.237  -356387.700    42011.305       25.832       26.299        2.601        2.581        2.649        2.672        3.242        2.981        3.223        3.019        3.182        3.214        3.215        3.168        2.526        2.553        2.621        2.610        0.504        1.000        0.000        0.000        0.000        1.000        1.000        0.000        0.000        0.000        0.000        0.000        0.000        0.000        0.000        0.000        0.000        0.000        0.000        0.000        1.000        0.000        0.000        0.000        0.000        0.000        0.000        1.000        1.000        0.000        7.000        0.000        0.000        0.000        0.000        0.000      100.000        0.000        0.000        2.513        2.597        3.568
     700.000  -233418.488    24229.876    14119.798    43536.039       88.474  -356435.775    41043.101       25.558       25.728        2.594        2.638        2.613        2.721        3.224        2.988        3.183        2.909        3.199        3.167        3.200        3.152        2.527        2.561        2.704        2.570        0.484        0.000        0.000        0.000        1.000        2.000        0.000        0.000        0.000        0.000        0.000        0.000        0.000        0.000        2.000        0.000        0.000        0.000        0.000        0.000        1.000        0.000        0.000        0.000        0.000        1.000        0.000        0.000        2.000        0.000        5.000        0.000        0.000        0.000        4.494        0.000       95.506        0.000        0.000        2.357        2.387        3.506
     710.000  -233282.507    23563.102    13938.661    43640.491       92.610  -356555.084    42037.714       25.678       25.743       12.937        2.606        2.617        2.624        3.276        2.989        3.198        2.939        3.174        3.206        3.125        3.097        2.509        2.524        2.661        2.552        0.485        0.000        0.000        0.000        0.000        1.000        3.000        0.000        0.000        0.000        0.000        0.000        0.000        0.000        1.000        0.000        0.000        0.000        0.000        0.000        0.000        0.000        0.000        0.000        0.000        1.000        0.000        2.000        2.000        0.000        4.000        0.000        0.000        0.000        4.494        0.000       95.506        0.000        0.000        2.284        2.329        3.631
     720.000  -233327.573    22883.708    13844.689    43657.652       90.623  -357126.635    43322.390       25.687       25.868        8.060        2.630        2.602        2.696        3.210        2.956        3.231        2.959        3.181        3.244        3.116        3.161        2.501        2.604        2.619        2.516        0.483        0.000        0.000        0.000        0.000        2.000        2.000        0.000        0.000        0.000        0.000        0.000        0.000        0.000        2.000        0.000        0.000        0.000        0.000        0.000        0.000        0.000        0.000        0.000        0.000        1.000        0.000        1.000        0.000        0.000        9.000        0.000        0.000        0.000        0.000        0.000      100.000        0.000        0.000        1.906        1.941        3.498
     730.000  -232884.634    24020.227    14196.275    43552.151      100.034  -356463.114    41709.793       25.655       26.009       14.461        2.585        2.733        2.638        3.259        2.907        3.208        2.994        3.233        3.159        3.200        3.150        2.572        2.564        2.641        2.569        0.482        0.000        0.000        0.000        1.000        2.000        2.000        0.000        0.000        0.000        0.000        0.000        0.000        0.000        1.000        0.000        0.000        0.000        0.000        0.000        1.000        0.000        0.000        0.000        0.000        1.000        0.000        2.000        2.000        0.000        2.000        0.000        0.000        0.000        0.000        0.000      100.000        0.000        0.000        1.922        1.979        3.556
     740.000  -233803.078    22420.381    14266.587    43695.029       81.657  -356482.495    42215.764       25.463       25.878       16.731        2.567        2.657        2.664        3.238        2.973        3.189        3.092        3.159        3.200        3.137        3.153        2.480        2.618        2.713        2.529        0.501        0.000        0.000        0.000        0.000        1.000        1.000        0.000        0.000        0.000        0.000        0.000        0.000        0.000        2.000        0.000        0.000        0.000        0.000        0.000        0.000        0.000        0.000        0.000        0.000        0.000        0.000        1.000        1.000        0.000        7.000        0.000        0.000        0.000        0.000        0.000      100.000        0.000        0.000        2.121        2.172        3.546
     750.000  -232761.541    22928.551    14239.889    44033.478       74.586  -357034.330    42996.285       25.522       25.951       18.320        2.603        2.647        2.635        3.196        2.958        3.231        2.920        3.212        3.203        3.155        3.120        2.581        2.630        2.696        2.561        0.482        0.000        0.000        0.000        0.000        2.000        1.000        0.000        0.000        0.000        0.000        0.000        0.000        0.000        0.000        0.000        0.000        0.000        0.000        0.000        0.000        0.000        0.000        0.000        0.000        1.000        0.000        2.000        1.000        0.000        3.000        0.000        0.000        0.000        4.494        0.000       95.506        0.000        0.000        2.096        2.164        3.814
     760.000  -232634.424    22678.182    14299.246    43588.048       82.958  -356513.723    43230.866       25.424       25.824       19.252        2.654        2.662        2.694        3.225        3.027        3.226        2.874        3.204        3.210        3.164        3.077        2.546        2.571        2.665        2.593        0.501        0.000        0.000        0.000        1.000        0.000        1.000        0.000        0.000        0.000        0.000        0.000        0.000        0.000        2.000        0.000        0.000        0.000        0.000        0.000        1.000        0.000        0.000        0.000        0.000        1.000        0.000        1.000        1.000        0.000        8.000        0.000        0.000        0.000        0.000        0.000      100.000        0.000        0.000        1.997        2.054        3.814
     770.000  -233744.615    23246.438    14121.479    44032.124       99.182  -356381.052    41137.213       25.482       25.887       12.811        2.609        2.639        2.656        3.223        2.982        3.147        2.965        3.237        3.157        3.108        3.142        2.545        2.559        2.720        2.583        0.496        0.000        0.000        0.000        1.000        1.000        4.000        0.000        0.000        0.000        0.000        0.000        0.000        0.000        3.000        0.000        0.000        0.000        0.000        0.000        1.000        0.000        0.000        0.000        0.000        1.000        0.000        2.000        2.000        0.000       10.000        0.000        0.000        0.000        0.000        0.000      100.000        0.000        0.000        2.229        2.309        3.818
     780.000  -232908.947    22269.571    13747.120    43783.349       73.838  -355526.920    42744.094       25.587       25.719       16.753        2.612        2.692        2.679        3.219        2.948        3.226        2.857        3.199        3.231        3.178        3.143        2.517        2.601        2.674        2.566        0.491        1.000        0.000        0.000        1.000        0.000        3.000        0.000        0.000        0.000        0.000        0.000        0.000        0.000        2.000        0.000        0.000        0.000        0.000        0.000        1.000        0.000        0.000        0.000        0.000        0.000        0.000        1.000        2.000        0.000       11.000        0.000        0.000        0.000        0.000        0.000      100.000        0.000        0.000        1.950        2.020        3.762
     790.000  -233081.118    22820.609    14236.488    43700.462       64.909  -356093.839    42190.253       25.941       26.213        7.935        2.666        2.716        2.681        3.219        2.952        3.211        2.941        3.187        3.214        3.106        3.128        2.559        2.582        2.601        2.524        0.486        0.000        0.000        0.000        0.000        1.000        4.000        0.000        0.000        0.000        0.000        0.000        0.000        0.000        1.000        0.000        0.000        0.000        0.000        0.000        0.000        0.000        0.000        0.000        0.000        0.000        0.000        1.000        2.000        0.000        5.000        0.000        0.000        0.000        0.000        0.000      100.000        0.000        0.000        1.996        2.035        3.626
     800.000  -233576.223    24061.314    14054.861    43387.888       84.727  -355926.589    40761.576       25.978       26.146        2.566        2.628        2.619        2.648        3.257        2.960        3.187        2.967        3.262        3.197        3.167        3.149        2.523        2.597        2.602        2.547        0.504        0.000        0.000        0.000        0.000        1.000        2.000        0.000        0.000        0.000        0.000        1.000        0.000        0.000        3.000        0.000        0.000        0.000        0.000        0.000        0.000        0.000        0.000        0.000        0.000        1.000        0.000        2.000        0.000        0.000        7.000        0.000        0.000        0.000        0.000        0.000      100.000        0.000        0.000        1.878        1.923        3.487
     810.000  -233840.451    23082.973    14214.637    43505.332       71.873  -356755.106    42039.839       25.804       25.884        7.954        2.611        2.689        2.693        3.184        2.904        3.200        2.952        3.228        3.255        3.120        3.261        2.517        2.518        2.620        2.558        0.480        0.000        0.000        0.000        0.000        2.000        2.000        0.000        0.000        0.000        0.000        0.000        0.000        1.000        1.000        0.000        0.000        0.000        0.000        0.000        0.000        0.000        0.000        0.000        0.000        1.000        0.000        2.000        0.000        0.000        3.000        0.000        0.000        0.000        0.000        0.000      100.000        0.000        0.000        1.801        1.832        3.436
     820.000  -233303.392    23752.329    13781.337    43557.910       91.276  -355252.063    40765.819       25.779       25.956        2.564        2.710        2.679        2.682        3.207        3.062        3.211        3.005        3.229        3.133        3.179        3.192        2.497        2.570        2.644        2.569        0.478        0.000        0.000        0.000        0.000        2.000        3.000        0.000        0.000        0.000        0.000        0.000        0.000        0.000        2.000        0.000        0.000        0.000        0.000        0.000        0.000        0.000        0.000        0.000        0.000        0.000        0.000        0.000        0.000        0.000        5.000        0.000        0.000        0.000        0.000        0.000      100.000        0.000        0.000        1.571        1.599        3.302
     830.000  -233112.164    22305.761    13864.205    43401.491      104.708  -354375.160    41586.831       25.644       25.926        7.994        2.539        2.597        2.678        3.233        2.993        3.262        2.977        3.254        3.141        3.210        3.115        2.499        2.610        2.589        2.622        0.473        1.000        0.000        0.000        0.000        1.000        1.000        0.000        0.000        0.000        0.000        0.000        0.000        0.000        1.000        0.000        0.000        0.000        0.000        0.000        0.000        0.000        0.000        0.000        0.000        0.000        0.000        2.000        1.000        0.000        7.000        0.000        0.000        0.000        0.000        0.000      100.000        0.000        0.000        1.561        1.636        3.490
     840.000  -233385.309    23664.674    13920.747    43426.845       74.504  -356670.453    42198.374       26.184       26.333        2.589        2.583        2.576        2.631        3.287        2.955        3.284        2.989        3.202        3.128        3.165        3.079        2.519        2.582        2.579        2.615        0.473        0.000        0.000        0.000        1.000        2.000        2.000        0.000        0.000        0.000        0.000        0.000        0.000        0.000        2.000        0.000        0.000        0.000        0.000        0.000        1.000        0.000        0.000        0.000        0.000        0.000        0.000        1.000        2.000        0.000        4.000        0.000        0.000        0.000        0.000        0.000      100.000        0.000        0.000        2.178        2.221        3.755
     850.000  -232892.537    22585.167    14259.236    43546.829       88.224  -355482.026    42110.032       25.825       26.332        2.578        2.645        2.663        2.676        3.253        2.946        3.243        2.997        3.240        3.194        3.182        3.111        2.450        2.568        2.633        2.605        0.494        1.000        0.000        0.000        0.000        1.000        2.000        0.000        0.000        0.000        0.000        0.000        0.000        0.000        4.000        0.000        0.000        0.000        0.000        0.000        0.000        0.000        0.000        0.000        0.000        2.000        0.000        2.000        2.000        0.000        7.000        0.000        0.000        0.000        0.000        0.000      100.000        0.000        0.000        2.212        2.255        3.575
     860.000  -232796.144    22373.958    13991.840    43686.135       95.472  -356129.510    43185.961       25.642       25.872        2.578        2.590        2.603        2.675        3.255        2.959        3.235        2.981        3.190        3.150        3.166        3.167        2.520        2.543        2.669        2.581        0.490        0.000        0.000        0.000        1.000        2.000        1.000        0.000        0.000        0.000        0.000        0.000        0.000        0.000        1.000        0.000        0.000        0.000        0.000        0.000        1.000        0.000        0.000        0.000        0.000        0.000        0.000        2.000        1.000        0.000        3.000        0.000        0.000        0.000        0.000        0.000      100.000        0.000        0.000        1.910        1.942        3.549
     870.000  -232644.975    24026.828    13927.046    43577.852       82.012  -354853.627    40594.914       25.759       26.084        2.500        2.620        2.630        2.663        3.262        2.931        3.182        2.998        3.178        3.261        3.139        3.118        2.498        2.591        2.612        2.511        0.505        1.000        0.000        0.000        1.000        0.000        4.000        0.000        0.000        0.000        0.000        1.000        0.000        0.000        1.000        0.000        0.000        0.000        0.000        0.000        0.000        0.000        0.000        0.000        0.000        0.000        0.000        2.000        2.000        0.000        9.000        0.000        0.000        0.000        0.000        0.000      100.000        0.000        0.000        1.960        2.000        3.683
     880.000  -233232.307    24022.448    13492.533    43580.639       87.183  -355274.908    40859.797       25.949       26.218        2.565        2.615        2.708        2.656        3.231        3.003        3.217        2.966        3.258        3.165        3.114        3.115        2.490        2.588        2.582        2.558        0.480        0.000        0.000        0.000        1.000        1.000        4.000        0.000        0.000        0.000        0.000        0.000        0.000        0.000        3.000        0.000        0.000        0.000        0.000        0.000        0.000        0.000        0.000        0.000        0.000        0.000        0.000        0.000        2.000        0.000        6.000        0.000        0.000        0.000        0.000        0.000      100.000        0.000        0.000        1.769        1.794        3.485
     890.000  -232937.876    23622.095    14048.944    43636.294       90.105  -355152.930    40817.617       25.896       26.185        2.533        2.632        2.625        2.627        3.234        2.996        3.202        2.975        3.207        3.170        3.174        3.144        2.485        2.598        2.665        2.592        0.500        0.000        0.000        0.000        1.000        1.000        3.000        0.000        0.000        0.000        0.000        0.000        0.000        0.000        1.000        0.000        0.000        0.000        0.000        0.000        0.000        0.000        0.000        0.000        0.000        0.000        0.000        0.000        1.000        0.000        5.000        0.000        0.000        0.000        0.000        0.000      100.000        0.000        0.000        1.737        1.776        3.658
     900.000  -233216.266    22615.881    13683.229    43628.260       69.981  -356143.480    42929.862       25.773       26.160        2.586        2.578        2.622        2.596        3.265        2.999        3.198        3.002        3.234        3.216        3.109        3.125        2.489        2.536        2.617        2.564        0.509        0.000        0.000        0.000        1.000        1.000        3.000        0.000        0.000        0.000        0.000        0.000        0.000        0.000        2.000        0.000        0.000        0.000        0.000        0.000        0.000        0.000        0.000        0.000        0.000        0.000        0.000        0.000        2.000        0.000        8.000        0.000        0.000        0.000        0.000        0.000      100.000        0.000        0.000        1.717        1.739        3.519
     910.000  -234108.371    23190.804    13901.918    43630.432       90.839  -356249.536    41327.171       25.549       25.766        2.634        2.541        2.631        2.597        3.283        2.917        3.238        2.945        3.215        3.176        3.173        3.102        2.511        2.537        2.605        2.568        0.492        0.000        0.000        0.000        1.000        1.000        3.000        0.000        0.000        0.000        0.000        0.000        0.000        0.000        1.000        0.000        0.000        0.000        0.000        0.000        0.000        0.000        0.000        0.000        0.000        1.000        0.000        1.000        1.000        0.000        6.000        0.000        0.000        0.000        0.000        0.000      100.000        0.000        0.000        1.527        1.557        3.571
     920.000  -233275.335    23004.855    13734.772    43630.203       76.364  -355612.747    41891.218       25.778       25.944        2.545        2.648        2.633        2.592        3.220        3.011        3.218        3.059        3.212        3.192        3.129        3.061        2.538        2.616        2.604        2.560        0.460        0.000        0.000        0.000        1.000        1.000        2.000        0.000        0.000        0.000        0.000        0.000        0.000        0.000        3.000        0.000        0.000        0.000        0.000        0.000        1.000        0.000        0.000        0.000        0.000        0.000        0.000        1.000        4.000        0.000        6.000        0.000        0.000        0.000        0.000        0.000      100.000        0.000        0.000        1.742        1.770        3.759
     930.000  -233305.434    23227.725    13979.334    43672.693       81.157  -356576.472    42310.129       25.709       26.217        2.615        2.635        2.608        2.595        3.262        2.898        3.250        2.952        3.207        3.168        3.150        3.149        2.521        2.582        2.609        2.684        0.480        1.000        0.000        1.000        1.000        0.000        1.000        0.000        0.000        0.000        0.000        0.000        0.000        0.000        0.000        0.000        0.000        0.000        0.000        0.000        0.000        0.000        0.000        0.000        0.000        0.000        0.000        2.000        3.000        0.000        2.000        0.000        0.000        0.000        0.000        0.000      100.000        0.000        0.000        1.786        1.816        3.845
     940.000  -232677.346    22881.786    14088.232    43485.671       74.026  -356283.257    43076.195       25.770       26.148        2.604        2.602        2.581        2.556        3.242        2.914        3.217        2.987        3.201        3.208        3.162        3.120        2.509        2.595        2.588        2.585        0.488        1.000        0.000        1.000        1.000        0.000        3.000        0.000        0.000        0.000        0.000        0.000        0.000        0.000        3.000        0.000        0.000        0.000        0.000        0.000        0.000        0.000        0.000        0.000        0.000        0.000        0.000        1.000        1.000        0.000        5.000        0.000        0.000        0.000        0.000        0.000      100.000        0.000        0.000        1.855        1.877        3.653
     950.000  -233625.136    23439.094    13874.902    43430.134       80.366  -355712.747    41263.114       25.795       26.073        2.593        2.580        2.624        2.623        3.211        3.007        3.160        3.000        3.200        3.201        3.209        3.170        2.494        2.593        2.634        2.593        0.498        0.000        0.000        0.000        1.000        1.000        3.000        0.000        0.000        0.000        0.000        0.000        0.000        0.000        1.000        0.000        0.000        0.000        0.000        0.000        0.000        0.000        0.000        0.000        0.000        2.000        0.000        2.000        1.000        0.000        5.000        0.000        0.000        0.000        0.000        0.000      100.000        0.000        0.000        1.695        1.753        3.476
     960.000  -233355.564    23093.845    13633.411    43683.959       97.976  -355298.687    41433.932       26.111       26.271        2.602        2.615        2.655        2.689        3.239        2.959        3.184        3.024        3.266        3.160        3.146        3.044        2.487        2.557        2.569        2.597        0.498        1.000        0.000        0.000        1.000        1.000        3.000        0.000        0.000        0.000        0.000        0.000        0.000        0.000        0.000        0.000        0.000        0.000        0.000        0.000        0.000        0.000        0.000        0.000        0.000        1.000        0.000        1.000        2.000        0.000        5.000        0.000        0.000        0.000        0.000        0.000      100.000        0.000        0.000        1.941        1.965        3.645
     970.000  -233424.232    23859.218    13947.663    43348.495       99.124  -355583.794    40905.062       26.161       26.335        2.585        2.573        2.657        2.661        3.252        2.978        3.169        3.010        3.253        3.180        3.142        3.072        2.508        2.551        2.617        2.562        0.487        0.000        0.000        0.000        0.000        1.000        3.000        0.000        0.000        0.000        0.000        0.000        0.000        0.000        1.000        0.000        0.000        0.000        0.000        0.000        0.000        0.000        0.000        0.000        0.000        0.000        0.000        2.000        3.000        0.000       10.000        0.000        0.000        0.000        0.000        0.000      100.000        0.000        0.000        1.898        1.918        3.631
     980.000  -233565.141    23469.520    14025.819    43511.633       77.264  -356229.301    41579.924       26.245       26.375        2.580        2.639        2.577        2.647        3.280        2.918        3.132        3.024        3.238        3.174        3.149        3.075        2.491        2.609        2.584        2.615        0.490        0.000        0.000        0.000        0.000        1.000        4.000        0.000        0.000        0.000        0.000        0.000        0.000        0.000        0.000        0.000        0.000        0.000        0.000        0.000        0.000        0.000        0.000        0.000        0.000        1.000        0.000        1.000        3.000        0.000        4.000        0.000        0.000        0.000        0.000        0.000      100.000        0.000        0.000        1.650        1.668        3.584
     990.000  -233675.048    23856.013    13914.373    43583.493       87.240  -356813.439    41697.271       26.144       26.330        2.561        2.645        2.674        2.652        3.313        2.989        3.193        2.995        3.259        3.147        3.188        3.069        2.512        2.584        2.655        2.569        0.483        0.000        0.000        0.000        0.000        0.000        4.000        0.000        0.000        0.000        0.000        0.000        0.000        0.000        1.000        0.000        0.000        0.000        0.000        0.000        0.000        0.000        0.000        0.000        0.000        1.000        0.000        1.000        1.000        0.000        1.000        0.000        0.000        0.000        0.000        0.000      100.000        0.000        0.000        1.735        1.756        3.581
    1000.000  -233259.430    24197.009    13963.818    43501.180       84.471  -355925.090    40919.182       26.330       26.397        2.502        2.589        2.587        2.619        3.241        2.964        3.199        3.028        3.233        3.132        3.153        3.095        2.512        2.602        2.650        2.587        0.494        0.000        0.000        0.000        0.000        1.000        2.000        0.000        0.000        0.000        0.000        0.000        0.000        0.000        2.000        0.000        0.000        0.000        0.000        0.000        0.000        0.000        0.000        0.000        0.000        0.000        0.000        1.000        2.000        0.000        6.000        0.000        0.000        0.000        0.000        0.000      100.000        0.000        0.000        1.980        1.999        3.569
     Average  -234976.151    23508.189    14142.109    43661.496       81.787  -359083.667    42713.936       25.748       26.013        3.700        2.630        2.641        2.663        3.241        3.000        3.213        3.011        3.226        3.195        3.135        3.122        2.516        2.570        2.624        2.580        0.485        0.426        0.000        0.337        0.267        0.832        2.673        0.000        0.000        0.000        0.000        0.050        0.000        0.040        1.297        0.000        0.000        0.000        0.000        0.000        0.178        0.000        0.000        0.000        0.000        0.584        0.000        1.446        0.792        0.168        5.891        0.040        0.000        0.000        0.311        0.000       99.689        0.000        0.000        2.155        2.195        3.096

