____Time[ps] Energy[ kJ/mol ]_____Bond _______Angle ____Dihedral ___Planarity _____Coulomb _________VdW _Your result _Your result _Your result _Your result _Your result _Your result _Your result _Your result _Your result _Your result _Your result _Your result _Your result _Your result _Your result _Your result _Your result _Your result _Your result _Your result _Your result _Your result _Your result _Your result _Your result _Your result _Your result _Your result _Your result _Your result _Your result _Your result _Your result _Your result _Your result _Your result _Your result _Your result _Your result _Your result _Your result _Your result _Your result _Your result _Your result _Your result _Your result _Your result _Your result _Your result _Your result _Your result _Your result _Your result _Your result _Your result _Your result _RMSDs[A]:CA ____Backbone __HeavyAtoms
       0.000  -338000.183     9028.758     4949.467    46402.875       10.470  -463042.244    64650.491       25.626       25.514        2.504        2.584        2.569        2.669        2.634        2.544        2.678        2.429        2.704        2.601        2.538        2.677        2.392        2.513        2.546        2.575        0.482        2.000        0.000        2.000        0.000        0.000        5.000        0.000        0.000        0.000        0.000        0.000        0.000        0.000        2.000        0.000        0.000        0.000        0.000        0.000        0.000        0.000        0.000        0.000        0.000        0.000        0.000        2.000        0.000        1.000       11.000        0.000        0.000        0.000        0.000        0.000      100.000        0.000        0.000        0.534        0.565        0.612
      10.000  -254725.430    28224.758    14829.088    46353.881       89.306  -393402.705    49180.242       25.958       25.785        2.456        2.532        2.614        2.655        2.617        2.557        2.594        2.436        2.651        2.605        2.505        2.501        2.517        2.516        2.670        2.566        0.492        1.000        0.000        2.000        0.000        0.000        3.000        0.000        0.000        1.000        0.000        0.000        0.000        0.000        0.000        0.000        0.000        0.000        0.000        0.000        0.000        0.000        0.000        0.000        0.000        0.000        0.000        0.000        0.000        1.000        8.000        0.000        0.000        0.000        0.000        0.000      100.000        0.000        0.000        1.053        1.089        1.217
      20.000  -254271.995    28442.053    14964.613    46356.351       75.638  -392790.330    48679.679       26.103       25.957        2.508        2.579        2.495        2.653        2.599        2.553        2.623        2.526        2.708        2.641        2.564        2.556        2.400        2.518        2.587        2.590        0.516        2.000        0.000        2.000        0.000        0.000        5.000        0.000        0.000        0.000        0.000        0.000        0.000        0.000        2.000        0.000        0.000        0.000        0.000        0.000        0.000        0.000        0.000        0.000        0.000        0.000        0.000        2.000        0.000        2.000       11.000        0.000        0.000        0.000        0.000        0.000      100.000        0.000        0.000        1.289        1.312        1.437
      30.000  -253703.285    28264.875    15401.083    46253.111       78.802  -392268.609    48567.452       25.985       25.959        2.605        2.612        2.537        2.661        2.547        2.526        2.658        2.482        2.708        2.626        2.530        2.535        2.497        2.509        2.596        2.525        0.489        2.000        0.000        2.000        0.000        0.000        4.000        0.000        0.000        0.000        0.000        0.000        0.000        0.000        2.000        0.000        0.000        0.000        0.000        0.000        0.000        0.000        0.000        0.000        0.000        0.000        0.000        0.000        0.000        1.000       12.000        0.000        0.000        0.000        0.000        0.000      100.000        0.000        0.000        1.435        1.453        1.604
      40.000  -253866.240    27430.762    15506.516    46214.493       68.870  -391547.183    48460.302       25.989       26.114        2.586        2.526        2.576        2.652        2.589        2.568        2.642        2.437        2.692        2.649        2.527        2.551        2.420        2.564        2.612        2.594        0.486        2.000        0.000        1.000        0.000        1.000        5.000        0.000        0.000        0.000        0.000        0.000        0.000        0.000        1.000        0.000        0.000        0.000        0.000        0.000        0.000        0.000        0.000        0.000        0.000        0.000        0.000        1.000        0.000        1.000       12.000        1.000        0.000        0.000        0.000        0.000      100.000        0.000        0.000        1.590        1.617        1.761
      50.000  -253485.569    28546.569    15445.177    46203.033       70.671  -391063.387    47312.367       25.895       26.048        2.600        2.526        2.513        2.651        2.537        2.572        2.607        2.441        2.706        2.661        2.495        2.543        2.448        2.596        2.595        2.511        0.496        2.000        0.000        2.000        0.000        0.000        3.000        0.000        0.000        0.000        0.000        0.000        0.000        0.000        1.000        0.000        0.000        0.000        0.000        0.000        0.000        0.000        0.000        0.000        0.000        0.000        0.000        1.000        0.000        0.000        7.000        1.000        0.000        0.000        0.000        0.000      100.000        0.000        0.000        1.493        1.503        1.749
      60.000  -252385.901    27747.588    15359.918    46186.787       60.237  -388096.330    46355.900       26.190       26.379        2.630        2.520        2.526        2.668        2.526        2.546        2.656        2.451        2.665        2.610        2.508        2.527        2.420        2.526        2.579        2.516        0.500        2.000        0.000        1.000        0.000        0.000        5.000        0.000        0.000        0.000        0.000        0.000        0.000        0.000        0.000        0.000        0.000        0.000        0.000        0.000        0.000        0.000        0.000        0.000        0.000        0.000        0.000        2.000        0.000        1.000       11.000        0.000        0.000        0.000        0.000        0.000      100.000        0.000        0.000        1.517        1.507        1.736
      70.000  -252350.443    27846.926    15628.778    46255.899       71.153  -388926.356    46773.156       26.195       26.072        2.615        2.523        2.541        2.659        2.563        2.538        2.614        2.481        2.669        2.638        2.525        2.479        2.458        2.533        2.588        2.553        0.489        2.000        0.000        2.000        0.000        0.000        5.000        0.000        0.000        0.000        0.000        0.000        0.000        0.000        1.000        0.000        0.000        0.000        0.000        0.000        0.000        0.000        0.000        0.000        0.000        0.000        0.000        1.000        0.000        0.000       12.000        0.000        0.000        0.000        0.000        0.000      100.000        0.000        0.000        1.575        1.586        1.886
      80.000  -251879.472    26468.587    15301.134    46354.468       82.474  -388208.323    48122.188       26.256       26.342        2.577        2.563        2.534        2.674        2.503        2.539        2.589        2.450        2.660        2.620        2.495        2.510        2.442        2.510        2.622        2.542        0.487        2.000        0.000        2.000        0.000        0.000        3.000        0.000        0.000        0.000        0.000        0.000        0.000        0.000        2.000        0.000        0.000        0.000        0.000        0.000        0.000        0.000        0.000        0.000        0.000        0.000        0.000        1.000        0.000        0.000        7.000        0.000        0.000        0.000        0.000        0.000      100.000        0.000        0.000        1.686        1.671        2.032
      90.000  -251719.171    27119.805    15434.588    46103.303       73.777  -386820.166    46369.523       26.016       25.855        2.617        2.478        2.751        2.680        2.582        2.545        2.559        2.396        2.629        2.659        2.501        2.495        2.456        2.478        2.594        2.553        0.466        2.000        0.000        2.000        0.000        0.000        3.000        0.000        0.000        1.000        0.000        0.000        0.000        0.000        1.000        0.000        0.000        0.000        0.000        0.000        0.000        0.000        0.000        0.000        0.000        0.000        0.000        0.000        0.000        0.000        7.000        1.000        0.000        0.000        0.000        0.000      100.000        0.000        0.000        1.517        1.520        1.848
     100.000  -251000.181    26575.935    15720.439    46206.178       75.176  -387472.308    47894.398       26.148       26.004        2.654        2.530        2.677        2.667        2.445        2.511        2.598        2.446        2.680        2.677        2.532        2.518        2.449        2.527        2.612        2.574        0.482        2.000        0.000        2.000        0.000        0.000        4.000        0.000        0.000        0.000        0.000        0.000        0.000        0.000        0.000        0.000        0.000        0.000        0.000        0.000        0.000        0.000        0.000        0.000        0.000        0.000        0.000        0.000        0.000        0.000       11.000        1.000        0.000        0.000        0.000        0.000      100.000        0.000        0.000        1.491        1.491        1.857
     110.000  -251455.868    26287.787    15665.749    46116.474       92.197  -385725.558    46107.484       25.994       25.947        2.648        2.601        2.634        2.625        2.537        2.557        2.568        2.449        2.681        2.626        2.431        2.512        2.425        2.530        2.594        2.535        0.507        2.000        0.000        2.000        0.000        0.000        4.000        0.000        0.000        1.000        0.000        0.000        0.000        0.000        1.000        0.000        0.000        0.000        0.000        0.000        0.000        0.000        0.000        0.000        0.000        0.000        0.000        1.000        0.000        0.000       10.000        0.000        0.000        0.000        0.000        0.000      100.000        0.000        0.000        1.627        1.613        1.959
     120.000  -251042.318    25584.537    15311.243    46087.353       82.823  -385920.177    47811.903       26.449       26.122        2.632        2.565        2.645        2.624        2.420        2.563        2.578        2.492        2.714        2.677        2.477        2.505        2.442        2.486        2.608        2.536        0.498        1.000        0.000        2.000        0.000        0.000        3.000        0.000        0.000        0.000        0.000        0.000        0.000        0.000        1.000        0.000        0.000        0.000        0.000        0.000        0.000        0.000        0.000        0.000        0.000        4.000        0.000        2.000        0.000        0.000        9.000        0.000        0.000        0.000        0.000        0.000      100.000        0.000        0.000        1.566        1.563        1.912
     130.000  -249518.817    26760.535    15423.735    46276.942       94.931  -382119.830    44044.869       26.481       26.287        2.640        2.577        2.623        2.563        2.417        2.540        2.616        2.528        2.651        2.634        2.503        2.462        2.497        2.491        2.636        2.572        0.496        2.000        0.000        1.000        0.000        0.000        5.000        0.000        0.000        0.000        0.000        0.000        0.000        0.000        2.000        0.000        0.000        0.000        0.000        0.000        0.000        0.000        0.000        0.000        0.000        0.000        0.000        2.000        0.000        1.000       12.000        0.000        0.000        0.000        0.000        0.000      100.000        0.000        0.000        1.598        1.610        2.027
     140.000  -250848.970    25036.350    15588.572    46263.867       58.590  -385066.987    47270.639       26.190       26.037        2.599        2.547        2.652        2.595        2.398        2.558        2.620        2.466        2.635        2.688        2.509        2.500        2.472        2.539        2.614        2.570        0.481        1.000        0.000        2.000        0.000        0.000        4.000        0.000        0.000        0.000        0.000        0.000        0.000        0.000        2.000        0.000        0.000        0.000        0.000        0.000        0.000        0.000        0.000        0.000        0.000        2.000        0.000        1.000        0.000        1.000       10.000        0.000        0.000        0.000        0.000        0.000      100.000        0.000        0.000        1.460        1.477        1.908
     150.000  -251089.086    26550.983    14922.835    46115.201       85.143  -384036.095    45272.846       25.991       26.088        2.579        2.581        2.724        2.603        2.429        2.520        2.636        2.381        2.701        2.667        2.481        2.532        2.429        2.491        2.619        2.540        0.490        2.000        0.000        2.000        0.000        0.000        4.000        0.000        0.000        0.000        0.000        0.000        0.000        0.000        2.000        0.000        0.000        0.000        0.000        0.000        0.000        0.000        0.000        0.000        0.000        2.000        0.000        1.000        0.000        0.000        8.000        1.000        0.000        0.000        0.000        0.000      100.000        0.000        0.000        1.408        1.422        1.938
     160.000  -250589.067    24993.909    15232.409    46017.114       64.772  -384533.472    47636.200       26.219       26.233        2.651        2.526        2.680        2.585        2.404        2.550        2.658        2.420        2.667        2.634        2.504        2.529        2.453        2.500        2.620        2.543        0.503        2.000        0.000        2.000        0.000        0.000        5.000        0.000        0.000        0.000        0.000        0.000        0.000        0.000        2.000        0.000        0.000        0.000        0.000        0.000        0.000        0.000        0.000        0.000        0.000        1.000        0.000        2.000        0.000        0.000        7.000        1.000        0.000        0.000        0.000        0.000      100.000        0.000        0.000        1.643        1.644        2.145
     170.000  -250470.743    26346.303    14890.084    46290.081       88.738  -383693.321    45607.372       26.084       26.020        2.647        2.565        2.666        2.621        2.446        2.561        2.665        2.479        2.633        2.653        2.477        2.439        2.445        2.482        2.613        2.460        0.488        2.000        0.000        2.000        0.000        0.000        5.000        0.000        0.000        0.000        0.000        0.000        0.000        0.000        2.000        0.000        0.000        0.000        0.000        0.000        0.000        0.000        0.000        0.000        0.000        0.000        0.000        1.000        0.000        2.000        8.000        1.000        0.000        0.000        0.000        0.000      100.000        0.000        0.000        1.572        1.575        2.080
     180.000  -249387.338    26341.105    15224.502    46107.982       83.799  -382823.975    45679.249       26.127       26.212        2.632        2.570        2.649        2.607        2.421        2.585        2.681        2.417        2.648        2.652        2.497        2.510        2.458        2.511        2.607        2.530        0.501        2.000        0.000        2.000        0.000        0.000        4.000        0.000        0.000        0.000        0.000        0.000        0.000        0.000        1.000        0.000        0.000        0.000        0.000        0.000        0.000        0.000        0.000        0.000        0.000        0.000        0.000        1.000        0.000        0.000        8.000        0.000        0.000        0.000        0.000        0.000      100.000        0.000        0.000        1.798        1.825        2.283
     190.000  -250163.579    25780.636    15310.755    46225.273       58.383  -383695.174    46156.548       26.049       26.174        2.653        2.582        2.625        2.592        2.432        2.547        2.644        2.453        2.668        2.650        2.494        2.515        2.459        2.551        2.613        2.490        0.455        2.000        0.000        2.000        0.000        0.000        4.000        0.000        0.000        0.000        0.000        0.000        0.000        0.000        0.000        0.000        0.000        0.000        0.000        0.000        0.000        0.000        0.000        0.000        0.000        0.000        0.000        1.000        0.000        0.000        8.000        0.000        0.000        0.000        0.000        0.000      100.000        0.000        0.000        1.681        1.658        2.281
     200.000  -250604.184    24602.448    15023.644    46162.942       82.183  -384312.223    47836.821       26.215       26.238        2.624        2.557        2.632        2.585        2.436        2.588        2.657        2.447        2.646        2.639        2.495        2.510        2.489        2.515        2.596        2.504        0.498        2.000        0.000        2.000        0.000        0.000        4.000        0.000        0.000        0.000        0.000        0.000        0.000        0.000        2.000        0.000        0.000        0.000        0.000        0.000        0.000        0.000        0.000        0.000        0.000        0.000        0.000        1.000        0.000        0.000        7.000        0.000        0.000        0.000        0.000        0.000      100.000        0.000        0.000        1.963        1.944        2.569
     210.000  -250077.459    25591.759    15208.182    46147.260       62.656  -383036.429    45949.113       26.197       26.198        2.603        2.532        2.636        2.570        2.400        2.547        2.633        2.457        2.699        2.644        2.469        2.519        2.447        2.497        2.590        2.550        0.485        2.000        0.000        2.000        0.000        0.000        4.000        0.000        0.000        0.000        0.000        0.000        0.000        0.000        1.000        0.000        0.000        0.000        0.000        0.000        0.000        0.000        0.000        0.000        0.000        2.000        0.000        2.000        0.000        1.000       10.000        0.000        0.000        0.000        0.000        0.000      100.000        0.000        0.000        1.865        1.860        2.388
     220.000  -249927.032    25836.261    14787.334    45890.537       82.512  -381946.076    45422.399       26.214       26.118        2.607        2.536        2.647        2.578        2.439        2.583        2.626        2.468        2.644        2.687        2.497        2.523        2.443        2.512        2.607        2.588        0.487        2.000        0.000        2.000        0.000        0.000        5.000        0.000        0.000        0.000        0.000        0.000        0.000        0.000        1.000        0.000        0.000        0.000        0.000        0.000        0.000        0.000        0.000        0.000        0.000        0.000        0.000        0.000        0.000        1.000       10.000        1.000        0.000        0.000        0.000        0.000      100.000        0.000        0.000        1.993        1.961        2.562
     230.000  -249906.732    25379.773    14668.733    46135.000       72.118  -382391.354    46228.998       26.010       25.903        2.664        2.523        2.623        2.599        2.420        2.522        2.616        2.442        2.659        2.678        2.492        2.517        2.454        2.508        2.571        2.509        0.469        2.000        0.000        2.000        0.000        1.000        3.000        0.000        0.000        0.000        0.000        0.000        0.000        0.000        1.000        0.000        0.000        0.000        0.000        0.000        0.000        0.000        0.000        0.000        0.000        0.000        0.000        1.000        0.000        0.000        8.000        0.000        0.000        0.000        0.000        0.000      100.000        0.000        0.000        2.016        1.981        2.662
     240.000  -249195.274    24989.377    15182.038    46271.969       94.349  -381795.566    46062.559       25.840       25.910        2.589        2.529        2.597        2.584        2.403        2.581        2.688        2.426        2.664        2.583        2.488        2.492        2.451        2.521        2.577        2.527        0.432        1.000        0.000        2.000        0.000        0.000        4.000        0.000        0.000        0.000        0.000        0.000        0.000        0.000        1.000        0.000        0.000        0.000        0.000        0.000        0.000        0.000        0.000        0.000        0.000        1.000        0.000        0.000        0.000        0.000        4.000        0.000        0.000        0.000        0.000        0.000      100.000        0.000        0.000        1.958        1.915        2.789
     250.000  -249753.055    24248.558    14653.795    46246.402       99.713  -382707.818    47706.294       26.078       25.858        2.589        2.553        2.652        2.621        2.419        2.574        2.667        2.451        2.641        2.603        2.496        2.491        2.411        2.528        2.595        2.495        0.477        2.000        0.000        2.000        0.000        0.000        5.000        0.000        0.000        0.000        0.000        0.000        0.000        0.000        2.000        0.000        0.000        0.000        0.000        0.000        0.000        0.000        0.000        0.000        0.000        1.000        0.000        1.000        0.000        0.000        9.000        1.000        0.000        0.000        0.000        0.000      100.000        0.000        0.000        2.168        2.133        2.869
     260.000  -249607.319    24770.116    14923.190    46156.325       77.224  -382939.872    47405.697       26.322       25.998        2.648        2.502        2.635        2.621        2.461        2.549        2.649        2.444        2.692        2.632        2.522        2.521        2.414        2.507        2.646        2.527        0.490        2.000        0.000        2.000        0.000        0.000        3.000        0.000        0.000        0.000        0.000        0.000        0.000        0.000        2.000        0.000        0.000        0.000        0.000        0.000        0.000        0.000        0.000        0.000        0.000        1.000        0.000        1.000        0.000        0.000        6.000        0.000        0.000        0.000        0.000        0.000      100.000        0.000        0.000        1.992        1.964        2.658
     270.000  -249871.108    26204.738    15189.974    45952.429      106.646  -382475.154    45150.259       26.195       25.862        2.601        2.558        2.641        2.606        2.393        2.528        2.669        2.445        2.641        2.675        2.513        2.554        2.465        2.484        2.586        2.518        0.496        1.000        0.000        2.000        0.000        0.000        4.000        0.000        0.000        0.000        0.000        0.000        0.000        0.000        2.000        0.000        0.000        0.000        0.000        0.000        0.000        0.000        0.000        0.000        0.000        0.000        0.000        2.000        0.000        0.000        5.000        0.000        0.000        0.000        0.000        0.000      100.000        0.000        0.000        2.008        1.984        2.813
     280.000  -249745.371    24584.131    15194.397    46200.539       73.820  -381983.203    46184.945       26.038       25.960        2.614        2.505        2.690        2.561        2.430        2.550        2.681        2.497        2.638        2.645        2.504        2.535        2.438        2.532        2.607        2.503        0.488        2.000        0.000        2.000        0.000        0.000        5.000        0.000        0.000        0.000        0.000        0.000        0.000        0.000        1.000        0.000        0.000        0.000        0.000        0.000        0.000        0.000        0.000        0.000        0.000        0.000        0.000        1.000        0.000        0.000       11.000        0.000        0.000        0.000        0.000        0.000      100.000        0.000        0.000        1.912        1.889        2.650
     290.000  -249574.498    25836.325    15293.838    46103.750       73.714  -380875.540    43993.415       25.876       25.950        2.586        2.590        2.661        2.611        2.430        2.595        2.636        2.447        2.654        2.631        2.534        2.562        2.458        2.485        2.658        2.567        0.479        2.000        0.000        1.000        0.000        0.000        6.000        0.000        0.000        0.000        0.000        0.000        0.000        0.000        0.000        0.000        0.000        0.000        0.000        0.000        0.000        0.000        0.000        0.000        0.000        0.000        0.000        1.000        0.000        0.000        5.000        0.000        0.000        0.000        0.000        0.000      100.000        0.000        0.000        1.838        1.845        2.650
     300.000  -248826.938    24217.579    15001.246    46415.443       80.653  -381428.799    46886.939       26.186       25.909        2.628        2.541        2.666        2.600        2.387        2.488        2.679        2.408        2.624        2.659        2.485        2.513        2.469        2.485        2.605        2.561        0.475        2.000        0.000        2.000        0.000        0.000        3.000        0.000        0.000        1.000        0.000        0.000        0.000        0.000        0.000        0.000        0.000        0.000        0.000        0.000        0.000        0.000        0.000        0.000        0.000        0.000        0.000        1.000        0.000        0.000        7.000        0.000        0.000        0.000        0.000        0.000      100.000        0.000        0.000        1.979        1.970        2.937
     310.000  -249311.846    26248.076    14844.935    45853.397       76.691  -381438.272    45103.328       26.239       26.084        2.658        2.585        2.713        2.601        2.367        2.495        2.659        2.523        2.683        2.604        2.534        2.511        2.460        2.570        2.664        2.504        0.495        2.000        0.000        1.000        0.000        1.000        4.000        0.000        0.000        0.000        0.000        0.000        0.000        0.000        0.000        0.000        0.000        0.000        0.000        0.000        0.000        0.000        0.000        0.000        0.000        1.000        0.000        1.000        0.000        0.000        8.000        0.000        0.000        0.000        0.000        0.000      100.000        0.000        0.000        2.071        2.070        3.031
     320.000  -249751.738    25272.325    14879.065    46421.889       74.271  -382045.296    45646.008       26.330       26.007        2.661        2.536        2.695        2.567        2.423        2.598        2.650        2.459        2.674        2.602        2.503        2.515        2.436        2.531        2.662        2.556        0.476        2.000        0.000        1.000        0.000        0.000        5.000        0.000        0.000        1.000        0.000        0.000        0.000        0.000        0.000        0.000        0.000        0.000        0.000        0.000        0.000        0.000        0.000        0.000        0.000        0.000        0.000        2.000        0.000        0.000       10.000        0.000        0.000        0.000        0.000        0.000      100.000        0.000        0.000        1.945        1.941        2.892
     330.000  -248897.403    24522.884    15116.107    46302.707       79.059  -382494.596    47576.436       26.332       25.871        2.618        2.504        2.631        2.635        2.421        2.537        2.672        2.451        2.639        2.648        2.507        2.543        2.455        2.584        2.619        2.603        0.473        2.000        0.000        1.000        0.000        1.000        4.000        0.000        0.000        0.000        0.000        0.000        0.000        0.000        3.000        0.000        0.000        0.000        0.000        0.000        0.000        0.000        0.000        0.000        0.000        0.000        0.000        1.000        0.000        0.000        5.000        0.000        0.000        0.000        0.000        0.000      100.000        0.000        0.000        2.410        2.394        3.166
     340.000  -248474.233    25158.594    15321.888    46129.488      104.854  -380453.272    45264.214       26.399       26.113        2.637        2.532        2.678        2.622        2.441        2.546        2.681        2.447        2.699        2.579        2.505        2.511        2.457        2.499        2.614        2.610        0.485        2.000        0.000        1.000        0.000        0.000        4.000        0.000        0.000        0.000        0.000        0.000        0.000        0.000        1.000        0.000        0.000        0.000        0.000        0.000        0.000        0.000        0.000        0.000        0.000        0.000        0.000        2.000        0.000        0.000        5.000        0.000        0.000        0.000        0.000        0.000      100.000        0.000        0.000        2.262        2.220        3.229
     350.000  -248635.515    24524.920    14826.148    46443.040       60.026  -381188.214    46698.565       26.205       26.090        2.621        2.589        2.673        2.635        2.437        2.544        2.667        2.428        2.661        2.628        2.505        2.530        2.435        2.545        2.603        2.497        0.488        2.000        0.000        0.000        0.000        0.000        3.000        0.000        0.000        1.000        0.000        0.000        0.000        0.000        1.000        0.000        0.000        0.000        0.000        0.000        0.000        0.000        0.000        0.000        0.000        0.000        0.000        0.000        0.000        1.000        8.000        0.000        0.000        0.000        0.000        0.000      100.000        0.000        0.000        2.313        2.235        3.302
     360.000  -249157.632    24734.412    14838.934    46414.130       85.399  -380980.692    45750.185       26.218       25.955        2.617        2.558        2.685        2.627        2.471        2.567        2.681        2.497        2.642        2.559        2.526        2.524        2.483        2.555        2.606        2.554        0.523        2.000        0.000        0.000        0.000        0.000        4.000        0.000        0.000        0.000        0.000        0.000        0.000        0.000        2.000        0.000        0.000        0.000        0.000        0.000        0.000        0.000        0.000        0.000        0.000        0.000        0.000        2.000        0.000        0.000        7.000        0.000        0.000        0.000        0.000        0.000      100.000        0.000        0.000        2.240        2.192        3.220
     370.000  -248784.040    24785.424    15287.782    46372.876       83.807  -382166.623    46852.694       26.132       26.029        2.644        2.520        2.678        2.659        2.419        2.526        2.634        2.484        2.648        2.588        2.513        2.519        2.433        2.571        2.630        2.592        0.488        2.000        0.000        0.000        0.000        0.000        3.000        0.000        0.000        1.000        0.000        0.000        0.000        0.000        1.000        0.000        0.000        0.000        0.000        0.000        0.000        0.000        0.000        0.000        0.000        1.000        0.000        1.000        0.000        0.000        6.000        1.000        0.000        0.000        0.000        0.000      100.000        0.000        0.000        2.082        2.055        3.104
     380.000  -248500.781    24648.344    14662.371    46278.942       91.548  -380094.941    45912.955       26.204       25.695        2.591        2.599        2.737        2.651        2.408        2.515        2.698        2.433        2.690        2.607        2.520        2.542        2.408        2.543        2.634        2.523        0.502        2.000        0.000        0.000        0.000        0.000        4.000        0.000        0.000        1.000        0.000        0.000        0.000        0.000        0.000        0.000        0.000        0.000        0.000        0.000        0.000        0.000        0.000        0.000        0.000        1.000        0.000        1.000        0.000        0.000        9.000        0.000        0.000        0.000        0.000        0.000      100.000        0.000        0.000        2.038        2.030        3.047
     390.000  -249127.568    23902.413    14889.690    46542.037       72.435  -381355.889    46821.746       26.245       25.891        2.642        2.561        2.671        2.591        2.401        2.502        2.600        2.442        2.651        2.577        2.549        2.509        2.445        2.528        2.627        2.487        0.488        2.000        0.000        0.000        0.000        1.000        4.000        0.000        0.000        0.000        0.000        0.000        0.000        0.000        1.000        0.000        0.000        0.000        0.000        0.000        0.000        0.000        0.000        0.000        0.000        1.000        0.000        1.000        0.000        0.000        7.000        0.000        0.000        0.000        0.000        0.000      100.000        0.000        0.000        1.992        1.992        2.933
     400.000  -248840.567    24583.116    14789.281    46384.439       80.264  -380646.554    45968.888       25.971       25.786        2.614        2.509        2.657        2.658        2.399        2.557        2.642        2.494        2.719        2.579        2.555        2.527        2.449        2.556        2.634        2.525        0.492        2.000        0.000        0.000        0.000        1.000        4.000        0.000        0.000        1.000        0.000        0.000        0.000        0.000        0.000        0.000        0.000        0.000        0.000        0.000        0.000        0.000        0.000        0.000        0.000        0.000        0.000        2.000        0.000        1.000       10.000        0.000        0.000        0.000        0.000        0.000      100.000        0.000        0.000        2.184        2.194        3.076
     410.000  -249169.175    23784.891    14781.426    46139.259       66.026  -380451.567    46510.789       25.992       26.096        2.677        2.584        2.621        2.600        2.425        2.533        2.663        2.439        2.704        2.565        2.552        2.564        2.459        2.591        2.622        2.534        0.460        2.000        0.000        2.000        0.000        2.000        5.000        0.000        0.000        1.000        0.000        0.000        0.000        0.000        2.000        0.000        0.000        0.000        0.000        0.000        0.000        0.000        0.000        0.000        0.000        0.000        0.000        1.000        0.000        0.000        4.000        0.000        0.000        0.000        0.000        0.000      100.000        0.000        0.000        2.148        2.168        2.964
     420.000  -248562.721    24746.258    14787.411    46297.009       78.792  -378527.857    44055.666       25.985       25.933        2.663        2.513        2.726        2.621        2.414        2.533        2.722        2.450        2.683        2.515        2.496        2.561        2.404        2.518        2.650        2.608        0.483        2.000        0.000        1.000        0.000        1.000        4.000        0.000        0.000        0.000        0.000        0.000        0.000        0.000        2.000        0.000        0.000        0.000        0.000        0.000        0.000        0.000        0.000        0.000        0.000        1.000        0.000        0.000        0.000        0.000        6.000        0.000        0.000        0.000        0.000        0.000      100.000        0.000        0.000        2.399        2.416        3.390
     430.000  -248535.743    25412.885    14729.025    45964.524       71.631  -379665.403    44951.595       25.922       26.062        2.635        2.599        2.694        2.659        2.419        2.546        2.675        2.489        2.678        2.572        2.538        2.525        2.492        2.606        2.671        2.574        0.496        2.000        0.000        0.000        0.000        1.000        4.000        0.000        0.000        0.000        0.000        0.000        0.000        0.000        0.000        0.000        0.000        0.000        0.000        0.000        0.000        0.000        0.000        0.000        0.000        2.000        0.000        0.000        0.000        0.000       10.000        0.000        0.000        0.000        0.000        0.000      100.000        0.000        0.000        2.322        2.350        3.261
     440.000  -248397.540    24058.659    15085.126    46352.744       92.762  -380109.082    46122.251       26.118       26.028        2.616        2.561        2.664        2.670        2.438        2.557        2.643        2.402        2.713        2.598        2.468        2.521        2.437        2.537        2.629        2.601        0.487        2.000        0.000        1.000        0.000        1.000        4.000        0.000        0.000        1.000        0.000        0.000        0.000        0.000        0.000        0.000        0.000        0.000        0.000        0.000        0.000        0.000        0.000        0.000        0.000        2.000        0.000        0.000        0.000        2.000       11.000        0.000        0.000        0.000        0.000        0.000      100.000        0.000        0.000        2.455        2.483        3.493
     450.000  -248752.455    25050.699    14897.478    45929.059       94.405  -379259.618    44535.521       26.218       25.901        2.633        2.526        2.650        2.605        2.428        2.520        2.703        2.418        2.658        2.624        2.558        2.506        2.507        2.561        2.636        2.503        0.461        2.000        0.000        1.000        0.000        1.000        3.000        0.000        0.000        0.000        0.000        0.000        0.000        0.000        1.000        0.000        0.000        0.000        0.000        0.000        0.000        0.000        0.000        0.000        0.000        1.000        0.000        1.000        0.000        2.000        9.000        1.000        0.000        0.000        0.000        0.000      100.000        0.000        0.000        2.356        2.341        3.624
     460.000  -248814.147    24552.454    14980.358    46209.626       64.417  -380601.669    45980.667       26.132       25.894        2.606        2.494        2.653        2.617        2.417        2.517        2.694        2.414        2.672        2.624        2.522        2.526        2.468        2.542        2.632        2.569        0.488        1.000        0.000        0.000        0.000        1.000        6.000        0.000        0.000        0.000        0.000        0.000        0.000        0.000        1.000        0.000        0.000        0.000        0.000        0.000        0.000        0.000        0.000        0.000        0.000        1.000        0.000        2.000        0.000        0.000        5.000        0.000        0.000        0.000        0.000        0.000      100.000        0.000        0.000        2.425        2.408        3.580
     470.000  -249121.939    23982.824    15080.331    46316.439       81.667  -380615.432    46032.231       26.093       25.717        2.622        2.558        2.666        2.645        2.401        2.547        2.692        2.405        2.695        2.650        2.479        2.547        2.391        2.628        2.631        2.584        0.486        1.000        0.000        1.000        0.000        1.000        5.000        0.000        0.000        0.000        0.000        0.000        0.000        0.000        1.000        0.000        0.000        0.000        0.000        0.000        0.000        0.000        0.000        0.000        0.000        1.000        0.000        0.000        0.000        0.000       10.000        0.000        0.000        0.000        0.000        0.000      100.000        0.000        0.000        2.238        2.226        3.444
     480.000  -248029.195    25213.859    15029.718    46079.259       66.742  -378991.930    44573.157       26.105       25.962        2.581        2.543        2.716        2.618        2.404        2.565        2.659        2.485        2.702        2.675        2.527        2.532        2.453        2.569        2.649        2.541        0.484        1.000        0.000        1.000        0.000        1.000        6.000        0.000        0.000        1.000        0.000        0.000        0.000        0.000        0.000        0.000        0.000        0.000        0.000        0.000        0.000        0.000        0.000        0.000        0.000        1.000        0.000        2.000        0.000        0.000        6.000        0.000        0.000        0.000        0.000        0.000      100.000        0.000        0.000        2.370        2.385        3.529
     490.000  -248472.282    25446.681    14511.178    46405.422       75.710  -379984.244    45072.971       25.977       25.656        2.683        2.540        2.702        2.622        2.401        2.527        2.660        2.448        2.675        2.612        2.583        2.527        2.437        2.573        2.643        2.538        0.480        1.000        0.000        1.000        0.000        1.000        4.000        0.000        0.000        0.000        0.000        0.000        0.000        0.000        1.000        0.000        0.000        0.000        0.000        0.000        0.000        0.000        0.000        0.000        0.000        3.000        0.000        1.000        0.000        1.000       11.000        0.000        0.000        0.000        0.000        0.000      100.000        0.000        0.000        2.080        2.079        3.220
     500.000  -248349.190    25443.521    15063.564    46056.400       93.288  -379862.978    44857.014       26.056       26.071        2.638        2.592        2.685        2.647        2.421        2.534        2.674        2.469        2.723        2.613        2.537        2.529        2.445        2.545        2.673        2.551        0.506        2.000        0.000        1.000        0.000        2.000        6.000        0.000        0.000        0.000        0.000        0.000        0.000        0.000        1.000        0.000        0.000        0.000        0.000        0.000        0.000        0.000        0.000        0.000        0.000        3.000        0.000        1.000        0.000        0.000       10.000        1.000        0.000        0.000        0.000        0.000      100.000        0.000        0.000        2.177        2.156        3.286
     510.000  -248490.570    25745.165    14792.995    46317.434       86.503  -379436.229    44003.562       26.011       26.094        2.638        2.547        2.640        2.614        2.427        2.523        2.683        2.429        2.699        2.622        2.573        2.547        2.473        2.538        2.661        2.535        0.484        2.000        0.000        2.000        0.000        1.000        6.000        0.000        0.000        1.000        0.000        0.000        0.000        0.000        2.000        0.000        0.000        0.000        0.000        0.000        0.000        0.000        0.000        0.000        0.000        2.000        0.000        1.000        0.000        0.000        6.000        0.000        0.000        0.000        0.000        0.000      100.000        0.000        0.000        2.219        2.212        3.279
     520.000  -248796.885    23916.192    15029.075    46182.439       69.162  -379108.422    45114.669       25.845       26.010        2.613        2.539        2.633        2.613        2.400        2.526        2.692        2.446        2.686        2.658        2.529        2.509        2.450        2.531        2.605        2.534        0.497        2.000        0.000        2.000        0.000        2.000        4.000        0.000        0.000        0.000        0.000        0.000        0.000        0.000        2.000        0.000        0.000        0.000        0.000        0.000        0.000        0.000        0.000        0.000        0.000        1.000        0.000        0.000        0.000        0.000        8.000        0.000        0.000        0.000        0.000        0.000      100.000        0.000        0.000        2.458        2.479        3.491
     530.000  -248244.792    24496.389    15243.585    46303.217       82.605  -379795.220    45424.631       26.053       26.097        2.633        2.576        2.617        2.656        2.397        2.458        2.626        2.468        2.701        2.661        2.579        2.506        2.467        2.564        2.666        2.522        0.461        2.000        0.000        1.000        0.000        2.000        4.000        0.000        0.000        0.000        0.000        0.000        0.000        0.000        0.000        0.000        0.000        0.000        0.000        0.000        0.000        0.000        0.000        0.000        0.000        1.000        0.000        1.000        0.000        0.000       11.000        1.000        0.000        0.000        0.000        0.000      100.000        0.000        0.000        2.226        2.237        3.245
     540.000  -248821.121    25163.941    14917.819    46078.994       92.281  -379043.438    43969.282       26.199       26.157        2.628        2.540        2.709        2.735        2.460        2.509        2.652        2.433        2.747        2.647        2.523        2.568        2.462        2.499        2.631        2.510        0.479        2.000        0.000        0.000        0.000        1.000        3.000        0.000        0.000        1.000        0.000        0.000        0.000        0.000        3.000        0.000        0.000        0.000        0.000        0.000        0.000        0.000        0.000        0.000        0.000        1.000        0.000        1.000        0.000        0.000        3.000        0.000        0.000        0.000        0.000        0.000      100.000        0.000        0.000        2.671        2.683        3.772
     550.000  -248991.176    24789.309    15069.361    46313.330       68.992  -381490.534    46258.365       26.002       25.723        2.632        2.549        2.676        2.655        2.439        2.539        2.677        2.415        2.684        2.630        2.543        2.528        2.422        2.514        2.624        2.581        0.481        1.000        0.000        1.000        0.000        2.000        3.000        0.000        0.000        0.000        0.000        0.000        0.000        0.000        0.000        0.000        0.000        0.000        0.000        0.000        0.000        0.000        0.000        0.000        0.000        1.000        0.000        2.000        0.000        0.000        6.000        0.000        0.000        0.000        0.000        0.000      100.000        0.000        0.000        2.649        2.668        3.612
     560.000  -249099.861    24601.384    15120.675    46211.969       65.047  -379489.867    44390.932       26.427       26.261        2.616        2.531        2.634        2.567        2.428        2.594        2.645        2.468        2.671        2.622        2.539        2.519        2.462        2.496        2.647        2.577        0.484        2.000        0.000        1.000        0.000        1.000        3.000        0.000        0.000        1.000        0.000        0.000        0.000        0.000        1.000        0.000        0.000        0.000        0.000        0.000        0.000        0.000        0.000        0.000        0.000        1.000        0.000        3.000        0.000        0.000       11.000        0.000        0.000        0.000        0.000        0.000      100.000        0.000        0.000        2.414        2.405        3.407
     570.000  -248414.445    24168.923    14780.320    46355.812       71.684  -379923.722    46132.537       25.894       25.857        2.649        2.532        2.688        2.673        2.366        2.553        2.671        2.442        2.692        2.589        2.576        2.589        2.414        2.513        2.678        2.513        0.499        2.000        0.000        1.000        0.000        2.000        2.000        0.000        0.000        0.000        0.000        0.000        0.000        0.000        0.000        0.000        0.000        0.000        0.000        0.000        0.000        0.000        0.000        0.000        0.000        1.000        0.000        0.000        0.000        1.000        8.000        0.000        0.000        0.000        0.000        0.000      100.000        0.000        0.000        2.530        2.584        3.443
     580.000  -248648.316    24726.909    14642.496    46256.131       83.447  -378749.310    44392.011       26.176       25.780        2.652        2.579        2.657        2.597        2.430        2.552        2.650        2.424        2.679        2.626        2.579        2.532        2.471        2.552        2.628        2.574        0.505        2.000        0.000        1.000        0.000        1.000        2.000        0.000        0.000        0.000        0.000        0.000        0.000        0.000        2.000        0.000        0.000        0.000        0.000        0.000        0.000        0.000        0.000        0.000        0.000        2.000        0.000        2.000        0.000        0.000        9.000        0.000        0.000        0.000        0.000        0.000      100.000        0.000        0.000        2.248        2.246        3.367
     590.000  -248882.604    23268.826    14634.054    46305.329       78.172  -378882.943    45713.958       26.136       25.530        2.625        2.536        2.713        2.686        2.419        2.538        2.663        2.538        2.674        2.617        2.617        2.576        2.485        2.600        2.619        2.555        0.485        2.000        0.000        2.000        0.000        2.000        3.000        0.000        0.000        1.000        0.000        0.000        0.000        0.000        0.000        0.000        0.000        0.000        0.000        0.000        0.000        0.000        0.000        0.000        0.000        0.000        0.000        1.000        0.000        0.000        7.000        0.000        0.000        0.000        0.000        0.000      100.000        0.000        0.000        2.473        2.479        3.425
     600.000  -248762.001    24287.909    14819.669    46208.273       88.761  -379581.936    45415.323       26.215       25.642        2.623        2.533        2.675        2.654        2.398        2.608        2.724        2.482        2.711        2.637        2.641        2.525        2.408        2.554        2.625        2.611        0.480        2.000        0.000        1.000        0.000        3.000        3.000        0.000        0.000        0.000        0.000        0.000        0.000        0.000        0.000        0.000        0.000        0.000        0.000        0.000        0.000        0.000        0.000        0.000        0.000        0.000        0.000        3.000        0.000        0.000        3.000        0.000        0.000        0.000        0.000        0.000      100.000        0.000        0.000        2.128        2.146        3.188
     610.000  -248675.392    24818.446    14774.475    46275.387       80.657  -379239.729    44615.371       26.196       25.408        2.665        2.546        2.672        2.640        2.380        2.505        2.701        2.485        2.702        2.576        2.579        2.516        2.449        2.605        2.605        2.621        0.485        2.000        0.000        2.000        0.000        2.000        2.000        0.000        0.000        1.000        0.000        0.000        0.000        0.000        1.000        0.000        0.000        0.000        0.000        0.000        0.000        0.000        0.000        0.000        0.000        0.000        0.000        1.000        0.000        0.000        5.000        0.000        0.000        0.000        0.000        0.000      100.000        0.000        0.000        2.253        2.270        3.243
     620.000  -248612.477    24226.119    14761.009    46410.308       82.352  -379676.345    45584.080       26.306       25.775        2.641        2.536        2.688        2.657        2.411        2.506        2.710        2.491        2.699        2.627        2.620        2.483        2.466        2.570        2.602        2.596        0.493        2.000        0.000        2.000        0.000        1.000        3.000        0.000        0.000        1.000        0.000        0.000        0.000        0.000        1.000        0.000        0.000        0.000        0.000        0.000        0.000        0.000        0.000        0.000        0.000        1.000        0.000        4.000        0.000        0.000        9.000        2.000        0.000        0.000        0.000        0.000      100.000        0.000        0.000        2.336        2.330        3.246
     630.000  -247925.758    24178.427    14906.577    46520.247       81.395  -379859.967    46247.563       26.180       25.708        2.625        2.529        2.634        2.658        2.404        2.530        2.659        2.506        2.661        2.597        2.594        2.471        2.448        2.582        2.621        2.645        0.478        2.000        0.000        2.000        0.000        2.000        2.000        0.000        0.000        0.000        0.000        0.000        0.000        0.000        1.000        0.000        0.000        0.000        0.000        0.000        0.000        0.000        0.000        0.000        0.000        1.000        0.000        1.000        0.000        0.000        8.000        0.000        0.000        0.000        0.000        0.000      100.000        0.000        0.000        2.232        2.215        3.134
     640.000  -248627.552    23996.775    14698.449    46483.917       62.896  -380717.191    46847.603       25.776       25.443        2.620        2.558        2.631        2.662        2.434        2.527        2.633        2.471        2.650        2.538        2.620        2.556        2.459        2.558        2.623        2.547        0.499        2.000        0.000        1.000        0.000        1.000        1.000        0.000        0.000        0.000        0.000        0.000        0.000        0.000        0.000        0.000        0.000        0.000        0.000        0.000        0.000        0.000        0.000        0.000        0.000        0.000        0.000        3.000        0.000        0.000        7.000        1.000        0.000        0.000        0.000        0.000      100.000        0.000        0.000        2.312        2.302        3.280
     650.000  -248365.696    25736.472    14790.772    46111.421       94.460  -378869.430    43770.609       25.764       25.532        2.639        2.591        2.686        2.663        2.403        2.557        2.624        2.449        2.618        2.587        2.628        2.575        2.489        2.587        2.613        2.594        0.490        2.000        0.000        1.000        0.000        3.000        3.000        0.000        0.000        2.000        0.000        0.000        0.000        0.000        2.000        0.000        0.000        0.000        0.000        0.000        0.000        0.000        0.000        0.000        0.000        0.000        0.000        1.000        0.000        0.000        9.000        0.000        0.000        0.000        0.000        0.000      100.000        0.000        0.000        2.410        2.410        3.372
     660.000  -248044.509    24573.247    15006.349    46168.347       74.734  -378593.539    44726.352       25.811       25.608        2.616        2.556        2.640        2.684        2.419        2.506        2.683        2.493        2.654        2.648        2.624        2.543        2.518        2.628        2.594        2.581        0.475        2.000        0.000        2.000        0.000        2.000        3.000        0.000        0.000        1.000        0.000        0.000        0.000        0.000        1.000        0.000        0.000        0.000        0.000        0.000        0.000        0.000        0.000        0.000        0.000        1.000        0.000        1.000        0.000        0.000        8.000        1.000        0.000        0.000        0.000        0.000      100.000        0.000        0.000        2.661        2.649        3.465
     670.000  -248286.445    24485.710    14651.871    46149.486       81.513  -379106.463    45451.437       26.149       25.767        2.655        2.565        2.727        2.625        2.406        2.540        2.646        2.503        2.707        2.646        2.612        2.530        2.446        2.574        2.631        2.596        0.477        2.000        0.000        2.000        0.000        3.000        2.000        0.000        0.000        0.000        0.000        0.000        0.000        0.000        1.000        0.000        0.000        0.000        0.000        0.000        0.000        0.000        0.000        0.000        0.000        0.000        0.000        2.000        0.000        0.000       10.000        0.000        0.000        0.000        0.000        0.000      100.000        0.000        0.000        2.497        2.490        3.433
     680.000  -248880.202    24068.991    14969.755    46017.601       67.656  -380600.631    46596.427       26.442       26.023        2.652        2.521        2.678        2.599        2.432        2.513        2.663        2.438        2.625        2.638        2.606        2.538        2.470        2.592        2.609        2.533        0.463        2.000        0.000        1.000        0.000        3.000        3.000        0.000        0.000        0.000        0.000        0.000        0.000        0.000        1.000        0.000        0.000        0.000        0.000        0.000        0.000        0.000        0.000        0.000        0.000        0.000        0.000        0.000        0.000        0.000        3.000        0.000        0.000        0.000        0.000        0.000      100.000        0.000        0.000        2.410        2.409        3.268
     690.000  -249180.699    25004.694    14963.765    46115.914       68.876  -380144.228    44810.280       26.211       25.531        2.660        2.528        2.645        2.569        2.432        2.591        2.606        2.520        2.643        2.570        2.679        2.528        2.476        2.595        2.634        2.572        0.490        2.000        0.000        2.000        0.000        1.000        2.000        0.000        0.000        1.000        0.000        0.000        0.000        0.000        2.000        0.000        0.000        0.000        0.000        0.000        0.000        0.000        0.000        0.000        0.000        0.000        0.000        0.000        0.000        0.000        7.000        0.000        0.000        0.000        0.000        0.000      100.000        0.000        0.000        2.366        2.378        3.268
     700.000  -248791.609    23736.592    14955.247    46309.654       83.968  -379099.208    45222.137       26.189       25.551        2.626        2.554        2.632        2.585        2.401        2.527        2.633        2.527        2.698        2.533        2.625        2.562        2.443        2.595        2.596        2.495        0.484        2.000        0.000        2.000        0.000        2.000        1.000        0.000        0.000        1.000        0.000        0.000        0.000        0.000        1.000        0.000        0.000        0.000        0.000        0.000        0.000        0.000        0.000        0.000        0.000        0.000        0.000        1.000        0.000        0.000       10.000        0.000        0.000        0.000        0.000        0.000      100.000        0.000        0.000        2.469        2.486        3.403
     710.000  -248555.726    23731.801    14720.465    46280.892       90.506  -378831.136    45451.746       26.133       25.614        2.645        2.534        2.694        2.633        2.385        2.533        2.631        2.462        2.688        2.571        2.636        2.549        2.432        2.549        2.625        2.535        0.493        2.000        0.000        2.000        0.000        3.000        4.000        0.000        0.000        0.000        0.000        0.000        0.000        0.000        1.000        0.000        0.000        0.000        0.000        0.000        0.000        0.000        0.000        0.000        0.000        0.000        0.000        1.000        0.000        0.000        7.000        0.000        0.000        0.000        0.000        0.000      100.000        0.000        0.000        2.509        2.535        3.382
     720.000  -248302.608    25399.517    14919.465    46080.834       86.182  -379429.243    44640.637       26.360       25.837        2.607        2.511        2.666        2.682        2.421        2.553        2.647        2.457        2.689        2.555        2.638        2.520        2.478        2.556        2.652        2.550        0.473        2.000        0.000        1.000        0.000        1.000        3.000        0.000        0.000        0.000        0.000        0.000        0.000        0.000        0.000        0.000        0.000        0.000        0.000        0.000        0.000        0.000        0.000        0.000        0.000        1.000        0.000        1.000        0.000        0.000        6.000        0.000        0.000        0.000        0.000        0.000      100.000        0.000        0.000        2.377        2.388        3.380
     730.000  -248274.677    24389.827    15094.637    46171.416       52.936  -379687.768    45704.275       26.346       26.032        2.613        2.519        2.694        2.650        2.419        2.558        2.660        2.468        2.682        2.590        2.596        2.530        2.454        2.573        2.618        2.443        0.480        2.000        0.000        1.000        0.000        3.000        3.000        0.000        0.000        1.000        0.000        0.000        0.000        0.000        0.000        0.000        0.000        0.000        0.000        0.000        0.000        0.000        0.000        0.000        0.000        2.000        0.000        2.000        0.000        0.000        9.000        1.000        0.000        0.000        0.000        0.000      100.000        0.000        0.000        2.314        2.333        3.457
     740.000  -248380.185    24124.000    14823.682    46164.028       63.287  -378733.477    45178.295       26.284       26.141        2.604        2.516        2.676        2.693        2.391        2.543        2.628        2.452        2.676        2.640        2.612        2.487        2.478        2.515        2.602        2.519        0.494        2.000        0.000        1.000        0.000        3.000        2.000        0.000        0.000        1.000        0.000        0.000        0.000        0.000        0.000        0.000        0.000        0.000        0.000        0.000        0.000        0.000        0.000        0.000        0.000        1.000        0.000        3.000        0.000        0.000       12.000        0.000        0.000        0.000        0.000        0.000      100.000        0.000        0.000        2.398        2.427        3.449
     750.000  -249085.808    24764.521    14780.445    46163.083       75.938  -380259.448    45389.653       26.307       26.032        2.596        2.557        2.674        2.666        2.428        2.527        2.608        2.500        2.662        2.617        2.632        2.513        2.461        2.556        2.635        2.482        0.494        1.000        0.000        0.000        0.000        3.000        1.000        0.000        0.000        1.000        0.000        0.000        0.000        0.000        2.000        0.000        0.000        0.000        0.000        0.000        0.000        0.000        0.000        0.000        0.000        0.000        0.000        2.000        0.000        0.000        8.000        0.000        0.000        0.000        0.000        0.000      100.000        0.000        0.000        2.366        2.383        3.423
     760.000  -248922.394    24721.024    15511.327    45933.630       65.220  -379944.964    44791.369       26.322       26.036        2.574        2.537        2.707        2.675        2.423        2.539        2.635        2.463        2.711        2.655        2.666        2.543        2.482        2.561        2.627        2.465        0.493        2.000        0.000        1.000        0.000        3.000        2.000        0.000        0.000        0.000        0.000        0.000        0.000        0.000        1.000        0.000        0.000        0.000        0.000        0.000        0.000        0.000        0.000        0.000        0.000        0.000        0.000        0.000        0.000        0.000        6.000        0.000        0.000        0.000        4.494        0.000       95.506        0.000        0.000        1.896        1.902        3.192
     770.000  -248613.389    24181.969    14867.158    46300.672       84.512  -380044.622    45996.923       26.017       25.741        2.576        2.566        2.664        2.641        2.412        2.504        2.644        2.497        2.643        2.605        2.645        2.548        2.457        2.561        2.622        2.446        0.486        2.000        0.000        1.000        0.000        3.000        3.000        0.000        0.000        0.000        0.000        0.000        0.000        0.000        1.000        0.000        0.000        0.000        0.000        0.000        0.000        0.000        0.000        0.000        0.000        0.000        0.000        2.000        0.000        0.000        7.000        0.000        0.000        0.000        0.000        0.000      100.000        0.000        0.000        1.968        1.946        3.247
     780.000  -248246.401    23672.377    15147.601    46167.231       69.843  -379296.535    45993.082       26.348       25.929        2.548        2.548        2.632        2.631        2.413        2.520        2.620        2.524        2.680        2.612        2.587        2.478        2.484        2.526        2.610        2.555        0.482        2.000        0.000        0.000        0.000        2.000        2.000        0.000        0.000        0.000        0.000        0.000        0.000        0.000        1.000        0.000        0.000        0.000        0.000        0.000        0.000        0.000        0.000        0.000        0.000        2.000        0.000        2.000        0.000        0.000       10.000        0.000        0.000        0.000        0.000        0.000      100.000        0.000        0.000        2.209        2.200        3.249
     790.000  -247854.478    23870.919    14777.987    46310.105       76.462  -378814.690    45924.739       26.029       25.817        2.582        2.496        2.639        2.654        2.403        2.539        2.660        2.479        2.627        2.623        2.628        2.496        2.452        2.523        2.634        2.502        0.479        1.000        0.000        1.000        0.000        3.000        4.000        0.000        0.000        1.000        0.000        0.000        0.000        0.000        2.000        0.000        0.000        0.000        0.000        0.000        0.000        0.000        0.000        0.000        0.000        2.000        0.000        2.000        0.000        0.000        6.000        0.000        0.000        0.000        0.000        0.000      100.000        0.000        0.000        2.349        2.327        3.477
     800.000  -249317.736    23757.496    14700.100    46369.036       85.042  -380537.430    46308.021       25.900       25.879        2.641        2.499        2.636        2.670        2.419        2.546        2.644        2.482        2.635        2.601        2.604        2.509        2.471        2.509        2.641        2.426        0.483        2.000        0.000        1.000        0.000        2.000        4.000        0.000        0.000        0.000        0.000        0.000        0.000        0.000        1.000        0.000        0.000        0.000        0.000        0.000        0.000        0.000        0.000        0.000        0.000        0.000        0.000        0.000        0.000        1.000        4.000        0.000        0.000        0.000        0.000        0.000      100.000        0.000        0.000        2.464        2.475        3.411
     810.000  -248716.281    24626.485    14893.791    46239.919       94.565  -379872.084    45301.043       26.340       26.307        2.606        2.533        2.683        2.660        2.423        2.554        2.652        2.487        2.687        2.621        2.644        2.533        2.453        2.564        2.664        2.565        0.471        1.000        0.000        0.000        0.000        2.000        4.000        0.000        0.000        0.000        0.000        0.000        0.000        0.000        0.000        0.000        0.000        0.000        0.000        0.000        0.000        0.000        0.000        0.000        0.000        3.000        0.000        3.000        0.000        0.000        4.000        0.000        0.000        0.000        0.000        0.000      100.000        0.000        0.000        2.515        2.523        3.427
     820.000  -249104.489    24960.486    14986.266    45969.374       87.399  -378618.038    43510.024       26.388       26.319        2.571        2.535        2.630        2.608        2.413        2.574        2.637        2.488        2.647        2.559        2.627        2.473        2.450        2.562        2.656        2.493        0.493        2.000        0.000        1.000        0.000        0.000        4.000        0.000        0.000        0.000        0.000        0.000        0.000        0.000        1.000        0.000        0.000        0.000        0.000        0.000        0.000        0.000        0.000        0.000        0.000        2.000        0.000        3.000        0.000        1.000        6.000        1.000        0.000        0.000        0.000        0.000      100.000        0.000        0.000        2.146        2.158        3.041
     830.000  -248976.703    25671.505    14689.153    46099.329       83.068  -379636.576    44116.818       26.273       26.009        2.579        2.523        2.625        2.598        2.456        2.527        2.657        2.453        2.675        2.603        2.647        2.477        2.477        2.528        2.636        2.449        0.495        1.000        0.000        1.000        0.000        2.000        4.000        0.000        0.000        0.000        0.000        0.000        0.000        0.000        0.000        0.000        0.000        0.000        0.000        0.000        0.000        0.000        0.000        0.000        0.000        2.000        0.000        1.000        0.000        1.000        9.000        1.000        0.000        0.000        0.000        0.000      100.000        0.000        0.000        1.952        1.972        2.877
     840.000  -249519.760    23616.062    14926.385    46459.775       82.281  -380635.514    46031.251       26.073       25.690        2.588        2.539        2.687        2.592        2.405        2.572        2.649        2.471        2.654        2.504        2.639        2.531        2.481        2.510        2.631        2.497        0.492        2.000        0.000        1.000        0.000        2.000        2.000        0.000        0.000        1.000        0.000        0.000        0.000        0.000        1.000        0.000        0.000        0.000        0.000        0.000        0.000        0.000        0.000        0.000        0.000        1.000        0.000        1.000        0.000        0.000       11.000        1.000        0.000        0.000        0.000        0.000      100.000        0.000        0.000        1.746        1.790        2.703
     850.000  -248903.630    24878.195    15139.330    46376.300       68.201  -379639.557    44273.901       26.272       26.059        2.537        2.520        2.675        2.642        2.419        2.550        2.669        2.423        2.672        2.560        2.624        2.520        2.444        2.565        2.660        2.484        0.484        2.000        0.000        2.000        0.000        2.000        3.000        0.000        0.000        0.000        0.000        0.000        0.000        0.000        3.000        0.000        0.000        0.000        0.000        0.000        0.000        0.000        0.000        0.000        0.000        1.000        0.000        1.000        0.000        0.000       11.000        0.000        0.000        0.000        0.000        0.000      100.000        0.000        0.000        1.948        1.976        2.639
     860.000  -249280.834    23659.681    14928.265    46283.110       90.104  -380965.885    46723.891       26.527       25.743        2.561        2.533        2.650        2.610        2.408        2.535        2.652        2.429        2.646        2.515        2.627        2.557        2.417        2.531        2.672        2.437        0.493        1.000        0.000        2.000        0.000        2.000        2.000        0.000        0.000        0.000        0.000        0.000        0.000        0.000        0.000        0.000        0.000        0.000        0.000        0.000        0.000        0.000        0.000        0.000        0.000        1.000        0.000        0.000        0.000        0.000       14.000        1.000        0.000        0.000        0.000        0.000      100.000        0.000        0.000        2.168        2.217        2.897
     870.000  -248693.893    26126.400    14832.212    46100.304       76.906  -380189.138    44359.423       26.326       25.852        2.579        2.517        2.684        2.649        2.381        2.543        2.641        2.476        2.758        2.515        2.642        2.579        2.505        2.573        2.639        2.469        0.475        1.000        0.000        2.000        0.000        2.000        1.000        0.000        0.000        1.000        0.000        0.000        0.000        0.000        1.000        0.000        0.000        0.000        0.000        0.000        0.000        0.000        0.000        0.000        0.000        2.000        0.000        0.000        0.000        0.000       10.000        0.000        0.000        0.000        0.000        0.000      100.000        0.000        0.000        1.928        1.944        2.755
     880.000  -248678.668    23921.672    15141.564    46130.520       76.958  -380083.232    46133.849       25.984       25.859        2.590        2.509        2.698        2.640        2.413        2.536        2.663        2.421        2.673        2.473        2.620        2.503        2.426        2.576        2.680        2.528        0.503        2.000        0.000        1.000        0.000        2.000        2.000        0.000        0.000        1.000        0.000        0.000        0.000        0.000        1.000        0.000        0.000        0.000        0.000        0.000        0.000        0.000        0.000        0.000        0.000        0.000        0.000        3.000        0.000        0.000        8.000        0.000        0.000        0.000        0.000        0.000      100.000        0.000        0.000        1.772        1.806        2.596
     890.000  -248949.127    25374.905    14852.487    46157.473       69.307  -380238.583    44835.283       25.960       25.717        2.612        2.511        2.650        2.599        2.418        2.554        2.648        2.491        2.694        2.544        2.613        2.572        2.472        2.556        2.643        2.454        0.488        2.000        0.000        2.000        0.000        2.000        2.000        0.000        0.000        1.000        0.000        0.000        0.000        0.000        2.000        0.000        0.000        0.000        0.000        0.000        0.000        0.000        0.000        0.000        0.000        0.000        0.000        2.000        0.000        0.000       10.000        0.000        0.000        0.000        0.000        0.000      100.000        0.000        0.000        1.798        1.820        2.555
     900.000  -249900.347    24881.810    14596.090    46083.527       84.413  -380035.618    44489.432       26.015       25.721        2.584        2.524        2.664        2.619        2.420        2.516        2.677        2.410        2.675        2.531        2.599        2.540        2.469        2.561        2.609        2.473        0.496        2.000        0.000        2.000        0.000        1.000        2.000        0.000        0.000        1.000        0.000        0.000        0.000        0.000        1.000        0.000        0.000        0.000        0.000        0.000        0.000        0.000        0.000        0.000        0.000        0.000        0.000        1.000        0.000        1.000        8.000        0.000        0.000        0.000        0.000        0.000      100.000        0.000        0.000        1.994        2.017        2.724
     910.000  -248273.800    25857.327    14729.298    45959.288       85.936  -378768.877    43863.228       26.509       26.009        2.596        2.532        2.728        2.647        2.427        2.529        2.651        2.488        2.696        2.527        2.636        2.498        2.464        2.565        2.654        2.498        0.506        2.000        0.000        2.000        0.000        1.000        1.000        0.000        0.000        0.000        0.000        0.000        0.000        0.000        0.000        0.000        0.000        0.000        0.000        0.000        0.000        0.000        0.000        0.000        0.000        0.000        0.000        1.000        0.000        0.000        8.000        1.000        0.000        0.000        0.000        0.000      100.000        0.000        0.000        2.128        2.177        2.834
     920.000  -248834.057    23713.049    15262.030    46369.375       76.807  -380156.385    45901.067       26.259       25.765        2.577        2.529        2.696        2.669        2.414        2.491        2.678        2.462        2.677        2.503        2.606        2.533        2.423        2.568        2.622        2.497        0.486        2.000        0.000        2.000        0.000        1.000        1.000        0.000        0.000        0.000        0.000        0.000        0.000        0.000        2.000        0.000        0.000        0.000        0.000        0.000        0.000        0.000        0.000        0.000        0.000        0.000        0.000        0.000        0.000        0.000       11.000        0.000        0.000        0.000        0.000        0.000      100.000        0.000        0.000        2.314        2.377        2.889
     930.000  -249126.680    25483.503    15061.213    46110.065       81.150  -380394.633    44532.022       26.471       25.792        2.564        2.485        2.709        2.706        2.393        2.554        2.611        2.446        2.661        2.565        2.677        2.561        2.494        2.566        2.625        2.544        0.469        2.000        0.000        2.000        0.000        1.000        1.000        0.000        0.000        1.000        0.000        0.000        0.000        0.000        1.000        0.000        0.000        0.000        0.000        0.000        0.000        0.000        0.000        0.000        0.000        0.000        0.000        1.000        0.000        0.000       14.000        1.000        0.000        0.000        0.000        0.000      100.000        0.000        0.000        2.537        2.614        3.105
     940.000  -248395.348    23834.491    15065.322    46209.187       79.542  -380027.476    46443.586       26.352       25.969        2.551        2.548        2.679        2.690        2.431        2.545        2.632        2.430        2.702        2.533        2.581        2.483        2.424        2.563        2.670        2.440        0.491        1.000        0.000        1.000        0.000        2.000        2.000        0.000        0.000        0.000        0.000        0.000        0.000        0.000        0.000        0.000        0.000        0.000        0.000        0.000        0.000        0.000        0.000        0.000        0.000        0.000        0.000        1.000        0.000        0.000       10.000        0.000        0.000        0.000        0.000        0.000      100.000        0.000        0.000        2.374        2.457        2.963
     950.000  -249404.954    24577.281    15214.978    46063.915       60.570  -381437.040    46115.341       26.251       26.018        2.638        2.562        2.672        2.680        2.380        2.509        2.659        2.446        2.713        2.498        2.598        2.498        2.452        2.613        2.616        2.480        0.500        2.000        0.000        1.000        0.000        1.000        4.000        0.000        0.000        1.000        0.000        0.000        0.000        0.000        2.000        0.000        0.000        0.000        0.000        0.000        0.000        0.000        0.000        0.000        0.000        0.000        0.000        0.000        0.000        0.000        8.000        0.000        0.000        0.000        0.000        0.000      100.000        0.000        0.000        2.050        2.109        2.795
     960.000  -248624.973    24455.817    15015.967    46433.334       83.324  -380372.878    45759.464       25.887       25.481        2.561        2.552        2.669        2.592        2.435        2.554        2.698        2.510        2.672        2.571        2.657        2.486        2.406        2.646        2.664        2.502        0.493        2.000        0.000        1.000        0.000        1.000        2.000        0.000        0.000        1.000        0.000        0.000        0.000        0.000        1.000        0.000        0.000        0.000        0.000        0.000        0.000        0.000        0.000        0.000        0.000        0.000        0.000        1.000        0.000        0.000       11.000        1.000        0.000        0.000        0.000        0.000      100.000        0.000        0.000        1.592        1.648        2.423
     970.000  -248957.182    24611.104    14888.078    46071.252       77.824  -379093.251    44487.811       26.161       25.860        2.567        2.510        2.685        2.638        2.407        2.525        2.611        2.488        2.664        2.646        2.618        2.535        2.461        2.531        2.679        2.569        0.477        2.000        0.000        1.000        0.000        2.000        4.000        0.000        0.000        1.000        0.000        0.000        0.000        0.000        2.000        0.000        0.000        0.000        0.000        0.000        0.000        0.000        0.000        0.000        0.000        0.000        0.000        0.000        0.000        1.000        8.000        0.000        0.000        0.000        0.000        0.000      100.000        0.000        0.000        1.816        1.876        2.615
     980.000  -249260.681    24731.957    15085.837    46020.170       72.939  -379610.566    44438.982       26.063       25.515        2.545        2.589        2.654        2.705        2.434        2.496        2.629        2.518        2.649        2.663        2.661        2.513        2.459        2.543        2.623        2.542        0.512        2.000        0.000        2.000        0.000        1.000        2.000        0.000        0.000        0.000        0.000        0.000        0.000        0.000        1.000        0.000        0.000        0.000        0.000        0.000        0.000        0.000        0.000        0.000        0.000        0.000        0.000        3.000        0.000        0.000        8.000        1.000        0.000        0.000        0.000        0.000      100.000        0.000        0.000        1.838        1.889        2.571
     990.000  -248902.329    24246.239    15100.667    46387.111       78.766  -380337.509    45622.397       25.821       25.479        2.537        2.613        2.735        2.630        2.402        2.557        2.602        2.461        2.669        2.641        2.598        2.526        2.420        2.550        2.595        2.416        0.491        2.000        0.000        1.000        0.000        2.000        2.000        0.000        0.000        0.000        0.000        0.000        0.000        0.000        1.000        0.000        0.000        0.000        0.000        0.000        0.000        0.000        0.000        0.000        0.000        1.000        0.000        3.000        0.000        0.000        6.000        0.000        0.000        0.000        0.000        0.000      100.000        0.000        0.000        2.079        2.126        2.726
    1000.000  -248797.402    23380.540    15106.957    46071.461       77.693  -381107.723    47673.669       25.801       25.536        2.578        2.672        2.666        2.637        2.409        2.534        2.646        2.500        2.649        2.550        2.599        2.542        2.445        2.544        2.646        2.575        0.503        1.000        0.000        2.000        0.000        2.000        2.000        0.000        0.000        1.000        0.000        0.000        0.000        0.000        3.000        0.000        0.000        0.000        0.000        0.000        0.000        0.000        0.000        0.000        0.000        0.000        0.000        2.000        0.000        0.000        8.000        1.000        0.000        0.000        0.000        0.000      100.000        0.000        0.000        2.057        2.103        2.659
     Average  -250318.069    24920.054    14911.148    46213.830       77.903  -382438.484    45997.480       26.136       25.912        2.610        2.545        2.657        2.634        2.433        2.541        2.650        2.461        2.674        2.608        2.561        2.525        2.453        2.544        2.625        2.534        0.487        1.822        0.000        1.366        0.000        1.109        3.416        0.000        0.000        0.366        0.000        0.000        0.000        0.000        1.079        0.000        0.000        0.000        0.000        0.000        0.000        0.000        0.000        0.000        0.000        0.663        0.000        1.228        0.000        0.257        8.257        0.267        0.000        0.000        0.044        0.000       99.956        0.000        0.000        2.052        2.060        2.846

