____Time[ps] Energy[ kJ/mol ]_____Bond _______Angle ____Dihedral ___Planarity _____Coulomb _________VdW _Your result _Your result _Your result _Your result _Your result _Your result _Your result _Your result _Your result _Your result _Your result _Your result _Your result _Your result _Your result _Your result _Your result _Your result _Your result _Your result _Your result _Your result _Your result _Your result _Your result _Your result _Your result _Your result _Your result _Your result _Your result _Your result _Your result _Your result _Your result _Your result _Your result _Your result _Your result _Your result _Your result _Your result _Your result _Your result _Your result _Your result _Your result _Your result _Your result _Your result _Your result _Your result _Your result _Your result _Your result _Your result _Your result _RMSDs[A]:CA ____Backbone __HeavyAtoms
       0.000  -299389.464     9879.679     4567.671    44100.962       10.643  -416193.883    58245.464       25.475       25.235        2.577        2.546        2.651        2.691        2.686        2.992        2.675        2.512        3.194        2.597        2.620        2.667        3.071        2.993        2.668        2.589        0.489        0.000        1.000        0.000        0.000        2.000        4.000        0.000        0.000        0.000        0.000        0.000        0.000        0.000        0.000        2.000        0.000        0.000        0.000        0.000        0.000        0.000        0.000        0.000        0.000        0.000        2.000        0.000        1.000        2.000        5.000        1.000        0.000        0.000        4.494        0.000       95.506        0.000        0.000        0.437        0.466        0.576
      10.000  -224277.003    26532.439    13863.020    43671.018       69.941  -349885.444    41472.023       26.094       25.993        2.637        2.593        2.703        2.702        2.697        3.031        2.668        2.631        3.194        2.595        2.544        2.690        3.168        3.045        2.724        2.580        0.458        1.000        1.000        1.000        0.000        1.000        3.000        0.000        0.000        0.000        0.000        0.000        0.000        0.000        0.000        1.000        0.000        0.000        0.000        0.000        0.000        0.000        0.000        0.000        0.000        0.000        0.000        0.000        2.000        1.000        5.000        2.000        0.000        0.000        4.494        0.000       95.506        0.000        0.000        1.317        1.356        1.523
      20.000  -223440.481    25589.812    13849.198    43372.087       66.585  -348470.448    42152.285       26.138       26.004        2.631        2.560        2.702        2.738        2.691        2.961        2.683        2.639        3.215        2.609        2.605        2.679        3.113        3.002        2.716        2.594        0.502        2.000        1.000        0.000        0.000        1.000        2.000        0.000        0.000        0.000        0.000        0.000        0.000        0.000        3.000        0.000        0.000        0.000        0.000        0.000        0.000        0.000        0.000        0.000        0.000        3.000        0.000        0.000        2.000        3.000        8.000        2.000        0.000        0.000        0.000        0.000      100.000        0.000        0.000        1.348        1.354        1.522
      30.000  -223884.811    24155.196    14416.304    43373.158       84.347  -348321.429    42407.612       26.332       25.949        2.636        2.570        2.683        2.671        2.720        2.889        2.679        2.648        3.181        2.690        2.524        2.691        3.132        3.050        2.677        2.538        0.503        2.000        1.000        0.000        0.000        0.000        2.000        0.000        0.000        0.000        0.000        0.000        0.000        0.000        0.000        0.000        0.000        0.000        0.000        0.000        0.000        0.000        0.000        0.000        0.000        2.000        1.000        4.000        2.000        2.000        7.000        1.000        0.000        0.000        0.000        0.000      100.000        0.000        0.000        1.346        1.349        1.484
      40.000  -223683.020    25314.391    14267.188    43248.216       95.505  -347363.085    40754.764       26.382       26.023        2.595        2.571        2.716        2.688        2.702        2.910        2.676        2.639        3.247        2.655        2.648        2.642        3.142        3.062        2.702        2.582        0.463        2.000        1.000        1.000        0.000        0.000        1.000        0.000        0.000        0.000        0.000        0.000        0.000        0.000        1.000        0.000        0.000        0.000        0.000        0.000        0.000        0.000        0.000        0.000        0.000        2.000        3.000        1.000        1.000        2.000        7.000        0.000        0.000        0.000        0.000        0.000      100.000        0.000        0.000        1.520        1.511        1.729
      50.000  -223153.300    23964.956    14355.531    43666.066       62.663  -347188.124    41985.608       26.171       25.750        2.592        2.567        2.680        2.708        2.689        3.042        2.645        2.609        3.179        2.604        2.708        2.654        3.157        3.040        2.697        2.566        0.478        1.000        1.000        1.000        0.000        0.000        2.000        0.000        0.000        1.000        0.000        0.000        0.000        0.000        0.000        1.000        0.000        0.000        0.000        0.000        0.000        0.000        0.000        0.000        0.000        0.000        1.000        0.000        2.000        2.000        8.000        1.000        0.000        0.000        0.000        0.000      100.000        0.000        0.000        1.375        1.371        1.641
      60.000  -222993.859    25204.683    14082.160    43244.841       79.957  -346503.067    40897.567       26.192       25.932        2.581        2.562        2.700        2.687        2.726        2.933        2.692        2.610        3.201        2.637        2.669        2.645        3.136        3.026        2.709        2.584        0.455        1.000        1.000        0.000        0.000        1.000        2.000        0.000        0.000        0.000        1.000        0.000        0.000        0.000        0.000        0.000        0.000        0.000        0.000        0.000        0.000        0.000        0.000        0.000        0.000        0.000        1.000        0.000        1.000        0.000        6.000        2.000        0.000        0.000        0.000        0.000      100.000        0.000        0.000        1.499        1.486        1.765
      70.000  -223946.111    23638.628    14055.168    43480.849       79.172  -347528.768    42328.840       25.816       25.649        2.614        2.575        2.664        2.657        2.680        3.046        2.719        2.584        3.236        2.690        2.669        2.691        3.223        3.009        2.719        2.553        0.489        1.000        1.000        1.000        0.000        1.000        2.000        0.000        0.000        0.000        0.000        0.000        0.000        0.000        2.000        2.000        0.000        0.000        0.000        0.000        0.000        0.000        0.000        0.000        0.000        0.000        1.000        3.000        2.000        1.000        2.000        4.000        0.000        0.000        0.000        0.000      100.000        0.000        0.000        1.241        1.245        1.641
      80.000  -223292.463    24020.952    14115.033    43298.779       70.921  -345320.063    40521.915       25.937       25.540        2.550        2.655        2.721        2.644        2.738        3.067        2.708        2.603        3.214        2.668        2.672        2.686        3.123        3.052        2.714        2.552        0.495        2.000        1.000        1.000        0.000        1.000        3.000        0.000        0.000        0.000        0.000        0.000        0.000        0.000        1.000        0.000        0.000        0.000        0.000        0.000        0.000        0.000        0.000        0.000        0.000        1.000        2.000        1.000        2.000        1.000        6.000        1.000        0.000        0.000        0.000        0.000      100.000        0.000        0.000        1.501        1.505        1.916
      90.000  -222715.109    24686.363    14084.262    43231.372       71.192  -344743.532    39955.234       26.116       25.837        2.627        2.536        2.710        2.673        2.712        2.969        2.649        2.596        3.245        2.645        2.650        2.642        3.051        3.052        2.691        2.538        0.481        2.000        1.000        1.000        0.000        0.000        3.000        0.000        0.000        0.000        0.000        0.000        0.000        0.000        1.000        1.000        0.000        0.000        0.000        0.000        0.000        0.000        0.000        0.000        0.000        0.000        1.000        2.000        3.000        2.000        6.000        1.000        0.000        0.000        0.000        0.000      100.000        0.000        0.000        1.855        1.864        2.287
     100.000  -223032.839    23821.670    14019.657    43445.587       82.648  -345202.767    40800.366       26.148       25.640        2.577        2.584        2.708        2.683        2.697        3.077        2.689        2.578        3.206        2.665        2.642        2.635        3.132        3.112        2.706        2.571        0.486        1.000        1.000        1.000        0.000        1.000        3.000        0.000        0.000        1.000        0.000        0.000        0.000        0.000        1.000        0.000        0.000        0.000        0.000        0.000        0.000        0.000        0.000        0.000        0.000        0.000        3.000        0.000        2.000        3.000        8.000        1.000        0.000        0.000        0.000        0.000      100.000        0.000        0.000        2.024        2.051        2.473
     110.000  -221798.388    23979.692    14432.186    43492.137       56.743  -344266.332    40507.185       25.915       25.525        2.606        2.584        2.696        2.704        2.713        2.948        2.638        2.561        3.205        2.625        2.649        2.683        3.047        3.064        2.748        2.520        0.492        1.000        1.000        1.000        0.000        1.000        3.000        0.000        0.000        1.000        0.000        0.000        0.000        0.000        0.000        0.000        0.000        0.000        0.000        0.000        0.000        0.000        0.000        0.000        0.000        0.000        0.000        1.000        4.000        0.000        6.000        1.000        0.000        0.000        0.000        0.000      100.000        0.000        0.000        1.948        1.971        2.429
     120.000  -221963.545    22886.856    13626.509    43631.705       57.643  -343138.784    40972.527       25.895       25.605        2.542        2.591        2.656        2.697        2.696        3.044        2.671        2.557        3.195        2.640        2.647        2.665        3.099        3.062        2.728        2.534        0.511        1.000        1.000        1.000        0.000        1.000        3.000        0.000        0.000        0.000        0.000        0.000        0.000        0.000        0.000        0.000        0.000        0.000        0.000        0.000        0.000        0.000        0.000        0.000        0.000        0.000        1.000        1.000        1.000        2.000        6.000        2.000        0.000        0.000        0.000        0.000      100.000        0.000        0.000        1.543        1.549        2.016
     130.000  -222366.805    23339.537    14116.935    43411.711       55.643  -343158.197    39867.565       25.877       25.652        2.614        2.567        2.728        2.707        2.704        3.049        2.644        2.537        3.225        2.654        2.721        2.662        3.140        3.094        2.684        2.551        0.492        1.000        1.000        0.000        0.000        1.000        4.000        0.000        0.000        1.000        0.000        0.000        0.000        0.000        0.000        0.000        0.000        0.000        0.000        0.000        0.000        0.000        0.000        0.000        0.000        0.000        0.000        0.000        1.000        1.000        8.000        0.000        0.000        0.000        4.494        0.000       95.506        0.000        0.000        1.788        1.763        2.225
     140.000  -221553.541    23008.842    13944.146    43584.321       79.153  -342787.801    40617.798       25.819       25.785        2.604        2.562        2.703        2.677        2.711        3.076        2.641        2.536        3.252        2.638        2.705        2.631        3.044        3.047        2.690        2.560        0.483        1.000        1.000        1.000        0.000        1.000        4.000        0.000        0.000        0.000        0.000        0.000        0.000        0.000        1.000        0.000        0.000        0.000        0.000        0.000        0.000        0.000        0.000        0.000        0.000        0.000        0.000        3.000        1.000        1.000        8.000        3.000        0.000        0.000        0.000        0.000      100.000        0.000        0.000        1.809        1.788        2.252
     150.000  -222367.010    23073.266    13980.453    43510.441       83.518  -344497.481    41482.792       25.866       25.767        2.522        2.600        2.700        2.724        2.688        2.967        2.662        2.557        3.192        2.666        2.714        2.682        3.133        3.078        2.723        2.530        0.478        1.000        1.000        1.000        0.000        1.000        4.000        0.000        0.000        0.000        0.000        1.000        0.000        0.000        1.000        0.000        0.000        0.000        0.000        0.000        0.000        0.000        0.000        0.000        0.000        2.000        2.000        2.000        1.000        1.000        6.000        2.000        0.000        0.000        0.000        0.000      100.000        0.000        0.000        1.718        1.715        2.227
     160.000  -221833.439    22453.698    13763.182    43539.193       87.395  -342317.739    40640.831       25.890       25.932        2.602        2.608        2.657        2.657        2.684        2.999        2.674        2.568        3.233        2.627        2.674        2.640        3.080        3.011        2.663        2.546        0.495        1.000        1.000        0.000        0.000        1.000        3.000        0.000        0.000        0.000        0.000        0.000        0.000        0.000        1.000        1.000        0.000        0.000        0.000        0.000        0.000        0.000        0.000        0.000        0.000        0.000        0.000        1.000        2.000        1.000        3.000        1.000        0.000        0.000        0.000        0.000      100.000        0.000        0.000        1.749        1.751        2.109
     170.000  -221836.084    22969.688    13898.743    43540.540       61.715  -342580.757    40273.987       25.782       25.980        2.560        2.599        2.712        2.695        2.699        3.039        2.667        2.543        3.186        2.611        2.656        2.698        3.113        3.026        2.662        2.541        0.483        1.000        0.000        0.000        0.000        1.000        4.000        0.000        0.000        0.000        0.000        0.000        0.000        0.000        1.000        0.000        0.000        0.000        0.000        0.000        0.000        0.000        0.000        0.000        0.000        1.000        0.000        0.000        1.000        2.000        5.000        2.000        0.000        0.000        4.494        0.000       95.506        0.000        0.000        1.731        1.748        2.099
     180.000  -221454.580    22393.903    13869.030    43456.198       87.899  -342371.241    41109.631       25.838       25.724        2.522        2.537        2.715        2.675        2.718        3.113        2.707        2.571        3.237        2.621        2.687        2.628        3.112        3.070        2.696        2.543        0.483        1.000        1.000        0.000        0.000        1.000        4.000        0.000        0.000        0.000        0.000        0.000        0.000        0.000        1.000        0.000        0.000        0.000        0.000        0.000        0.000        0.000        0.000        0.000        0.000        0.000        1.000        1.000        1.000        2.000        4.000        3.000        0.000        0.000        0.000        0.000      100.000        0.000        0.000        1.713        1.712        2.100
     190.000  -220777.363    22474.501    13912.358    43322.793       75.679  -341003.617    40440.923       25.798       25.872        2.595        2.557        2.694        2.687        2.743        2.993        2.728        2.585        3.176        2.647        2.700        2.651        3.118        3.015        2.674        2.608        0.504        1.000        1.000        0.000        0.000        0.000        6.000        0.000        0.000        0.000        0.000        0.000        0.000        0.000        1.000        0.000        0.000        0.000        0.000        0.000        0.000        0.000        0.000        0.000        0.000        1.000        2.000        2.000        1.000        3.000        8.000        2.000        0.000        0.000        4.494        0.000       95.506        0.000        0.000        1.440        1.434        1.892
     200.000  -221092.811    23526.400    13858.887    43536.548       80.909  -341985.410    39889.855       26.101       26.087        2.546        2.588        2.690        2.723        2.694        2.975        2.693        2.636        3.186        2.658        2.691        2.622        3.084        3.098        2.709        2.520        0.480        1.000        1.000        0.000        0.000        1.000        5.000        0.000        0.000        0.000        0.000        0.000        0.000        0.000        0.000        0.000        0.000        0.000        0.000        0.000        0.000        0.000        0.000        0.000        0.000        0.000        1.000        3.000        2.000        2.000        5.000        1.000        0.000        0.000        0.000        0.000      100.000        0.000        0.000        1.676        1.671        2.158
     210.000  -220824.479    22870.602    13662.159    43725.008       75.326  -341238.808    40081.234       25.884       25.815        2.535        2.551        2.717        2.690        2.660        2.958        2.660        2.605        3.220        2.678        2.667        2.652        3.106        3.078        2.731        2.530        0.487        1.000        1.000        0.000        0.000        0.000        4.000        0.000        0.000        0.000        0.000        0.000        0.000        0.000        0.000        0.000        0.000        0.000        0.000        0.000        0.000        0.000        0.000        0.000        0.000        1.000        1.000        4.000        1.000        1.000        7.000        1.000        0.000        0.000        4.494        0.000       95.506        0.000        0.000        1.374        1.370        1.988
     220.000  -221327.070    22263.377    13767.327    43725.293       76.486  -341117.131    39957.578       25.879       25.949        2.565        2.576        2.697        2.672        2.668        2.991        2.690        2.581        3.222        2.698        2.707        2.691        2.998        3.031        2.739        2.488        0.473        1.000        1.000        0.000        0.000        0.000        5.000        0.000        0.000        0.000        0.000        0.000        0.000        0.000        0.000        0.000        0.000        0.000        0.000        0.000        0.000        0.000        0.000        0.000        0.000        2.000        1.000        1.000        2.000        2.000        5.000        2.000        0.000        0.000        4.494        0.000       95.506        0.000        0.000        1.648        1.645        2.066
     230.000  -221279.872    23636.238    13573.208    43634.431       61.415  -341247.314    39062.151       25.956       25.892        2.610        2.558        2.715        2.709        2.705        3.131        2.714        2.576        3.233        2.602        2.694        2.655        3.023        3.031        2.734        2.494        0.482        1.000        1.000        0.000        0.000        0.000        5.000        0.000        0.000        1.000        0.000        0.000        0.000        0.000        0.000        0.000        0.000        0.000        0.000        0.000        0.000        0.000        0.000        0.000        0.000        1.000        0.000        4.000        2.000        2.000        7.000        3.000        0.000        0.000        0.000        0.000      100.000        0.000        0.000        1.551        1.556        1.987
     240.000  -220870.452    22794.954    13740.825    43425.888       73.445  -342127.839    41222.275       26.289       26.048        2.593        2.599        2.712        2.673        2.632        2.983        2.659        2.612        3.238        2.566        2.671        2.658        3.067        3.057        2.759        2.454        0.513        1.000        1.000        0.000        0.000        0.000        4.000        0.000        0.000        1.000        0.000        0.000        0.000        0.000        2.000        0.000        0.000        0.000        0.000        0.000        0.000        0.000        0.000        0.000        0.000        1.000        4.000        3.000        2.000        2.000        5.000        1.000        0.000        0.000        0.000        0.000      100.000        0.000        0.000        1.701        1.705        2.253
     250.000  -221217.116    23504.212    13520.793    43386.494      106.260  -340742.099    39007.224       25.897       25.839        2.583        2.593        2.716        2.685        2.677        3.029        2.662        2.573        3.252        2.590        2.684        2.691        3.078        3.104        2.730        2.497        0.468        1.000        1.000        0.000        0.000        0.000        4.000        0.000        0.000        0.000        0.000        0.000        0.000        0.000        2.000        0.000        0.000        0.000        0.000        0.000        0.000        0.000        0.000        0.000        0.000        0.000        2.000        2.000        1.000        1.000        7.000        2.000        0.000        0.000        0.000        0.000      100.000        0.000        0.000        1.388        1.387        2.001
     260.000  -221171.321    23332.781    13227.826    43592.465       93.215  -340906.741    39489.133       25.797       25.879        2.589        2.612        2.704        2.731        2.660        2.967        2.643        2.602        3.260        2.596        2.678        2.695        3.079        3.009        2.737        2.504        0.480        1.000        1.000        0.000        0.000        0.000        3.000        0.000        0.000        0.000        0.000        0.000        0.000        0.000        0.000        1.000        0.000        0.000        0.000        0.000        0.000        0.000        0.000        0.000        0.000        1.000        1.000        2.000        3.000        1.000       11.000        1.000        0.000        0.000        0.000        0.000      100.000        0.000        0.000        1.357        1.361        1.851
     270.000  -220741.035    23880.226    13849.885    43373.740       78.257  -340873.894    38950.750       26.118       26.035        2.584        2.580        2.696        2.703        2.669        2.930        2.683        2.637        3.255        2.641        2.705        2.664        3.103        3.012        2.732        2.468        0.464        1.000        1.000        0.000        0.000        0.000        4.000        0.000        0.000        0.000        0.000        0.000        0.000        0.000        3.000        0.000        0.000        0.000        0.000        0.000        0.000        0.000        0.000        0.000        0.000        2.000        2.000        5.000        1.000        0.000        9.000        0.000        0.000        0.000        0.000        0.000      100.000        0.000        0.000        1.384        1.398        1.926
     280.000  -220625.233    22861.991    13407.797    43377.357       79.879  -340732.568    40380.311       25.826       26.025        2.579        2.570        2.696        2.651        2.639        2.960        2.695        2.595        3.294        2.618        2.682        2.690        3.037        3.047        2.714        2.504        0.476        1.000        1.000        0.000        0.000        0.000        4.000        0.000        0.000        0.000        0.000        0.000        0.000        0.000        1.000        1.000        0.000        0.000        0.000        0.000        0.000        0.000        0.000        0.000        0.000        1.000        0.000        4.000        1.000        1.000        8.000        2.000        0.000        0.000        0.000        0.000      100.000        0.000        0.000        1.641        1.683        2.168
     290.000  -220871.394    23101.777    13504.750    43564.219       83.738  -339019.244    37893.366       25.997       26.128        2.571        2.540        2.692        2.725        2.663        3.048        2.672        2.632        3.222        2.650        2.666        2.693        3.116        3.047        2.735        2.496        0.465        1.000        0.000        0.000        0.000        0.000        2.000        0.000        0.000        0.000        0.000        0.000        0.000        0.000        1.000        0.000        0.000        0.000        0.000        0.000        0.000        0.000        0.000        0.000        0.000        3.000        0.000        4.000        0.000        2.000        7.000        2.000        0.000        0.000        0.000        0.000      100.000        0.000        0.000        1.751        1.768        2.104
     300.000  -220643.145    21942.281    13730.417    43647.203       76.421  -340974.672    40935.205       26.019       25.922        2.580        2.510        2.725        2.733        2.656        2.901        2.671        2.565        3.239        2.676        2.683        2.692        3.071        3.089        2.689        2.508        0.470        1.000        1.000        0.000        0.000        0.000        2.000        0.000        0.000        0.000        1.000        0.000        0.000        0.000        0.000        0.000        0.000        0.000        0.000        0.000        0.000        0.000        0.000        0.000        0.000        2.000        3.000        5.000        1.000        4.000        9.000        2.000        0.000        0.000        0.000        0.000      100.000        0.000        0.000        1.560        1.546        1.928
     310.000  -220597.072    22923.877    13573.120    43552.724       71.851  -340017.510    39298.867       25.823       25.938        2.590        2.595        2.720        2.715        2.627        2.944        2.729        2.593        3.252        2.671        2.679        2.729        3.093        3.064        2.727        2.478        0.483        1.000        0.000        0.000        0.000        0.000        5.000        0.000        0.000        0.000        0.000        0.000        0.000        0.000        1.000        0.000        0.000        0.000        0.000        0.000        0.000        0.000        0.000        0.000        0.000        1.000        1.000        2.000        2.000        1.000        8.000        2.000        0.000        0.000        4.494        0.000       95.506        0.000        0.000        1.328        1.308        1.893
     320.000  -220879.212    21751.502    13522.950    43885.828       80.380  -340085.431    39965.561       25.952       25.647        2.583        2.543        2.675        2.680        2.669        2.867        2.645        2.562        3.267        2.661        2.699        2.676        3.154        3.063        2.712        2.553        0.478        1.000        1.000        0.000        0.000        1.000        4.000        0.000        0.000        0.000        0.000        0.000        0.000        0.000        1.000        1.000        0.000        0.000        0.000        0.000        0.000        0.000        0.000        0.000        0.000        2.000        0.000        3.000        3.000        1.000        8.000        1.000        0.000        0.000        0.000        0.000      100.000        0.000        0.000        1.490        1.476        2.046
     330.000  -220073.077    22485.562    13824.781    43512.038       69.294  -338486.118    38521.366       26.243       26.137        2.596        2.612        2.675        2.724        2.647        2.952        2.667        2.567        3.235        2.681        2.691        2.679        3.074        2.995        2.740        2.583        0.488        1.000        1.000        0.000        0.000        1.000        3.000        0.000        0.000        0.000        0.000        0.000        0.000        0.000        1.000        1.000        0.000        0.000        0.000        0.000        0.000        0.000        0.000        0.000        0.000        1.000        0.000        3.000        1.000        2.000        5.000        1.000        0.000        0.000        0.000        0.000      100.000        0.000        0.000        1.656        1.625        2.193
     340.000  -219889.929    21744.573    13443.582    43787.508       77.920  -339961.431    41017.920       26.080       26.084        2.499        2.543        2.693        2.668        2.635        2.957        2.686        2.571        3.192        2.667        2.698        2.686        2.990        2.936        2.728        2.523        0.477        1.000        1.000        0.000        0.000        0.000        2.000        0.000        0.000        0.000        0.000        0.000        0.000        0.000        1.000        0.000        0.000        0.000        0.000        0.000        0.000        0.000        0.000        0.000        0.000        3.000        0.000        3.000        2.000        0.000        6.000        2.000        0.000        0.000        0.000        0.000      100.000        0.000        0.000        1.419        1.414        1.841
     350.000  -220578.933    22303.697    13441.467    43617.774       80.751  -339449.007    39426.385       25.960       26.025        2.572        2.600        2.686        2.664        2.716        2.931        2.660        2.573        3.224        2.712        2.714        2.691        3.060        3.021        2.736        2.567        0.498        1.000        1.000        0.000        0.000        0.000        4.000        0.000        0.000        0.000        0.000        0.000        0.000        0.000        2.000        0.000        0.000        0.000        0.000        0.000        0.000        0.000        0.000        0.000        0.000        2.000        2.000        3.000        0.000        2.000        5.000        2.000        0.000        0.000        0.000        0.000      100.000        0.000        0.000        1.606        1.612        1.948
     360.000  -220201.146    21331.229    13279.756    43606.847       88.692  -339272.656    40764.987       25.743       26.135        2.552        2.597        2.725        2.653        2.626        2.953        2.723        2.588        3.243        2.660        2.672        2.665        2.980        3.026        2.712        2.500        0.475        1.000        0.000        0.000        0.000        0.000        6.000        0.000        0.000        0.000        0.000        0.000        0.000        0.000        0.000        0.000        0.000        0.000        0.000        0.000        0.000        0.000        0.000        0.000        0.000        3.000        0.000        2.000        0.000        0.000        6.000        2.000        0.000        0.000        0.000        0.000      100.000        0.000        0.000        1.993        2.032        2.383
     370.000  -220341.914    23366.894    13133.775    43427.677       80.486  -338668.339    38317.593       25.997       26.050        2.507        2.520        2.708        2.739        2.693        3.008        2.737        2.621        3.251        2.660        2.650        2.672        3.043        3.056        2.707        2.502        0.481        1.000        1.000        0.000        0.000        1.000        5.000        0.000        0.000        0.000        0.000        0.000        0.000        0.000        1.000        0.000        0.000        0.000        0.000        0.000        0.000        0.000        0.000        0.000        0.000        1.000        1.000        3.000        1.000        1.000        8.000        1.000        0.000        0.000        0.000        0.000      100.000        0.000        0.000        2.111        2.099        2.505
     380.000  -220304.797    22412.937    13658.719    43394.521       74.889  -339290.487    39444.625       26.111       26.052        2.587        2.611        2.695        2.692        2.667        3.000        2.700        2.578        3.273        2.670        2.697        2.716        3.080        3.037        2.739        2.547        0.503        1.000        1.000        0.000        0.000        1.000        5.000        0.000        0.000        0.000        0.000        0.000        0.000        0.000        1.000        0.000        0.000        0.000        0.000        0.000        0.000        0.000        0.000        0.000        0.000        1.000        1.000        2.000        4.000        1.000        7.000        2.000        0.000        0.000        0.000        0.000      100.000        0.000        0.000        1.880        1.886        2.362
     390.000  -219342.214    21595.699    13397.012    43706.078       84.734  -338145.020    40019.284       26.216       25.992        2.592        2.578        2.719        2.677        2.630        3.018        2.678        2.606        3.222        2.685        2.669        2.655        3.045        3.042        2.699        2.531        0.475        1.000        1.000        0.000        0.000        1.000        6.000        0.000        0.000        0.000        0.000        0.000        0.000        0.000        1.000        0.000        0.000        0.000        0.000        0.000        0.000        0.000        0.000        0.000        0.000        2.000        1.000        2.000        0.000        1.000        6.000        2.000        0.000        0.000        0.000        0.000      100.000        0.000        0.000        1.683        1.682        2.193
     400.000  -220462.638    22659.083    13597.930    43423.754       95.096  -338825.158    38586.657       25.928       25.844        2.543        2.571        2.734        2.665        2.732        3.015        2.691        2.613        3.322        2.681        2.690        2.668        3.078        3.034        2.724        2.581        0.534        2.000        1.000        0.000        0.000        1.000        5.000        0.000        0.000        0.000        0.000        0.000        0.000        0.000        1.000        0.000        0.000        0.000        0.000        0.000        0.000        0.000        0.000        0.000        0.000        0.000        0.000        2.000        1.000        3.000        7.000        0.000        0.000        0.000        0.000        0.000      100.000        0.000        0.000        1.660        1.680        2.145
     410.000  -220175.480    22394.782    13628.448    43601.838       75.672  -338477.676    38601.457       25.909       25.989        2.639        2.602        2.691        2.684        2.690        3.069        2.722        2.583        3.244        2.654        2.663        2.676        3.088        3.037        2.726        2.626        0.479        1.000        1.000        0.000        0.000        1.000        5.000        0.000        0.000        0.000        0.000        0.000        0.000        0.000        1.000        0.000        0.000        0.000        0.000        0.000        0.000        0.000        0.000        0.000        0.000        0.000        0.000        5.000        2.000        5.000        5.000        2.000        0.000        0.000        0.000        0.000      100.000        0.000        0.000        1.663        1.687        2.135
     420.000  -219608.131    22448.182    13221.546    43648.268      105.840  -337598.410    38566.442       25.815       25.759        2.600        2.661        2.702        2.705        2.688        2.961        2.650        2.580        3.261        2.660        2.692        2.697        3.124        3.040        2.765        2.552        0.500        1.000        1.000        0.000        0.000        1.000        5.000        0.000        0.000        0.000        0.000        0.000        0.000        0.000        0.000        0.000        0.000        0.000        0.000        0.000        0.000        0.000        0.000        0.000        0.000        2.000        2.000        3.000        3.000        1.000       11.000        0.000        0.000        0.000        0.000        0.000      100.000        0.000        0.000        1.538        1.580        2.119
     430.000  -219804.096    23144.836    13791.460    43335.004       77.713  -338256.417    38103.308       26.010       26.102        2.630        2.512        2.679        2.689        2.679        2.919        2.697        2.634        3.254        2.654        2.701        2.658        3.069        3.001        2.710        2.555        0.474        1.000        1.000        1.000        0.000        1.000        4.000        0.000        0.000        0.000        0.000        0.000        0.000        0.000        0.000        1.000        0.000        0.000        0.000        0.000        0.000        0.000        0.000        0.000        0.000        3.000        0.000        2.000        3.000        4.000        6.000        1.000        0.000        0.000        0.000        0.000      100.000        0.000        0.000        1.716        1.754        2.348
     440.000  -220778.540    21268.920    13547.471    43693.141       90.625  -339788.909    40410.212       25.895       26.071        2.564        2.621        2.734        2.700        2.678        2.944        2.651        2.588        3.272        2.632        2.727        2.684        3.119        3.028        2.665        2.474        0.479        1.000        1.000        0.000        0.000        0.000        3.000        0.000        0.000        0.000        0.000        0.000        0.000        0.000        2.000        0.000        0.000        0.000        0.000        0.000        0.000        0.000        0.000        0.000        0.000        2.000        3.000        1.000        4.000        1.000        7.000        1.000        0.000        0.000        0.000        0.000      100.000        0.000        0.000        1.541        1.586        2.126
     450.000  -220475.450    22801.001    13412.623    43439.461       80.460  -338470.978    38261.984       25.763       26.056        2.641        2.597        2.752        2.728        2.700        2.979        2.664        2.603        3.232        2.661        2.670        2.635        3.024        3.028        2.695        2.498        0.498        1.000        1.000        1.000        0.000        0.000        2.000        0.000        0.000        0.000        0.000        0.000        0.000        0.000        2.000        0.000        0.000        0.000        0.000        0.000        0.000        0.000        0.000        0.000        0.000        1.000        2.000        6.000        1.000        4.000       10.000        1.000        0.000        0.000        0.000        0.000      100.000        0.000        0.000        1.668        1.724        2.401
     460.000  -219753.684    22056.573    13344.803    43451.878       46.736  -337572.709    38919.035       25.518       25.942        2.527        2.562        2.689        2.636        2.728        2.913        2.659        2.572        3.218        2.655        2.700        2.700        3.029        3.081        2.701        2.487        0.469        1.000        0.000        1.000        0.000        1.000        5.000        0.000        0.000        0.000        0.000        0.000        0.000        0.000        0.000        0.000        0.000        0.000        0.000        0.000        0.000        0.000        0.000        0.000        0.000        1.000        3.000        2.000        2.000        1.000        4.000        1.000        0.000        0.000        0.000        0.000      100.000        0.000        0.000        1.604        1.650        2.306
     470.000  -220148.490    22470.548    13464.323    43499.672       89.061  -338720.941    39048.846       25.974       26.231        2.618        2.536        2.697        2.696        2.705        2.997        2.658        2.578        3.327        2.686        2.645        2.690        3.106        3.066        2.659        2.479        0.473        1.000        1.000        0.000        0.000        0.000        3.000        0.000        0.000        0.000        0.000        0.000        0.000        0.000        1.000        0.000        0.000        0.000        0.000        0.000        0.000        0.000        0.000        0.000        0.000        0.000        0.000        4.000        1.000        1.000       11.000        1.000        0.000        0.000        0.000        0.000      100.000        0.000        0.000        1.911        1.970        2.583
     480.000  -220404.765    21301.872    13634.908    43572.665       83.353  -338455.020    39457.459       25.681       25.962        2.594        2.573        2.668        2.682        2.674        2.966        2.703        2.589        3.253        2.649        2.642        2.638        3.104        3.080        2.674        2.485        0.500        2.000        1.000        1.000        0.000        0.000        4.000        0.000        0.000        0.000        0.000        0.000        0.000        0.000        0.000        0.000        0.000        0.000        0.000        0.000        0.000        0.000        0.000        0.000        0.000        0.000        3.000        1.000        0.000        2.000       13.000        3.000        0.000        0.000        0.000        0.000      100.000        0.000        0.000        1.912        1.936        2.651
     490.000  -219178.275    22270.016    13370.399    43745.458      103.423  -337500.560    38832.989       25.592       25.660        2.570        2.601        2.738        2.703        2.753        3.005        2.648        2.598        3.240        2.650        2.615        2.700        3.071        3.089        2.723        2.483        0.483        1.000        1.000        0.000        0.000        0.000        4.000        0.000        0.000        0.000        0.000        0.000        0.000        0.000        0.000        0.000        0.000        0.000        0.000        0.000        0.000        0.000        0.000        0.000        0.000        0.000        0.000        1.000        3.000        2.000        9.000        2.000        0.000        0.000        0.000        0.000      100.000        0.000        0.000        1.611        1.631        2.340
     500.000  -220034.924    21786.762    13683.739    43550.996       74.304  -338426.491    39295.766       25.971       25.830        2.554        2.587        2.697        2.686        2.676        3.026        2.675        2.529        3.234        2.672        2.725        2.663        3.036        3.052        2.710        2.471        0.501        1.000        1.000        0.000        0.000        0.000        4.000        0.000        0.000        0.000        1.000        0.000        0.000        0.000        1.000        0.000        0.000        0.000        0.000        0.000        0.000        0.000        0.000        0.000        0.000        1.000        2.000        0.000        2.000        3.000        7.000        1.000        0.000        0.000        0.000        0.000      100.000        0.000        0.000        1.662        1.708        2.338
     510.000  -220071.413    21936.211    13426.677    43610.013       74.576  -338406.520    39287.631       25.904       25.750        2.573        2.612        2.730        2.632        2.691        2.958        2.704        2.604        3.279        2.666        2.683        2.688        3.041        2.993        2.692        2.512        0.486        1.000        1.000        0.000        0.000        0.000        5.000        0.000        0.000        1.000        0.000        0.000        0.000        0.000        1.000        0.000        0.000        0.000        0.000        0.000        0.000        0.000        0.000        0.000        0.000        1.000        2.000        4.000        5.000        3.000       11.000        1.000        0.000        0.000        0.000        0.000      100.000        0.000        0.000        1.525        1.547        2.257
     520.000  -220071.157    23041.868    13268.049    43459.618       76.658  -338682.534    38765.184       25.925       25.912        2.586        2.598        2.674        2.682        2.693        3.051        2.661        2.592        3.270        2.668        2.645        2.691        3.117        3.133        2.666        2.550        0.478        1.000        1.000        0.000        0.000        0.000        5.000        0.000        0.000        0.000        0.000        0.000        0.000        0.000        0.000        0.000        0.000        0.000        0.000        0.000        0.000        0.000        0.000        0.000        0.000        0.000        1.000        3.000        4.000        3.000        9.000        1.000        0.000        0.000        0.000        0.000      100.000        0.000        0.000        1.887        1.872        2.432
     530.000  -220053.056    21268.445    13565.586    43710.942       64.790  -338833.004    40170.185       25.623       25.595        2.539        2.635        2.705        2.719        2.687        2.898        2.653        2.501        3.234        2.665        2.661        2.681        3.057        3.137        2.659        2.500        0.506        1.000        1.000        1.000        0.000        0.000        4.000        0.000        0.000        0.000        0.000        0.000        0.000        0.000        2.000        0.000        0.000        0.000        0.000        0.000        0.000        0.000        0.000        0.000        0.000        2.000        1.000        1.000        4.000        0.000        6.000        1.000        0.000        0.000        0.000        0.000      100.000        0.000        0.000        2.143        2.155        2.750
     540.000  -219775.717    23002.479    13443.031    43488.349       68.286  -337794.688    38016.825       25.834       25.664        2.611        2.577        2.719        2.705        2.683        3.063        2.694        2.570        3.174        2.676        2.711        2.664        3.088        3.014        2.768        2.543        0.483        1.000        1.000        1.000        0.000        0.000        4.000        0.000        0.000        0.000        2.000        0.000        0.000        0.000        0.000        0.000        0.000        0.000        0.000        0.000        0.000        0.000        0.000        0.000        0.000        1.000        0.000        4.000        0.000        2.000       11.000        2.000        0.000        0.000        0.000        0.000      100.000        0.000        0.000        2.423        2.451        2.959
     550.000  -220313.974    22317.418    13211.841    43403.128       75.010  -338592.404    39271.032       25.718       25.780        2.574        2.568        2.658        2.707        2.700        3.027        2.654        2.607        3.249        2.628        2.682        2.673        3.096        2.968        2.751        2.503        0.484        1.000        1.000        0.000        0.000        0.000        3.000        0.000        0.000        0.000        0.000        0.000        0.000        0.000        0.000        0.000        0.000        0.000        0.000        0.000        0.000        0.000        0.000        0.000        0.000        1.000        1.000        2.000        1.000        1.000        7.000        1.000        0.000        0.000        0.000        0.000      100.000        0.000        0.000        1.771        1.782        2.424
     560.000  -219972.015    21445.273    13488.892    43764.243       86.029  -338701.467    39945.015       25.722       25.932        2.611        2.611        2.739        2.682        2.709        3.101        2.718        2.617        3.251        2.669        2.658        2.669        2.981        3.033        2.716        2.509        0.499        0.000        1.000        0.000        0.000        0.000        5.000        0.000        0.000        0.000        0.000        0.000        0.000        0.000        0.000        0.000        0.000        0.000        0.000        0.000        0.000        0.000        0.000        0.000        0.000        1.000        2.000        3.000        5.000        3.000        6.000        0.000        0.000        0.000        0.000        0.000      100.000        0.000        0.000        1.479        1.535        2.083
     570.000  -220649.515    21971.135    13187.714    43683.624       77.470  -339329.962    39760.505       25.705       26.120        2.643        2.621        2.669        2.691        2.696        3.032        2.655        2.592        3.234        2.646        2.673        2.678        3.074        3.006        2.734        2.497        0.479        1.000        1.000        0.000        0.000        0.000        3.000        0.000        0.000        0.000        0.000        0.000        0.000        0.000        0.000        0.000        0.000        0.000        0.000        0.000        0.000        0.000        0.000        0.000        0.000        1.000        2.000        4.000        2.000        1.000       12.000        0.000        0.000        0.000        0.000        0.000      100.000        0.000        0.000        1.539        1.562        2.069
     580.000  -219428.346    21499.484    13614.421    43627.016       95.823  -338085.779    39820.687       26.023       25.981        2.571        2.547        2.724        2.679        2.703        3.034        2.661        2.554        3.275        2.664        2.681        2.663        3.026        2.993        2.718        2.500        0.477        1.000        1.000        0.000        0.000        0.000        5.000        0.000        0.000        0.000        0.000        0.000        0.000        0.000        3.000        0.000        0.000        0.000        0.000        0.000        0.000        0.000        0.000        0.000        0.000        3.000        3.000        3.000        3.000        2.000        4.000        4.000        0.000        0.000        0.000        0.000      100.000        0.000        0.000        1.536        1.554        2.084
     590.000  -219914.447    21929.305    13695.542    43688.259       66.211  -339360.518    40066.754       25.992       26.109        2.576        2.603        2.694        2.656        2.723        3.019        2.725        2.593        3.269        2.658        2.641        2.666        3.062        3.001        2.701        2.473        0.511        1.000        1.000        1.000        0.000        0.000        4.000        0.000        0.000        0.000        0.000        0.000        0.000        0.000        0.000        0.000        0.000        0.000        0.000        0.000        0.000        0.000        0.000        0.000        0.000        2.000        1.000        2.000        3.000        2.000        6.000        3.000        0.000        0.000        0.000        0.000      100.000        0.000        0.000        1.497        1.520        2.083
     600.000  -221072.602    22674.740    13500.085    43497.935       83.024  -339504.687    38676.301       25.831       25.808        2.598        2.612        2.733        2.668        2.662        2.835        2.700        2.610        3.266        2.695        2.699        2.605        3.022        3.012        2.696        2.495        0.473        1.000        1.000        0.000        0.000        0.000        6.000        0.000        0.000        0.000        0.000        0.000        0.000        0.000        1.000        0.000        0.000        0.000        0.000        0.000        0.000        0.000        0.000        0.000        0.000        0.000        1.000        1.000        2.000        1.000        7.000        0.000        0.000        0.000        0.000        0.000      100.000        0.000        0.000        1.462        1.457        2.074
     610.000  -219189.398    22311.528    13805.051    43521.144       79.118  -337308.689    38402.449       25.691       25.890        2.594        2.599        2.717        2.669        2.708        2.993        2.677        2.551        3.238        2.689        2.699        2.630        3.008        2.976        2.725        2.482        0.515        1.000        1.000        1.000        0.000        0.000        5.000        0.000        0.000        1.000        0.000        0.000        0.000        0.000        2.000        0.000        0.000        0.000        0.000        0.000        0.000        0.000        0.000        0.000        0.000        0.000        2.000        3.000        3.000        4.000        8.000        1.000        0.000        0.000        0.000        0.000      100.000        0.000        0.000        1.461        1.473        2.161
     620.000  -219812.060    22236.592    13632.394    43598.668       72.955  -339177.322    39824.654       25.999       26.089        2.573        2.563        2.693        2.698        2.656        2.919        2.647        2.590        3.239        2.659        2.656        2.669        3.093        3.000        2.704        2.468        0.490        1.000        1.000        0.000        0.000        0.000        6.000        0.000        0.000        0.000        1.000        0.000        0.000        0.000        2.000        0.000        0.000        0.000        0.000        0.000        0.000        0.000        0.000        0.000        0.000        1.000        1.000        0.000        1.000        0.000        6.000        1.000        0.000        0.000        0.000        0.000      100.000        0.000        0.000        1.524        1.568        2.119
     630.000  -220662.810    21728.687    13497.822    43608.548       84.894  -339237.601    39654.841       25.742       25.722        2.556        2.612        2.703        2.680        2.692        2.980        2.704        2.554        3.259        2.679        2.691        2.645        3.053        3.015        2.727        2.517        0.482        1.000        1.000        1.000        0.000        0.000        5.000        0.000        0.000        0.000        0.000        0.000        0.000        0.000        1.000        0.000        0.000        0.000        0.000        0.000        0.000        0.000        0.000        0.000        0.000        1.000        1.000        3.000        2.000        2.000        4.000        3.000        0.000        0.000        0.000        0.000      100.000        0.000        0.000        1.418        1.484        2.048
     640.000  -220424.142    21848.500    13502.784    43381.542       90.410  -338911.810    39664.432       25.593       25.915        2.628        2.605        2.704        2.679        2.702        2.892        2.677        2.577        3.225        2.686        2.736        2.680        3.097        3.055        2.727        2.491        0.483        1.000        1.000        0.000        0.000        0.000        5.000        0.000        0.000        0.000        0.000        0.000        0.000        0.000        0.000        0.000        0.000        0.000        0.000        0.000        1.000        0.000        0.000        0.000        0.000        0.000        2.000        1.000        3.000        0.000        3.000        2.000        0.000        0.000        0.000        0.000      100.000        0.000        0.000        1.369        1.459        2.063
     650.000  -220213.700    22473.683    13688.795    43599.659       84.759  -339782.830    39722.234       25.627       25.835        2.631        2.610        2.721        2.717        2.677        3.019        2.697        2.578        3.258        2.653        2.702        2.715        3.119        3.016        2.673        2.485        0.496        1.000        1.000        1.000        0.000        0.000        4.000        0.000        0.000        0.000        0.000        0.000        0.000        0.000        1.000        0.000        0.000        0.000        0.000        0.000        0.000        0.000        0.000        0.000        0.000        0.000        2.000        3.000        4.000        2.000        5.000        1.000        0.000        0.000        4.494        0.000       95.506        0.000        0.000        1.611        1.677        2.162
     660.000  -219840.695    21730.667    13695.927    43943.441       92.542  -338562.373    39259.101       25.559       25.750        2.597        2.589        2.707        2.682        2.711        2.897        2.674        2.575        3.238        2.647        2.664        2.720        3.040        2.984        2.696        2.502        0.479        1.000        1.000        1.000        0.000        0.000        5.000        0.000        0.000        0.000        0.000        0.000        0.000        0.000        3.000        0.000        0.000        0.000        0.000        0.000        0.000        0.000        0.000        0.000        0.000        2.000        1.000        1.000        2.000        1.000        4.000        1.000        0.000        0.000        0.000        0.000      100.000        0.000        0.000        1.502        1.557        2.169
     670.000  -220519.051    21422.502    13428.019    43856.625       75.192  -339665.077    40363.686       25.507       25.752        2.615        2.545        2.732        2.667        2.685        2.938        2.695        2.571        3.254        2.648        2.641        2.655        3.008        3.074        2.712        2.534        0.511        1.000        1.000        1.000        0.000        0.000        4.000        0.000        0.000        0.000        2.000        0.000        0.000        0.000        0.000        0.000        0.000        0.000        0.000        0.000        0.000        0.000        0.000        0.000        0.000        1.000        1.000        5.000        3.000        1.000        6.000        0.000        0.000        0.000        0.000        0.000      100.000        0.000        0.000        1.607        1.640        2.204
     680.000  -219436.267    22262.145    13516.788    43658.880       53.822  -337328.232    38400.329       25.647       25.793        2.621        2.589        2.702        2.702        2.698        2.837        2.694        2.546        3.259        2.675        2.631        2.634        3.161        3.004        2.701        2.535        0.495        1.000        1.000        1.000        1.000        0.000        5.000        0.000        0.000        0.000        0.000        0.000        0.000        0.000        1.000        0.000        0.000        0.000        0.000        0.000        0.000        0.000        0.000        0.000        0.000        0.000        2.000        3.000        3.000        2.000        2.000        2.000        0.000        0.000        0.000        0.000      100.000        0.000        0.000        1.762        1.838        2.297
     690.000  -219105.636    22548.258    13323.469    43459.119       75.774  -337024.001    38511.746       25.693       25.919        2.629        2.658        2.698        2.711        2.694        2.933        2.682        2.541        3.283        2.625        2.704        2.665        3.083        2.943        2.674        2.532        0.495        1.000        1.000        1.000        0.000        0.000        4.000        0.000        0.000        0.000        0.000        0.000        0.000        0.000        1.000        1.000        0.000        0.000        0.000        0.000        0.000        0.000        0.000        0.000        0.000        0.000        1.000        5.000        1.000        1.000        5.000        0.000        0.000        0.000        0.000        0.000      100.000        0.000        0.000        1.834        1.859        2.412
     700.000  -219409.128    22597.790    13690.922    43543.666       72.581  -337065.681    37751.594       25.948       25.742        2.594        2.575        2.671        2.628        2.694        2.983        2.726        2.560        3.303        2.673        2.659        2.664        3.076        3.008        2.716        2.491        0.491        1.000        1.000        0.000        0.000        0.000        5.000        0.000        0.000        0.000        0.000        0.000        0.000        0.000        2.000        0.000        0.000        0.000        0.000        0.000        0.000        0.000        0.000        0.000        0.000        0.000        2.000        0.000        2.000        1.000        8.000        3.000        0.000        0.000        0.000        0.000      100.000        0.000        0.000        1.778        1.818        2.276
     710.000  -219797.649    21768.718    13465.552    43792.807       87.644  -338094.353    39181.983       25.901       25.869        2.610        2.603        2.670        2.673        2.718        3.018        2.694        2.574        3.217        2.651        2.727        2.668        3.094        3.003        2.721        2.507        0.503        1.000        1.000        0.000        0.000        0.000        5.000        0.000        0.000        0.000        0.000        0.000        0.000        0.000        1.000        0.000        0.000        0.000        0.000        0.000        0.000        0.000        0.000        0.000        0.000        2.000        1.000        1.000        2.000        2.000        8.000        1.000        0.000        0.000        0.000        0.000      100.000        0.000        0.000        1.811        1.855        2.453
     720.000  -219305.890    22226.752    13783.726    43649.975       87.482  -338327.041    39273.215       25.757       25.756        2.530        2.595        2.685        2.721        2.678        3.074        2.649        2.535        3.232        2.707        2.698        2.666        2.991        3.005        2.692        2.481        0.493        1.000        1.000        0.000        0.000        1.000        5.000        0.000        0.000        0.000        0.000        0.000        0.000        0.000        2.000        0.000        0.000        0.000        0.000        0.000        0.000        0.000        0.000        0.000        0.000        0.000        0.000        3.000        1.000        2.000        7.000        4.000        0.000        0.000        0.000        0.000      100.000        0.000        0.000        1.591        1.603        2.262
     730.000  -219147.108    21122.578    13245.901    43667.751       94.211  -336762.095    39484.547       26.060       25.922        2.579        2.599        2.708        2.697        2.732        2.984        2.657        2.529        3.254        2.682        2.674        2.654        3.063        3.003        2.725        2.514        0.476        1.000        1.000        0.000        0.000        0.000        5.000        0.000        0.000        0.000        0.000        0.000        0.000        0.000        1.000        1.000        0.000        0.000        0.000        0.000        0.000        0.000        0.000        0.000        0.000        1.000        1.000        4.000        3.000        0.000        3.000        2.000        0.000        0.000        0.000        0.000      100.000        0.000        0.000        1.636        1.664        2.162
     740.000  -219860.064    21496.850    13408.708    43399.121       94.597  -338518.283    40258.944       26.095       26.037        2.578        2.632        2.694        2.614        2.698        2.957        2.712        2.571        3.237        2.643        2.680        2.718        3.038        2.999        2.689        2.497        0.492        1.000        1.000        0.000        0.000        1.000        6.000        0.000        0.000        0.000        0.000        0.000        0.000        0.000        2.000        0.000        0.000        0.000        0.000        0.000        0.000        0.000        0.000        0.000        0.000        2.000        2.000        5.000        4.000        1.000       10.000        0.000        0.000        0.000        0.000        0.000      100.000        0.000        0.000        1.852        1.865        2.340
     750.000  -219902.792    21441.156    13140.291    43739.870       99.832  -338309.035    39985.095       25.673       25.617        2.620        2.602        2.713        2.693        2.526        3.032        2.690        2.542        3.244        2.694        2.684        2.696        3.122        3.004        2.751        2.548        0.487        1.000        1.000        1.000        0.000        0.000        5.000        0.000        0.000        0.000        0.000        0.000        0.000        0.000        3.000        0.000        0.000        0.000        0.000        0.000        0.000        0.000        0.000        0.000        0.000        0.000        0.000        6.000        2.000        0.000        5.000        0.000        0.000        0.000        0.000        0.000      100.000        0.000        0.000        2.044        2.074        2.505
     760.000  -220066.582    21626.549    13575.266    43464.707       78.468  -337215.084    38403.512       25.664       25.835        2.575        2.538        2.678        2.689        2.550        2.976        2.700        2.605        3.292        2.642        2.666        2.700        3.018        2.981        2.716        2.451        0.504        2.000        1.000        2.000        1.000        0.000        4.000        0.000        0.000        0.000        0.000        0.000        0.000        0.000        1.000        1.000        0.000        0.000        0.000        0.000        0.000        0.000        0.000        0.000        0.000        0.000        1.000        0.000        2.000        1.000        3.000        0.000        0.000        0.000        0.000        0.000      100.000        0.000        0.000        1.875        1.875        2.371
     770.000  -219347.133    21359.283    14185.452    43529.330       97.378  -337730.302    39211.726       25.835       25.793        2.543        2.574        2.721        2.732        2.579        3.080        2.669        2.534        3.272        2.650        2.691        2.620        3.114        3.014        2.689        2.433        0.468        1.000        1.000        1.000        1.000        0.000        3.000        0.000        0.000        1.000        0.000        0.000        0.000        0.000        0.000        0.000        0.000        0.000        0.000        0.000        1.000        0.000        0.000        0.000        0.000        1.000        4.000        2.000        3.000        4.000        5.000        0.000        0.000        0.000        0.000        0.000      100.000        0.000        0.000        1.721        1.761        2.320
     780.000  -219940.948    21268.039    13502.497    43547.223       76.858  -337060.238    38724.673       25.882       25.896        2.616        2.579        2.738        2.666        2.607        3.003        2.687        2.557        3.273        2.680        2.713        2.687        3.097        2.941        2.716        2.491        0.470        1.000        1.000        1.000        1.000        0.000        6.000        0.000        0.000        1.000        0.000        0.000        0.000        0.000        1.000        0.000        0.000        0.000        0.000        0.000        0.000        0.000        0.000        0.000        0.000        0.000        1.000        1.000        2.000        4.000        4.000        1.000        0.000        0.000        0.000        0.000      100.000        0.000        0.000        1.675        1.697        2.434
     790.000  -219751.267    21130.568    13428.187    43581.708      103.522  -338959.599    40964.348       26.035       25.933        2.583        2.621        2.694        2.676        2.599        2.992        2.715        2.562        3.227        2.703        2.702        2.660        2.980        3.004        2.744        2.507        0.482        1.000        1.000        0.000        0.000        0.000        4.000        0.000        0.000        0.000        0.000        0.000        0.000        0.000        1.000        0.000        0.000        0.000        0.000        0.000        0.000        0.000        0.000        0.000        0.000        0.000        1.000        2.000        1.000        0.000        6.000        1.000        0.000        0.000        0.000        0.000      100.000        0.000        0.000        1.822        1.840        2.354
     800.000  -220085.281    20727.665    13286.288    43470.452       89.616  -337413.347    39754.044       25.730       25.582        2.586        2.639        2.703        2.676        2.613        2.853        2.695        2.616        3.199        2.643        2.679        2.648        3.053        3.040        2.693        2.486        0.493        1.000        1.000        0.000        0.000        0.000        4.000        0.000        0.000        0.000        1.000        0.000        0.000        0.000        2.000        0.000        0.000        0.000        0.000        0.000        0.000        0.000        0.000        0.000        0.000        0.000        4.000        4.000        2.000        1.000        7.000        0.000        0.000        0.000        0.000        0.000      100.000        0.000        0.000        1.312        1.321        2.151
     810.000  -219723.342    22116.632    13384.998    43388.409       97.436  -337496.468    38785.651       26.040       26.076        2.626        2.648        2.744        2.677        2.666        2.947        2.709        2.577        3.296        2.682        2.659        2.698        3.085        3.032        2.693        2.483        0.497        1.000        1.000        0.000        0.000        0.000        4.000        0.000        0.000        1.000        0.000        0.000        0.000        0.000        2.000        0.000        0.000        0.000        0.000        0.000        0.000        0.000        0.000        0.000        0.000        0.000        4.000        6.000        2.000        4.000       11.000        3.000        0.000        0.000        0.000        0.000      100.000        0.000        0.000        1.526        1.531        2.182
     820.000  -219898.006    21830.654    13884.909    43253.459       85.253  -337507.975    38555.693       26.158       26.080        2.655        2.708        2.727        2.699        2.554        2.913        2.674        2.528        3.290        2.664        2.691        2.692        3.140        3.035        2.655        2.489        0.518        1.000        1.000        0.000        0.000        0.000        2.000        0.000        0.000        0.000        0.000        0.000        0.000        0.000        1.000        0.000        0.000        0.000        0.000        0.000        0.000        0.000        0.000        0.000        0.000        0.000        0.000        5.000        3.000        3.000        7.000        1.000        0.000        0.000        0.000        0.000      100.000        0.000        0.000        1.530        1.566        2.206
     830.000  -219728.073    21717.502    13103.838    43362.993       71.252  -336614.887    38631.229       26.139       25.847        2.710        2.637        2.697        2.670        2.529        2.967        2.711        2.560        3.265        2.644        2.712        2.618        3.064        2.988        2.666        2.480        0.468        1.000        1.000        1.000        1.000        0.000        4.000        0.000        0.000        0.000        0.000        0.000        0.000        0.000        2.000        0.000        0.000        0.000        0.000        0.000        0.000        0.000        0.000        0.000        0.000        2.000        2.000        4.000        3.000        1.000        6.000        0.000        0.000        0.000        0.000        0.000      100.000        0.000        0.000        1.642        1.705        2.321
     840.000  -219961.896    20993.821    13033.121    43544.572       93.616  -337516.761    39889.734       26.166       25.885        2.590        2.649        2.685        2.712        2.565        3.005        2.733        2.548        3.217        2.637        2.687        2.675        3.067        3.037        2.741        2.529        0.484        1.000        1.000        0.000        1.000        0.000        4.000        0.000        0.000        0.000        0.000        0.000        0.000        0.000        1.000        0.000        0.000        0.000        0.000        0.000        0.000        0.000        0.000        0.000        0.000        0.000        1.000        1.000        5.000        0.000        9.000        0.000        0.000        0.000        0.000        0.000      100.000        0.000        0.000        1.686        1.736        2.378
     850.000  -220046.662    21543.330    13469.578    43534.713       92.538  -338101.988    39415.167       25.943       25.831        2.646        2.661        2.728        2.704        2.478        3.031        2.684        2.602        3.275        2.646        2.720        2.681        3.176        2.991        2.705        2.540        0.471        1.000        0.000        1.000        1.000        0.000        2.000        0.000        0.000        0.000        0.000        0.000        1.000        0.000        0.000        0.000        0.000        0.000        0.000        0.000        0.000        0.000        0.000        0.000        0.000        0.000        1.000        3.000        2.000        0.000        5.000        1.000        0.000        0.000        0.000        0.000      100.000        0.000        0.000        1.541        1.581        2.294
     860.000  -219460.876    20826.126    13500.799    43687.398       69.440  -337222.147    39677.510       25.946       25.944        2.629        2.611        2.717        2.712        2.514        3.036        2.659        2.508        3.258        2.657        2.723        2.649        3.019        2.941        2.700        2.476        0.497        1.000        1.000        1.000        1.000        0.000        4.000        0.000        0.000        1.000        0.000        0.000        0.000        0.000        2.000        0.000        0.000        0.000        0.000        0.000        0.000        0.000        0.000        0.000        0.000        0.000        1.000        2.000        3.000        2.000        7.000        0.000        0.000        0.000        0.000        0.000      100.000        0.000        0.000        1.745        1.756        2.317
     870.000  -219652.173    21880.616    13376.423    43543.567       86.037  -338028.008    39489.192       25.893       25.886        2.560        2.620        2.697        2.684        2.528        2.991        2.675        2.569        3.232        2.645        2.704        2.635        3.106        3.014        2.693        2.491        0.501        1.000        1.000        0.000        1.000        0.000        4.000        0.000        0.000        0.000        0.000        0.000        0.000        0.000        2.000        0.000        0.000        0.000        0.000        0.000        0.000        0.000        0.000        0.000        0.000        0.000        1.000        4.000        4.000        1.000        9.000        1.000        0.000        0.000        0.000        0.000      100.000        0.000        0.000        1.533        1.554        2.161
     880.000  -219621.396    21962.667    13482.367    43628.489       73.916  -337010.465    38241.629       25.692       26.011        2.476        2.659        2.712        2.694        2.563        3.042        2.640        2.553        3.232        2.671        2.700        2.634        3.102        3.033        2.697        2.525        0.512        1.000        1.000        1.000        0.000        0.000        5.000        0.000        0.000        1.000        0.000        0.000        0.000        0.000        3.000        0.000        0.000        0.000        0.000        0.000        0.000        0.000        0.000        0.000        0.000        0.000        0.000        1.000        2.000        0.000        5.000        0.000        0.000        0.000        0.000        0.000      100.000        0.000        0.000        1.819        1.844        2.418
     890.000  -219444.312    21385.305    13645.970    43558.556       85.911  -337306.871    39186.818       25.955       26.066        2.539        2.634        2.722        2.688        2.632        3.049        2.660        2.560        3.270        2.688        2.639        2.616        3.072        3.073        2.717        2.485        0.489        1.000        1.000        2.000        0.000        0.000        5.000        0.000        0.000        0.000        0.000        1.000        0.000        0.000        0.000        0.000        0.000        0.000        0.000        0.000        0.000        0.000        0.000        0.000        0.000        1.000        2.000        1.000        3.000        1.000        8.000        1.000        0.000        0.000        0.000        0.000      100.000        0.000        0.000        1.872        1.890        2.419
     900.000  -219314.148    21548.106    13340.556    43567.224       73.435  -337240.594    39397.125       25.969       26.334        2.528        2.573        2.719        2.700        2.555        2.938        2.671        2.547        3.281        2.673        2.711        2.696        3.083        3.078        2.662        2.442        0.505        1.000        1.000        0.000        0.000        0.000        4.000        0.000        0.000        0.000        0.000        0.000        0.000        0.000        0.000        0.000        0.000        0.000        0.000        0.000        0.000        0.000        0.000        0.000        0.000        0.000        2.000        2.000        1.000        1.000        5.000        1.000        0.000        0.000        0.000        0.000      100.000        0.000        0.000        1.718        1.741        2.284
     910.000  -219391.807    21808.428    13445.719    43664.686      100.700  -338191.582    39780.243       26.127       26.036        2.653        2.682        2.712        2.686        2.532        2.934        2.655        2.548        3.242        2.672        2.669        2.607        3.108        3.054        2.755        2.511        0.464        1.000        1.000        1.000        0.000        0.000        7.000        0.000        0.000        0.000        0.000        0.000        0.000        0.000        0.000        0.000        0.000        0.000        0.000        0.000        0.000        0.000        0.000        0.000        0.000        0.000        1.000        2.000        1.000        2.000        9.000        0.000        0.000        0.000        0.000        0.000      100.000        0.000        0.000        1.697        1.716        2.327
     920.000  -218614.362    21439.746    13363.854    43581.644       97.178  -337056.226    39959.442       26.009       26.000        2.606        2.582        2.679        2.737        2.555        3.045        2.627        2.529        3.281        2.690        2.663        2.671        3.041        2.973        2.676        2.520        0.484        1.000        1.000        0.000        0.000        0.000        4.000        0.000        0.000        0.000        0.000        0.000        0.000        0.000        2.000        0.000        0.000        0.000        0.000        0.000        0.000        0.000        0.000        0.000        0.000        0.000        1.000        1.000        2.000        3.000        9.000        2.000        0.000        0.000        0.000        0.000      100.000        0.000        0.000        1.608        1.615        2.300
     930.000  -219379.938    20904.510    13410.909    43640.522       82.870  -337584.404    40165.655       26.106       26.142        2.602        2.607        2.720        2.643        2.539        3.041        2.673        2.567        3.266        2.676        2.696        2.717        3.025        2.980        2.644        2.539        0.483        1.000        1.000        1.000        0.000        0.000        4.000        0.000        0.000        0.000        0.000        0.000        0.000        0.000        0.000        0.000        0.000        0.000        0.000        0.000        0.000        0.000        0.000        0.000        0.000        0.000        3.000        0.000        2.000        2.000        8.000        1.000        0.000        0.000        0.000        0.000      100.000        0.000        0.000        1.641        1.644        2.261
     940.000  -219744.919    22017.405    13746.667    43519.280       77.563  -338732.624    39626.790       26.061       26.088        2.528        2.631        2.692        2.650        2.485        3.037        2.665        2.529        3.295        2.661        2.728        2.646        3.105        3.031        2.659        2.499        0.489        1.000        1.000        1.000        0.000        0.000        4.000        0.000        0.000        0.000        0.000        0.000        0.000        0.000        1.000        0.000        0.000        0.000        0.000        0.000        0.000        0.000        0.000        0.000        0.000        0.000        2.000        3.000        4.000        2.000        9.000        1.000        0.000        0.000        0.000        0.000      100.000        0.000        0.000        1.480        1.501        2.157
     950.000  -219409.399    21715.694    13540.424    43539.647       92.692  -336925.040    38627.183       25.971       26.160        2.545        2.606        2.702        2.687        2.556        3.000        2.638        2.527        3.301        2.650        2.692        2.680        3.119        3.039        2.682        2.525        0.493        1.000        1.000        1.000        0.000        0.000        3.000        0.000        0.000        0.000        1.000        0.000        0.000        0.000        3.000        0.000        0.000        0.000        0.000        0.000        0.000        0.000        0.000        0.000        0.000        0.000        1.000        3.000        2.000        1.000        8.000        1.000        0.000        0.000        0.000        0.000      100.000        0.000        0.000        1.548        1.586        2.174
     960.000  -218725.098    21455.712    13517.135    43717.899       78.683  -339109.412    41614.885       25.741       25.791        2.572        2.611        2.709        2.693        2.549        2.908        2.683        2.561        3.282        2.676        2.706        2.656        2.986        2.956        2.715        2.441        0.479        1.000        1.000        1.000        0.000        0.000        2.000        0.000        0.000        0.000        0.000        0.000        0.000        0.000        0.000        0.000        0.000        0.000        0.000        0.000        0.000        0.000        0.000        0.000        0.000        2.000        2.000        1.000        2.000        1.000        5.000        1.000        0.000        0.000        0.000        0.000      100.000        0.000        0.000        1.614        1.658        2.340
     970.000  -220096.809    22076.742    13445.050    43537.259       81.625  -337257.173    38019.687       25.559       25.777        2.529        2.625        2.741        2.663        2.521        2.989        2.679        2.558        3.267        2.660        2.668        2.675        3.070        2.939        2.687        2.584        0.492        1.000        1.000        1.000        0.000        1.000        3.000        0.000        0.000        0.000        0.000        0.000        0.000        0.000        1.000        0.000        0.000        0.000        0.000        0.000        0.000        0.000        0.000        0.000        0.000        0.000        2.000        1.000        1.000        1.000        5.000        0.000        0.000        0.000        0.000        0.000      100.000        0.000        0.000        1.777        1.808        2.329
     980.000  -219825.248    22631.694    13499.507    43355.749       98.370  -337930.690    38520.122       25.645       26.008        2.556        2.648        2.735        2.713        2.500        3.003        2.675        2.596        3.241        2.717        2.716        2.668        3.111        2.977        2.769        2.506        0.497        1.000        1.000        1.000        0.000        1.000        4.000        0.000        0.000        0.000        0.000        0.000        0.000        0.000        1.000        0.000        0.000        0.000        0.000        0.000        0.000        0.000        0.000        0.000        0.000        0.000        3.000        2.000        2.000        1.000       12.000        0.000        0.000        0.000        0.000        0.000      100.000        0.000        0.000        1.845        1.856        2.444
     990.000  -219092.582    21475.802    13571.416    43626.962       64.202  -336402.310    38571.345       25.551       25.896        2.580        2.627        2.735        2.690        2.591        3.019        2.643        2.505        3.282        2.701        2.646        2.695        3.078        2.969        2.717        2.517        0.462        2.000        1.000        1.000        0.000        0.000        5.000        0.000        0.000        0.000        0.000        0.000        0.000        0.000        2.000        0.000        0.000        0.000        0.000        0.000        0.000        0.000        0.000        0.000        0.000        0.000        0.000        1.000        0.000        3.000       14.000        2.000        0.000        0.000        0.000        0.000      100.000        0.000        0.000        1.584        1.639        2.270
    1000.000  -219504.310    21142.437    13572.551    43514.971       89.802  -337056.872    39232.801       25.717       26.051        2.655        2.657        2.692        2.716        2.536        2.956        2.680        2.512        3.244        2.675        2.620        2.660        3.089        3.011        2.682        2.485        0.490        2.000        1.000        1.000        0.000        0.000        4.000        0.000        0.000        1.000        0.000        0.000        0.000        0.000        2.000        1.000        0.000        0.000        0.000        0.000        0.000        0.000        0.000        0.000        0.000        0.000        0.000        2.000        0.000        0.000        5.000        1.000        0.000        0.000        0.000        0.000      100.000        0.000        0.000        1.796        1.867        2.476
     Average  -221299.318    22282.277    13520.563    43552.268       80.076  -340587.273    39852.771       25.898       25.898        2.586        2.594        2.704        2.689        2.655        2.987        2.679        2.575        3.244        2.658        2.678        2.669        3.079        3.028        2.707        2.517        0.487        1.079        0.941        0.446        0.089        0.307        4.010        0.000        0.000        0.139        0.099        0.020        0.010        0.000        0.990        0.168        0.000        0.000        0.000        0.000        0.020        0.000        0.000        0.000        0.000        0.792        1.287        2.307        2.010        1.604        6.881        1.287        0.000        0.000        0.400        0.000       99.600        0.000        0.000        1.636        1.656        2.176

