____Time[ps] Energy[ kJ/mol ]_____Bond _______Angle ____Dihedral ___Planarity _____Coulomb _________VdW _Your result _Your result _Your result _Your result _Your result _Your result _Your result _Your result _Your result _Your result _Your result _Your result _Your result _Your result _Your result _Your result _Your result _Your result _Your result _Your result _Your result _Your result _Your result _Your result _Your result _Your result _Your result _Your result _Your result _Your result _Your result _Your result _Your result _Your result _Your result _Your result _Your result _Your result _Your result _Your result _Your result _Your result _Your result _Your result _Your result _Your result _Your result _Your result _Your result _Your result _Your result _Your result _Your result _Your result _Your result _Your result _Your result _RMSDs[A]:CA ____Backbone __HeavyAtoms
       0.000  -358969.543     9658.737     5235.555    43467.982       12.550  -487040.926    69696.558       25.501       25.438        2.900        2.939        3.043        3.225        3.204        3.019        2.611        2.924        3.221        3.245        3.047        2.539        3.045        2.947        3.001        2.897        0.489        2.000        1.000        1.000        0.000        1.000        4.000        0.000        0.000        0.000        1.000        0.000        0.000        0.000        2.000        0.000        0.000        0.000        0.000        0.000        0.000        0.000        0.000        0.000        0.000        0.000        1.000        0.000        0.000        0.000        5.000        0.000        0.000        0.000        0.000        0.000      100.000        0.000        0.000        0.476        0.498        0.591
      10.000  -270592.851    30848.575    15787.821    43370.209       66.065  -413117.032    52451.511       26.113       26.035        2.989        3.025        3.070        3.213        3.207        2.961        2.661        3.029        3.268        3.211        3.013        2.544        3.038        2.929        2.955        2.891        0.506        0.000        0.000        0.000        1.000        0.000        6.000        0.000        0.000        0.000        0.000        0.000        1.000        0.000        1.000        0.000        0.000        0.000        0.000        0.000        0.000        0.000        0.000        0.000        0.000        1.000        1.000        0.000        1.000        1.000        5.000        0.000        0.000        0.000        0.000        0.000      100.000        0.000        0.000        1.324        1.354        1.583
      20.000  -269173.463    30427.014    16545.822    43264.328       88.280  -412924.213    53425.306       25.843       25.985        2.965        2.991        3.034        3.190        3.164        2.921        2.647        3.090        3.245        3.237        3.124        2.512        3.100        2.908        2.987        2.891        0.488        2.000        0.000        0.000        1.000        0.000        5.000        0.000        0.000        0.000        0.000        0.000        0.000        0.000        1.000        0.000        0.000        0.000        0.000        0.000        0.000        0.000        0.000        0.000        0.000        2.000        2.000        0.000        1.000        1.000        5.000        0.000        0.000        0.000        0.000        0.000      100.000        0.000        0.000        1.224        1.265        1.542
      30.000  -269083.059    30283.405    16174.245    43088.672       83.374  -410651.280    51938.526       26.033       26.338        3.092        2.964        3.035        3.197        3.174        2.880        2.697        3.048        3.222        3.227        3.066        2.558        3.045        2.967        3.028        2.990        0.500        0.000        0.000        0.000        1.000        1.000        5.000        0.000        0.000        0.000        0.000        0.000        0.000        0.000        0.000        0.000        0.000        0.000        0.000        0.000        0.000        0.000        0.000        0.000        0.000        0.000        2.000        0.000        2.000        1.000        4.000        0.000        0.000        0.000        0.000        0.000      100.000        0.000        0.000        1.469        1.490        1.739
      40.000  -269456.039    30038.884    16410.254    43224.443      101.382  -410858.501    51627.499       25.958       25.955        3.007        2.998        3.085        3.182        3.175        2.921        2.638        2.974        3.265        3.190        3.037        2.552        3.073        2.935        3.039        3.005        0.476        0.000        0.000        0.000        1.000        1.000        4.000        1.000        0.000        0.000        0.000        0.000        0.000        0.000        2.000        0.000        0.000        0.000        0.000        0.000        0.000        0.000        0.000        0.000        0.000        1.000        2.000        1.000        1.000        1.000        3.000        0.000        0.000        0.000        0.000        0.000      100.000        0.000        0.000        1.515        1.534        1.813
      50.000  -268429.115    30221.707    16670.893    43058.058       73.536  -407919.352    49466.043       25.929       25.923        2.879        2.999        3.096        3.214        3.165        2.898        2.615        3.025        3.251        3.238        3.063        2.508        3.024        2.952        3.040        2.911        0.493        0.000        0.000        0.000        1.000        1.000        5.000        0.000        0.000        0.000        0.000        0.000        0.000        0.000        2.000        0.000        0.000        0.000        0.000        0.000        0.000        0.000        0.000        0.000        0.000        1.000        1.000        0.000        1.000        1.000        5.000        0.000        0.000        0.000        0.000        0.000      100.000        0.000        0.000        1.179        1.220        1.412
      60.000  -268433.688    29140.266    16317.393    43124.698       94.521  -407725.548    50614.983       26.124       26.004        2.860        3.069        3.063        3.206        3.177        2.973        2.650        3.051        3.238        3.228        3.015        2.521        3.098        2.949        2.996        2.984        0.478        0.000        0.000        0.000        1.000        0.000        5.000        0.000        0.000        0.000        0.000        0.000        0.000        0.000        1.000        0.000        0.000        0.000        0.000        0.000        0.000        0.000        0.000        0.000        0.000        1.000        2.000        0.000        0.000        0.000        2.000        0.000        0.000        0.000        0.000        0.000      100.000        0.000        0.000        1.350        1.371        1.710
      70.000  -268793.173    29716.595    16509.148    43025.375       90.455  -408725.080    50590.334       26.004       26.062        2.869        3.027        3.013        3.200        3.159        2.978        2.622        3.059        3.232        3.252        3.066        2.517        3.117        2.926        3.065        2.907        0.513        1.000        0.000        1.000        1.000        0.000        5.000        0.000        0.000        0.000        0.000        0.000        0.000        0.000        0.000        0.000        0.000        0.000        0.000        0.000        0.000        0.000        0.000        0.000        0.000        0.000        3.000        0.000        0.000        0.000        4.000        0.000        0.000        0.000        0.000        0.000      100.000        0.000        0.000        1.288        1.314        1.517
      80.000  -267650.362    29627.265    16664.024    42982.596       76.051  -407470.324    50470.026       26.010       26.063        2.976        2.995        3.101        3.198        3.204        2.938        2.617        3.026        3.260        3.279        3.053        2.492        3.043        2.919        3.010        2.880        0.476        0.000        0.000        0.000        1.000        0.000        5.000        0.000        0.000        0.000        0.000        0.000        0.000        0.000        0.000        0.000        0.000        0.000        0.000        0.000        0.000        0.000        0.000        0.000        0.000        0.000        2.000        0.000        0.000        2.000        5.000        0.000        0.000        0.000        0.000        0.000      100.000        0.000        0.000        1.478        1.501        1.773
      90.000  -267240.490    28196.667    16138.465    43157.128       93.727  -406501.108    51674.631       25.823       26.036        2.919        3.016        2.990        3.187        3.184        2.974        2.611        3.026        3.262        3.264        3.023        2.538        3.061        2.967        3.042        2.935        0.461        0.000        0.000        0.000        1.000        1.000        4.000        0.000        0.000        1.000        0.000        0.000        0.000        0.000        0.000        1.000        0.000        0.000        0.000        0.000        0.000        0.000        0.000        0.000        0.000        2.000        1.000        0.000        1.000        0.000        3.000        0.000        0.000        0.000        0.000        0.000      100.000        0.000        0.000        1.368        1.399        1.766
     100.000  -266885.589    27858.510    16656.566    43338.278       79.374  -406121.873    51303.555       25.727       26.093        2.891        2.991        3.036        3.216        3.182        2.915        2.616        3.002        3.186        3.187        3.071        2.533        3.093        2.954        3.004        2.882        0.467        0.000        0.000        0.000        0.000        0.000        5.000        0.000        0.000        0.000        0.000        0.000        0.000        0.000        0.000        0.000        0.000        0.000        0.000        0.000        0.000        0.000        0.000        0.000        0.000        2.000        2.000        0.000        1.000        1.000        5.000        0.000        0.000        0.000        0.000        0.000      100.000        0.000        0.000        1.454        1.494        1.894
     110.000  -267074.213    27291.327    16587.917    43337.008       64.287  -405923.241    51568.489       25.732       26.287        2.877        3.042        3.004        3.189        3.186        2.999        2.605        3.056        3.223        3.239        2.995        2.559        3.050        2.916        3.014        2.924        0.473        1.000        0.000        0.000        0.000        0.000        3.000        0.000        0.000        0.000        0.000        0.000        0.000        1.000        2.000        0.000        0.000        0.000        0.000        0.000        0.000        0.000        0.000        0.000        0.000        3.000        3.000        1.000        1.000        0.000        7.000        1.000        0.000        0.000        0.000        0.000      100.000        0.000        0.000        1.549        1.587        1.812
     120.000  -266461.238    27322.133    16505.418    43292.495       80.463  -405123.149    51461.401       25.698       26.435        3.051        3.021        3.069        3.179        3.218        2.972        2.631        3.014        3.196        3.202        3.096        2.557        3.075        2.917        3.033        2.931        0.474        0.000        0.000        0.000        0.000        0.000        3.000        0.000        0.000        0.000        0.000        0.000        0.000        0.000        0.000        0.000        0.000        0.000        0.000        0.000        0.000        0.000        0.000        0.000        0.000        2.000        3.000        0.000        0.000        0.000        5.000        1.000        0.000        0.000        0.000        0.000      100.000        0.000        0.000        1.824        1.867        2.097
     130.000  -266866.602    28568.907    16370.052    42965.678       93.400  -405146.550    50281.910       25.880       26.373        2.854        2.933        3.069        3.160        3.180        3.018        2.607        3.085        3.264        3.198        3.084        2.494        3.123        3.053        3.004        2.960        0.482        0.000        0.000        1.000        0.000        0.000        4.000        0.000        0.000        0.000        0.000        0.000        0.000        0.000        1.000        0.000        0.000        0.000        0.000        0.000        0.000        0.000        0.000        0.000        0.000        1.000        0.000        1.000        1.000        0.000        5.000        2.000        0.000        0.000        0.000        0.000      100.000        0.000        0.000        1.779        1.839        2.146
     140.000  -266270.332    26358.035    16785.423    43278.666       69.604  -404723.805    51961.744       25.697       26.088        2.929        2.978        3.034        3.163        3.160        3.017        2.650        3.067        3.211        3.204        3.018        2.505        3.046        2.934        3.025        2.978        0.505        0.000        0.000        0.000        0.000        0.000        3.000        0.000        0.000        0.000        0.000        0.000        0.000        0.000        2.000        0.000        0.000        0.000        0.000        0.000        0.000        0.000        0.000        0.000        0.000        2.000        2.000        0.000        1.000        0.000        2.000        0.000        0.000        0.000        0.000        0.000      100.000        0.000        0.000        1.429        1.492        1.953
     150.000  -266343.962    28144.409    16209.767    43148.566       79.634  -402955.812    49029.474       25.756       26.168        2.960        2.946        3.037        3.166        3.142        3.017        2.565        3.002        3.194        3.252        3.032        2.541        3.003        2.873        3.241        3.023        0.490        1.000        0.000        1.000        0.000        0.000        2.000        0.000        0.000        1.000        0.000        0.000        1.000        0.000        0.000        0.000        0.000        0.000        0.000        0.000        0.000        0.000        0.000        0.000        0.000        2.000        2.000        1.000        1.000        1.000        5.000        0.000        0.000        0.000        0.000        0.000      100.000        0.000        0.000        1.674        1.730        2.213
     160.000  -265551.758    27943.917    16788.828    42987.321       86.814  -402091.652    48733.014       25.681       26.137        2.959        2.998        3.040        3.134        3.144        3.184        2.668        3.051        3.219        3.232        3.077        2.553        3.062        2.964        3.246        2.978        0.495        0.000        0.000        0.000        0.000        0.000        2.000        0.000        0.000        0.000        0.000        0.000        0.000        0.000        0.000        0.000        0.000        0.000        0.000        0.000        0.000        0.000        0.000        0.000        0.000        3.000        3.000        0.000        0.000        0.000        4.000        1.000        0.000        0.000        0.000        0.000      100.000        0.000        0.000        1.761        1.814        2.223
     170.000  -265961.424    28029.483    16263.841    43190.972       86.079  -402440.547    48908.749       25.795       26.251        2.804        2.986        2.985        3.154        3.210        3.025        2.586        3.043        3.233        3.218        3.049        2.549        3.112        3.035        3.192        2.963        0.475        0.000        0.000        1.000        0.000        0.000        2.000        0.000        0.000        0.000        0.000        0.000        0.000        0.000        1.000        0.000        0.000        0.000        0.000        0.000        0.000        0.000        0.000        0.000        0.000        1.000        2.000        0.000        0.000        1.000        5.000        0.000        0.000        0.000        0.000        0.000      100.000        0.000        0.000        1.584        1.597        2.088
     180.000  -265607.217    27783.639    15753.224    43222.253      103.643  -401250.776    48780.800       25.881       26.281        2.907        2.978        3.068        3.131        3.154        2.956        2.664        3.115        3.187        3.271        3.085        2.547        3.170        3.025        3.196        3.015        0.476        0.000        0.000        1.000        0.000        0.000        3.000        0.000        0.000        1.000        0.000        0.000        0.000        1.000        1.000        0.000        0.000        0.000        0.000        0.000        0.000        0.000        0.000        0.000        0.000        2.000        0.000        3.000        1.000        0.000        5.000        0.000        0.000        0.000        0.000        0.000      100.000        0.000        0.000        1.433        1.436        2.120
     190.000  -266548.496    28021.572    15871.364    43085.827      112.316  -402433.217    48793.642       26.010       26.416        2.872        2.968        2.970        3.213        3.209        2.990        2.602        3.115        3.231        3.183        3.074        2.594        3.120        2.927        3.233        2.984        0.488        0.000        0.000        1.000        0.000        0.000        3.000        0.000        0.000        0.000        0.000        0.000        0.000        0.000        2.000        0.000        0.000        0.000        0.000        0.000        0.000        0.000        0.000        0.000        0.000        2.000        3.000        1.000        0.000        0.000        6.000        1.000        0.000        0.000        0.000        0.000      100.000        0.000        0.000        1.492        1.507        2.000
     200.000  -266252.843    27166.165    15673.976    43249.177       72.726  -401390.005    48975.119       26.004       26.166        2.902        2.960        3.059        3.260        3.237        3.020        2.597        3.060        3.200        3.206        3.046        2.541        3.081        3.081        3.221        2.924        0.470        1.000        0.000        0.000        0.000        0.000        4.000        1.000        0.000        0.000        0.000        0.000        0.000        0.000        0.000        1.000        0.000        0.000        0.000        0.000        0.000        0.000        0.000        0.000        0.000        2.000        1.000        1.000        0.000        1.000        4.000        2.000        0.000        0.000        0.000        0.000      100.000        0.000        0.000        1.894        1.916        2.278
     210.000  -265635.245    27174.956    15470.248    43231.350       80.637  -400877.708    49285.272       26.065       26.222        2.824        2.963        3.042        3.236        3.192        3.026        2.577        3.048        3.220        3.226        3.051        2.526        3.024        3.036        3.274        2.953        0.480        0.000        0.000        1.000        0.000        0.000        4.000        0.000        0.000        0.000        0.000        0.000        0.000        0.000        0.000        1.000        0.000        0.000        0.000        0.000        0.000        0.000        0.000        0.000        0.000        1.000        0.000        1.000        0.000        1.000        4.000        0.000        0.000        0.000        0.000        0.000      100.000        0.000        0.000        2.045        2.060        2.450
     220.000  -265380.575    27444.922    15839.308    43131.061       94.885  -402152.438    50261.686       26.003       26.274        2.829        2.985        3.047        3.263        3.226        3.052        2.569        2.955        3.189        3.240        3.026        2.507        3.196        2.978        3.204        2.892        0.496        1.000        0.000        1.000        0.000        0.000        5.000        0.000        0.000        0.000        0.000        0.000        2.000        0.000        0.000        2.000        0.000        0.000        0.000        0.000        0.000        0.000        0.000        0.000        0.000        2.000        0.000        1.000        0.000        1.000        4.000        0.000        0.000        0.000        0.000        0.000      100.000        0.000        0.000        1.800        1.821        2.220
     230.000  -265502.504    26949.706    15642.780    43249.640       69.884  -400182.119    48767.606       25.918       26.062        2.881        2.969        3.031        3.281        3.220        2.999        2.609        3.102        3.244        3.253        3.028        2.546        3.050        2.996        3.255        2.993        0.489        0.000        0.000        0.000        0.000        0.000        5.000        0.000        0.000        1.000        0.000        0.000        0.000        0.000        0.000        0.000        0.000        0.000        0.000        0.000        0.000        0.000        0.000        0.000        0.000        1.000        0.000        2.000        0.000        0.000        1.000        2.000        0.000        0.000        4.494        0.000       95.506        0.000        0.000        1.976        1.985        2.391
     240.000  -264257.657    25881.155    16217.286    43347.130       86.267  -400057.040    50267.544       25.850       26.105        2.864        2.986        3.097        3.176        3.187        3.052        2.608        3.065        3.185        3.218        3.008        2.524        3.095        3.029        3.232        2.968        0.473        0.000        0.000        0.000        0.000        0.000        5.000        0.000        0.000        1.000        0.000        0.000        0.000        0.000        1.000        0.000        0.000        0.000        0.000        0.000        0.000        0.000        0.000        0.000        0.000        1.000        0.000        0.000        0.000        1.000        4.000        1.000        0.000        0.000        4.494        0.000       95.506        0.000        0.000        1.940        1.952        2.324
     250.000  -265465.391    27080.321    16206.343    43223.996       81.547  -400878.792    48821.194       25.980       26.170        2.973        3.062        3.020        3.239        3.197        3.007        2.628        3.023        3.217        3.213        3.030        2.553        3.105        2.998        3.149        2.858        0.479        0.000        0.000        1.000        0.000        0.000        5.000        0.000        0.000        1.000        0.000        0.000        0.000        0.000        0.000        0.000        0.000        0.000        0.000        0.000        0.000        0.000        0.000        0.000        0.000        0.000        0.000        2.000        0.000        1.000        4.000        1.000        0.000        0.000        0.000        0.000      100.000        0.000        0.000        1.954        1.972        2.463
     260.000  -263623.396    26642.095    16223.961    43525.002       92.516  -399550.951    49443.982       25.779       26.032        2.973        2.983        3.085        3.168        3.133        2.973        2.593        3.024        3.233        3.202        3.038        2.558        3.143        2.986        3.209        2.981        0.506        0.000        0.000        1.000        0.000        0.000        5.000        0.000        0.000        1.000        0.000        0.000        0.000        1.000        1.000        0.000        0.000        0.000        0.000        0.000        0.000        0.000        0.000        0.000        0.000        1.000        0.000        2.000        0.000        0.000        1.000        1.000        0.000        0.000        0.000        0.000      100.000        0.000        0.000        1.969        1.960        2.646
     270.000  -264953.285    28048.474    15999.425    43189.621       86.896  -399813.752    47536.051       26.277       26.361        3.065        2.998        3.085        3.246        3.173        3.049        2.620        3.005        3.235        3.258        3.057        2.601        3.077        2.889        3.257        3.006        0.483        0.000        0.000        1.000        0.000        0.000        5.000        0.000        0.000        1.000        0.000        0.000        0.000        0.000        0.000        0.000        0.000        0.000        0.000        0.000        0.000        0.000        0.000        0.000        0.000        0.000        0.000        1.000        0.000        0.000        5.000        0.000        0.000        0.000        0.000        0.000      100.000        0.000        0.000        2.052        2.057        2.594
     280.000  -264368.682    26469.249    15542.698    43213.461       79.366  -399142.048    49468.593       25.897       26.130        2.967        2.981        3.072        3.238        3.197        3.037        2.624        3.011        3.201        3.253        3.061        2.530        3.106        2.946        3.284        3.028        0.483        1.000        0.000        1.000        0.000        1.000        4.000        0.000        0.000        0.000        1.000        0.000        0.000        0.000        1.000        0.000        0.000        0.000        0.000        0.000        0.000        0.000        0.000        0.000        0.000        1.000        0.000        1.000        1.000        2.000        5.000        0.000        0.000        0.000        0.000        0.000      100.000        0.000        0.000        1.812        1.795        2.411
     290.000  -264976.685    26961.259    15824.277    43182.941       87.992  -399429.394    48396.240       25.934       26.248        3.031        2.959        3.048        3.198        3.221        3.030        2.634        3.078        3.209        3.260        3.066        2.477        3.067        3.015        3.328        3.021        0.462        0.000        0.000        1.000        0.000        0.000        4.000        0.000        0.000        0.000        0.000        0.000        0.000        1.000        1.000        0.000        0.000        0.000        0.000        0.000        0.000        0.000        0.000        0.000        0.000        0.000        1.000        2.000        0.000        1.000        4.000        1.000        0.000        0.000        0.000        0.000      100.000        0.000        0.000        1.915        1.916        2.484
     300.000  -264494.798    26915.148    15977.209    43263.358       81.416  -399608.615    48876.686       25.918       26.376        2.947        2.969        3.013        3.216        3.238        2.972        2.609        3.005        3.237        3.212        3.112        2.527        3.098        2.978        3.189        2.969        0.462        0.000        0.000        1.000        0.000        0.000        4.000        0.000        0.000        1.000        0.000        0.000        0.000        0.000        1.000        0.000        0.000        0.000        0.000        0.000        0.000        0.000        0.000        0.000        0.000        0.000        0.000        0.000        0.000        0.000        2.000        0.000        0.000        0.000        0.000        0.000      100.000        0.000        0.000        2.265        2.261        2.853
     310.000  -264413.138    25980.087    15902.078    43258.904       81.129  -399327.545    49692.208       25.729       25.860        2.942        2.951        3.021        3.232        3.190        2.971        2.626        3.029        3.211        3.261        3.031        2.573        3.158        2.966        3.254        2.959        0.470        0.000        0.000        1.000        0.000        1.000        4.000        0.000        0.000        0.000        0.000        0.000        0.000        0.000        3.000        1.000        0.000        0.000        0.000        0.000        0.000        0.000        0.000        0.000        0.000        0.000        0.000        3.000        0.000        1.000        3.000        1.000        0.000        0.000        0.000        0.000      100.000        0.000        0.000        2.784        2.753        3.329
     320.000  -264515.868    26027.829    15373.791    43350.358       70.758  -399159.321    49820.718       25.516       25.601        2.911        2.963        3.033        3.241        3.105        3.010        2.594        2.995        3.196        3.243        3.034        2.517        3.050        2.929        3.222        2.895        0.479        0.000        0.000        0.000        0.000        0.000        5.000        0.000        0.000        0.000        2.000        0.000        0.000        0.000        1.000        0.000        0.000        0.000        0.000        0.000        0.000        0.000        0.000        0.000        0.000        0.000        0.000        0.000        0.000        0.000        6.000        0.000        0.000        0.000        0.000        0.000      100.000        0.000        0.000        2.398        2.369        3.024
     330.000  -263998.479    27315.900    15809.571    43301.045       95.783  -399365.462    48844.685       25.530       25.767        3.054        2.972        3.073        3.176        3.192        2.963        2.613        3.027        3.230        3.236        3.036        2.539        3.016        3.019        3.230        3.011        0.469        0.000        0.000        0.000        0.000        0.000        4.000        1.000        0.000        1.000        1.000        0.000        1.000        0.000        2.000        0.000        0.000        0.000        0.000        0.000        0.000        0.000        0.000        0.000        0.000        0.000        0.000        1.000        0.000        1.000        2.000        0.000        0.000        0.000        4.494        0.000       95.506        0.000        0.000        2.237        2.206        3.015
     340.000  -265074.563    26869.729    15511.636    43071.690       95.238  -400059.410    49436.554       25.692       25.881        3.026        3.116        3.034        3.175        3.182        3.027        2.615        3.006        3.210        3.233        3.049        2.550        3.072        2.962        3.219        3.006        0.482        0.000        1.000        1.000        0.000        0.000        4.000        0.000        0.000        0.000        0.000        0.000        0.000        0.000        1.000        2.000        0.000        0.000        0.000        0.000        0.000        0.000        0.000        0.000        0.000        0.000        1.000        2.000        0.000        0.000        4.000        0.000        0.000        0.000        4.494        0.000       95.506        0.000        0.000        2.472        2.437        3.199
     350.000  -264994.915    27356.282    15712.961    42934.285      113.018  -399336.165    48224.704       25.917       26.080        2.940        3.010        2.975        3.177        3.192        3.060        2.561        3.045        3.245        3.263        2.983        2.576        3.083        3.034        3.295        2.970        0.479        1.000        0.000        1.000        0.000        0.000        4.000        0.000        0.000        0.000        0.000        0.000        0.000        0.000        1.000        1.000        0.000        0.000        0.000        0.000        0.000        0.000        0.000        0.000        0.000        0.000        0.000        1.000        0.000        0.000        5.000        0.000        0.000        0.000        0.000        0.000      100.000        0.000        0.000        2.298        2.274        2.974
     360.000  -265095.239    27410.601    15788.577    43032.725      100.424  -399459.077    48031.512       25.952       26.192        3.049        3.016        3.070        3.152        3.159        3.071        2.592        3.024        3.217        3.206        3.007        2.490        3.079        3.009        3.297        2.965        0.491        0.000        0.000        1.000        0.000        1.000        3.000        0.000        0.000        1.000        0.000        0.000        0.000        0.000        0.000        0.000        0.000        0.000        0.000        0.000        0.000        0.000        0.000        0.000        0.000        0.000        0.000        1.000        0.000        1.000        4.000        0.000        0.000        0.000        4.494        0.000       95.506        0.000        0.000        1.966        1.936        2.682
     370.000  -264491.729    26938.432    15838.298    43193.740       99.446  -398548.859    47987.214       25.788       25.970        3.151        2.991        3.037        3.146        3.187        3.064        2.603        3.059        3.279        3.242        3.020        2.566        3.135        3.043        3.259        3.028        0.503        0.000        0.000        0.000        0.000        0.000        5.000        0.000        0.000        1.000        0.000        0.000        0.000        0.000        0.000        2.000        0.000        0.000        0.000        0.000        0.000        0.000        0.000        0.000        0.000        0.000        1.000        1.000        1.000        1.000        6.000        1.000        0.000        0.000        0.000        0.000      100.000        0.000        0.000        1.851        1.822        2.582
     380.000  -264279.660    25921.088    15697.879    43224.774       93.305  -398628.985    49412.279       25.653       25.934        3.084        3.025        3.028        3.217        3.188        3.116        2.598        3.036        3.218        3.259        3.041        2.475        3.093        3.002        3.244        2.998        0.477        0.000        0.000        1.000        0.000        0.000        3.000        0.000        0.000        0.000        0.000        0.000        1.000        0.000        3.000        0.000        0.000        0.000        0.000        0.000        0.000        0.000        0.000        0.000        0.000        0.000        0.000        3.000        0.000        0.000        3.000        1.000        0.000        0.000        0.000        0.000      100.000        0.000        0.000        1.853        1.826        2.641
     390.000  -263792.074    26255.207    15996.063    43266.332      100.013  -398436.977    49027.288       25.690       25.927        3.169        2.933        3.047        3.179        3.205        3.007        2.605        3.058        3.245        3.235        3.044        2.546        3.061        2.996        3.239        2.955        0.492        0.000        0.000        0.000        0.000        1.000        5.000        0.000        0.000        1.000        0.000        0.000        1.000        0.000        1.000        0.000        0.000        0.000        0.000        0.000        0.000        0.000        0.000        0.000        0.000        1.000        0.000        0.000        0.000        1.000        3.000        1.000        0.000        0.000        0.000        0.000      100.000        0.000        0.000        2.143        2.119        2.822
     400.000  -264199.441    26286.776    15665.916    43275.006       97.609  -398724.113    49199.366       25.703       26.042        3.206        2.932        3.061        3.291        3.165        2.994        2.631        3.029        3.269        3.207        3.041        2.494        3.104        2.996        3.255        2.962        0.490        0.000        1.000        1.000        0.000        0.000        4.000        0.000        0.000        1.000        0.000        0.000        0.000        1.000        0.000        0.000        0.000        0.000        0.000        0.000        0.000        0.000        0.000        0.000        0.000        0.000        1.000        2.000        1.000        1.000        6.000        2.000        0.000        0.000        4.494        0.000       95.506        0.000        0.000        1.935        1.902        2.644
     410.000  -263849.250    27513.273    15806.277    42993.849       81.493  -398118.364    47874.222       26.093       26.180        3.177        2.952        3.032        3.197        3.172        3.030        2.663        3.058        3.232        3.181        3.058        2.548        3.170        3.005        3.261        3.007        0.477        1.000        0.000        1.000        0.000        0.000        5.000        0.000        0.000        2.000        0.000        0.000        0.000        0.000        2.000        0.000        0.000        0.000        0.000        0.000        0.000        0.000        0.000        0.000        0.000        1.000        1.000        2.000        0.000        0.000        4.000        1.000        0.000        0.000        0.000        0.000      100.000        0.000        0.000        1.702        1.682        2.338
     420.000  -264082.106    27862.757    15763.044    42961.275       86.587  -398631.481    47875.712       25.893       26.031        3.213        2.967        3.038        3.187        3.173        3.090        2.609        3.071        3.244        3.246        3.047        2.549        3.096        2.965        3.245        2.994        0.479        1.000        0.000        1.000        0.000        1.000        3.000        0.000        0.000        1.000        1.000        0.000        0.000        0.000        1.000        0.000        0.000        0.000        0.000        0.000        0.000        0.000        0.000        0.000        0.000        0.000        0.000        2.000        0.000        1.000        2.000        0.000        0.000        0.000        0.000        0.000      100.000        0.000        0.000        1.994        1.980        2.606
     430.000  -264569.928    25910.377    15512.675    43201.727       93.697  -398422.636    49134.232       25.611       25.850        3.199        2.968        3.038        3.195        3.153        3.014        2.599        3.032        3.242        3.233        3.018        2.564        3.064        3.026        3.246        3.028        0.500        0.000        0.000        1.000        0.000        0.000        4.000        0.000        0.000        0.000        0.000        0.000        0.000        0.000        1.000        0.000        0.000        0.000        0.000        0.000        0.000        0.000        0.000        0.000        0.000        0.000        0.000        2.000        0.000        0.000        3.000        1.000        0.000        0.000        4.494        0.000       95.506        0.000        0.000        2.208        2.197        2.894
     440.000  -264083.572    26502.986    15492.849    43334.835       76.536  -397232.773    47741.995       26.013       25.899        3.159        2.943        3.040        3.143        3.186        3.045        2.619        3.023        3.234        3.223        3.044        2.532        3.073        3.019        3.241        2.981        0.492        0.000        1.000        0.000        0.000        0.000        4.000        0.000        0.000        0.000        0.000        0.000        0.000        0.000        1.000        1.000        0.000        0.000        0.000        0.000        0.000        0.000        0.000        0.000        0.000        0.000        0.000        1.000        0.000        0.000        3.000        0.000        0.000        0.000        0.000        0.000      100.000        0.000        0.000        2.263        2.250        3.000
     450.000  -264091.247    26157.999    15633.248    43292.232       88.966  -399206.597    49942.905       25.862       26.025        3.157        2.916        3.063        3.264        3.204        3.036        2.646        3.106        3.221        3.232        3.079        2.575        3.106        2.972        3.287        2.923        0.471        0.000        0.000        1.000        0.000        0.000        4.000        0.000        0.000        2.000        0.000        0.000        0.000        0.000        1.000        0.000        0.000        0.000        0.000        0.000        0.000        0.000        0.000        0.000        0.000        0.000        1.000        0.000        1.000        1.000        4.000        1.000        0.000        0.000        0.000        0.000      100.000        0.000        0.000        2.100        2.084        2.717
     460.000  -264087.816    25774.031    15637.689    43275.668       83.713  -397488.483    48629.566       25.893       26.007        3.218        2.969        3.044        3.184        3.189        2.999        2.612        3.047        3.246        3.208        3.001        2.546        3.060        3.015        3.221        2.978        0.468        1.000        0.000        1.000        0.000        0.000        4.000        0.000        0.000        1.000        0.000        0.000        0.000        0.000        3.000        0.000        0.000        0.000        0.000        0.000        0.000        0.000        0.000        0.000        0.000        0.000        0.000        1.000        0.000        0.000        7.000        2.000        0.000        0.000        0.000        0.000      100.000        0.000        0.000        1.865        1.834        2.721
     470.000  -264015.738    26768.468    15705.902    43390.139      114.081  -396881.443    46887.115       25.987       25.928        3.177        2.986        3.020        3.195        3.201        3.053        2.602        3.005        3.236        3.222        3.004        2.514        3.050        3.041        3.235        2.932        0.490        0.000        1.000        1.000        0.000        1.000        5.000        0.000        0.000        1.000        0.000        0.000        0.000        0.000        2.000        0.000        0.000        0.000        0.000        0.000        0.000        0.000        0.000        0.000        0.000        0.000        1.000        0.000        0.000        0.000        4.000        1.000        0.000        0.000        0.000        0.000      100.000        0.000        0.000        2.314        2.305        3.045
     480.000  -264663.119    25922.773    15700.731    43251.163       95.160  -397241.154    47608.207       26.059       26.058        3.189        2.969        3.023        3.153        3.219        3.107        2.600        3.035        3.190        3.242        2.998        2.538        3.060        3.010        3.250        2.986        0.507        0.000        0.000        0.000        0.000        1.000        4.000        0.000        0.000        0.000        1.000        0.000        0.000        0.000        3.000        0.000        0.000        0.000        0.000        0.000        0.000        0.000        0.000        0.000        0.000        2.000        2.000        1.000        0.000        0.000        7.000        1.000        0.000        0.000        0.000        0.000      100.000        0.000        0.000        2.222        2.196        2.839
     490.000  -263560.325    26051.550    15732.357    43265.934       88.764  -397516.551    48817.620       26.034       26.148        3.178        3.073        3.061        3.201        3.167        3.066        2.617        3.084        3.268        3.239        3.052        2.509        3.029        3.020        3.270        2.995        0.456        0.000        0.000        1.000        0.000        1.000        4.000        0.000        0.000        0.000        0.000        0.000        0.000        0.000        1.000        0.000        0.000        0.000        0.000        0.000        0.000        0.000        0.000        0.000        0.000        0.000        0.000        1.000        0.000        0.000        2.000        1.000        0.000        0.000        0.000        0.000      100.000        0.000        0.000        2.585        2.574        3.222
     500.000  -264001.778    26594.484    15979.569    43067.695      102.016  -399300.261    49554.720       25.623       25.877        3.199        2.954        3.042        3.249        3.175        3.029        2.619        3.106        3.264        3.302        3.005        2.544        3.044        3.004        3.268        2.983        0.489        0.000        0.000        1.000        0.000        0.000        4.000        0.000        0.000        1.000        0.000        0.000        0.000        0.000        2.000        0.000        0.000        0.000        0.000        0.000        0.000        0.000        0.000        0.000        0.000        0.000        2.000        1.000        1.000        0.000        3.000        1.000        0.000        0.000        0.000        0.000      100.000        0.000        0.000        2.224        2.223        3.045
     510.000  -264055.550    27094.263    16156.008    42984.170       87.771  -397851.052    47473.290       26.022       26.191        3.153        3.050        3.017        3.262        3.141        3.024        2.611        3.110        3.230        3.256        3.030        2.549        3.136        2.986        3.228        3.012        0.488        0.000        0.000        0.000        0.000        0.000        4.000        0.000        0.000        0.000        0.000        0.000        0.000        0.000        1.000        0.000        0.000        0.000        0.000        0.000        0.000        0.000        0.000        0.000        0.000        1.000        0.000        0.000        0.000        0.000        8.000        1.000        0.000        0.000        0.000        0.000      100.000        0.000        0.000        2.437        2.435        3.089
     520.000  -263877.023    26040.980    15886.229    43107.582       85.962  -397617.130    48619.355       25.949       26.160        3.153        3.043        3.032        3.243        3.241        2.978        2.657        2.984        3.220        3.287        2.974        2.505        3.073        2.997        3.187        2.967        0.487        0.000        0.000        0.000        0.000        1.000        4.000        0.000        0.000        1.000        0.000        0.000        1.000        0.000        2.000        0.000        0.000        0.000        0.000        0.000        0.000        0.000        0.000        0.000        0.000        1.000        2.000        3.000        0.000        0.000        4.000        0.000        0.000        0.000        0.000        0.000      100.000        0.000        0.000        2.602        2.622        3.196
     530.000  -264297.522    26492.763    15842.331    43175.869       91.097  -398492.712    48593.131       25.733       25.792        3.180        3.018        2.982        3.240        3.197        3.022        2.690        3.018        3.236        3.234        3.056        2.560        3.038        2.998        3.253        2.919        0.498        1.000        0.000        0.000        0.000        0.000        4.000        0.000        0.000        0.000        0.000        0.000        0.000        0.000        2.000        0.000        0.000        0.000        0.000        0.000        0.000        0.000        0.000        0.000        0.000        0.000        1.000        2.000        0.000        1.000        3.000        1.000        0.000        0.000        0.000        0.000      100.000        0.000        0.000        2.285        2.289        3.081
     540.000  -264312.076    26866.673    15970.617    43068.178       78.363  -397397.949    47102.042       25.958       26.120        3.160        3.067        3.049        3.237        3.208        2.983        2.645        3.151        3.235        3.211        3.063        2.543        3.139        3.011        3.262        3.045        0.499        0.000        1.000        0.000        0.000        1.000        4.000        0.000        0.000        0.000        0.000        0.000        0.000        0.000        2.000        0.000        0.000        0.000        0.000        0.000        0.000        0.000        0.000        0.000        0.000        1.000        3.000        2.000        0.000        1.000        4.000        0.000        0.000        0.000        0.000        0.000      100.000        0.000        0.000        1.786        1.776        2.577
     550.000  -263501.209    24935.054    15747.021    43123.056      100.973  -396446.352    49039.039       26.226       26.434        3.210        3.039        3.029        3.156        3.154        3.066        2.635        3.046        3.187        3.227        3.052        2.577        3.021        2.980        3.240        2.935        0.481        0.000        1.000        0.000        0.000        0.000        4.000        0.000        0.000        0.000        0.000        0.000        0.000        0.000        0.000        0.000        0.000        0.000        0.000        0.000        0.000        0.000        0.000        0.000        0.000        1.000        3.000        1.000        0.000        1.000        6.000        0.000        0.000        0.000        0.000        0.000      100.000        0.000        0.000        2.170        2.161        2.687
     560.000  -263158.370    26607.977    15563.436    43341.352       92.169  -396622.234    47858.930       26.090       26.029        3.192        3.024        3.061        3.206        3.176        3.062        2.634        2.965        3.217        3.211        3.033        2.543        3.042        3.001        3.200        2.912        0.491        0.000        0.000        0.000        0.000        0.000        3.000        0.000        0.000        1.000        2.000        0.000        0.000        1.000        1.000        0.000        0.000        0.000        0.000        0.000        0.000        0.000        0.000        0.000        0.000        3.000        0.000        1.000        0.000        2.000        6.000        0.000        0.000        0.000        0.000        0.000      100.000        0.000        0.000        2.039        2.037        2.647
     570.000  -264213.877    26524.254    15458.347    43263.083       92.023  -397545.798    47994.215       25.669       25.856        3.161        3.001        3.024        3.221        3.184        3.054        2.728        3.027        3.201        3.264        2.985        2.549        3.070        2.976        3.205        3.057        0.480        0.000        0.000        0.000        0.000        0.000        3.000        0.000        0.000        0.000        0.000        0.000        0.000        0.000        2.000        0.000        0.000        0.000        0.000        0.000        0.000        0.000        0.000        0.000        0.000        0.000        0.000        1.000        0.000        2.000        5.000        0.000        0.000        0.000        0.000        0.000      100.000        0.000        0.000        2.025        2.006        2.651
     580.000  -264121.571    26182.278    15690.433    43342.867       95.090  -397706.996    48274.758       25.677       25.920        3.183        3.057        2.990        3.144        3.231        3.051        2.672        3.027        3.197        3.201        3.018        2.519        3.094        3.064        3.193        2.984        0.474        0.000        0.000        0.000        0.000        0.000        2.000        0.000        0.000        0.000        0.000        0.000        0.000        0.000        1.000        0.000        0.000        0.000        0.000        0.000        0.000        0.000        0.000        0.000        0.000        0.000        3.000        1.000        0.000        0.000        5.000        1.000        0.000        0.000        0.000        0.000      100.000        0.000        0.000        2.166        2.155        2.765
     590.000  -263278.237    25182.527    15697.061    43217.453      101.945  -396884.833    49407.610       25.788       25.725        3.175        3.104        3.025        3.151        3.196        3.054        2.706        3.053        3.243        3.216        3.022        2.529        3.052        3.016        3.222        3.001        0.505        0.000        0.000        0.000        0.000        0.000        2.000        0.000        0.000        0.000        0.000        0.000        0.000        0.000        2.000        0.000        0.000        0.000        0.000        0.000        0.000        0.000        0.000        0.000        0.000        0.000        2.000        1.000        0.000        0.000        7.000        0.000        0.000        0.000        0.000        0.000      100.000        0.000        0.000        2.544        2.556        3.147
     600.000  -263704.160    26204.013    15570.950    43343.421       88.449  -397709.453    48798.460       25.716       25.758        3.160        3.069        3.031        3.225        3.168        3.085        2.647        2.901        3.145        3.202        3.031        2.549        3.096        2.984        3.148        2.942        0.479        0.000        0.000        0.000        0.000        1.000        2.000        0.000        0.000        2.000        0.000        0.000        0.000        0.000        0.000        0.000        0.000        0.000        0.000        0.000        0.000        0.000        0.000        0.000        0.000        1.000        2.000        1.000        0.000        1.000        6.000        0.000        0.000        0.000        0.000        0.000      100.000        0.000        0.000        2.102        2.088        2.859
     610.000  -263473.016    27052.331    15337.550    43145.904       98.150  -395872.518    46765.566       25.812       25.737        3.181        3.014        3.043        3.173        3.203        3.079        2.669        3.038        3.189        3.268        3.008        2.535        3.057        3.014        3.160        2.981        0.491        1.000        0.000        0.000        0.000        1.000        3.000        1.000        0.000        0.000        0.000        0.000        0.000        0.000        0.000        0.000        0.000        0.000        0.000        0.000        0.000        0.000        0.000        0.000        0.000        0.000        2.000        1.000        0.000        0.000        6.000        1.000        0.000        0.000        0.000        0.000      100.000        0.000        0.000        2.329        2.304        3.070
     620.000  -264063.230    26358.653    15628.372    42789.935       83.455  -396247.871    47324.226       26.229       26.056        3.243        3.052        3.062        3.251        3.178        3.107        2.673        3.131        3.244        3.218        3.071        2.555        3.163        3.010        3.194        2.966        0.493        0.000        0.000        0.000        0.000        0.000        2.000        0.000        0.000        1.000        0.000        0.000        0.000        0.000        0.000        0.000        0.000        0.000        0.000        0.000        0.000        0.000        0.000        0.000        0.000        0.000        4.000        1.000        0.000        0.000        6.000        1.000        0.000        0.000        0.000        0.000      100.000        0.000        0.000        2.680        2.687        3.329
     630.000  -263473.926    25866.789    15992.973    42794.580       80.601  -396459.698    48250.829       26.066       26.411        3.196        3.073        2.998        3.155        3.191        3.034        2.647        3.011        3.218        3.294        2.996        2.545        3.153        2.970        3.212        2.944        0.482        0.000        0.000        0.000        0.000        0.000        3.000        0.000        0.000        1.000        0.000        0.000        0.000        0.000        2.000        0.000        0.000        0.000        0.000        0.000        0.000        0.000        0.000        0.000        0.000        0.000        1.000        2.000        0.000        0.000        7.000        1.000        0.000        0.000        0.000        0.000      100.000        0.000        0.000        2.556        2.559        3.105
     640.000  -264042.236    27107.257    15287.931    43120.993       96.315  -396232.684    46577.951       25.905       25.938        3.151        2.972        3.070        3.161        3.209        2.888        2.683        2.964        3.231        3.196        3.025        2.555        3.123        3.059        3.190        2.974        0.486        0.000        0.000        0.000        0.000        0.000        3.000        0.000        0.000        2.000        0.000        0.000        0.000        0.000        3.000        0.000        0.000        0.000        0.000        0.000        0.000        0.000        0.000        0.000        0.000        0.000        2.000        2.000        0.000        0.000        1.000        1.000        0.000        0.000        4.494        0.000       95.506        0.000        0.000        2.436        2.437        3.066
     650.000  -264582.005    25537.371    15281.457    43318.024      108.672  -398385.213    49557.685       25.990       25.848        3.171        2.992        3.037        3.202        3.193        2.993        2.701        3.024        3.204        3.202        3.038        2.510        3.103        3.024        3.187        2.952        0.485        0.000        0.000        0.000        0.000        1.000        4.000        0.000        0.000        1.000        0.000        0.000        0.000        0.000        2.000        0.000        0.000        0.000        0.000        0.000        0.000        0.000        0.000        0.000        0.000        0.000        2.000        1.000        0.000        1.000        2.000        0.000        0.000        0.000        0.000        0.000      100.000        0.000        0.000        2.336        2.354        3.065
     660.000  -264262.958    26694.425    15898.049    43167.070      102.547  -396955.695    46830.646       25.869       25.853        3.157        3.005        3.076        3.133        3.142        2.972        2.683        3.018        3.225        3.195        3.064        2.513        3.109        3.029        3.208        2.931        0.477        0.000        0.000        0.000        0.000        0.000        4.000        0.000        0.000        0.000        0.000        0.000        0.000        0.000        0.000        0.000        0.000        0.000        0.000        0.000        0.000        0.000        0.000        0.000        0.000        0.000        3.000        2.000        0.000        0.000        4.000        0.000        0.000        0.000        0.000        0.000      100.000        0.000        0.000        1.920        1.963        2.759
     670.000  -264321.878    26351.927    15637.477    43042.427      102.153  -397214.162    47758.299       25.817       25.791        3.089        2.941        3.091        3.214        3.189        3.085        2.677        3.057        3.262        3.209        3.025        2.536        3.086        2.990        3.260        2.988        0.486        0.000        1.000        0.000        0.000        1.000        4.000        1.000        0.000        2.000        0.000        0.000        0.000        0.000        1.000        0.000        0.000        0.000        0.000        0.000        0.000        0.000        0.000        0.000        0.000        1.000        0.000        1.000        0.000        0.000        6.000        1.000        0.000        0.000        0.000        0.000      100.000        0.000        0.000        1.858        1.895        2.630
     680.000  -263854.093    26070.903    15798.051    43217.009       91.478  -397217.712    48186.178       25.825       25.887        3.082        3.037        3.023        3.172        3.191        3.031        2.679        2.933        3.215        3.171        3.046        2.531        3.075        3.000        3.259        2.876        0.490        0.000        1.000        0.000        0.000        1.000        4.000        1.000        0.000        0.000        0.000        0.000        0.000        0.000        5.000        0.000        0.000        0.000        0.000        0.000        0.000        0.000        0.000        0.000        0.000        1.000        4.000        1.000        0.000        1.000        8.000        1.000        0.000        0.000        0.000        0.000      100.000        0.000        0.000        2.292        2.330        3.010
     690.000  -263526.267    25948.669    15946.555    43041.071      127.203  -396221.566    47631.801       26.071       26.284        3.040        3.037        3.037        3.220        3.215        2.930        2.692        3.042        3.226        3.230        3.030        2.510        3.086        3.009        3.243        2.896        0.500        0.000        0.000        0.000        0.000        0.000        4.000        0.000        0.000        1.000        0.000        0.000        0.000        0.000        2.000        0.000        0.000        0.000        0.000        0.000        0.000        0.000        0.000        0.000        0.000        0.000        4.000        2.000        0.000        0.000        3.000        1.000        0.000        0.000        0.000        0.000      100.000        0.000        0.000        2.314        2.355        2.979
     700.000  -263562.406    26182.726    15582.559    43089.064       89.464  -396946.617    48440.397       26.235       26.112        3.108        3.055        3.056        3.154        3.143        3.021        2.707        2.981        3.197        3.236        3.086        2.585        3.065        3.017        3.206        2.959        0.464        0.000        0.000        0.000        0.000        0.000        3.000        1.000        0.000        0.000        0.000        0.000        0.000        0.000        2.000        0.000        0.000        0.000        0.000        0.000        0.000        0.000        0.000        0.000        0.000        1.000        1.000        1.000        0.000        0.000        6.000        0.000        0.000        0.000        4.494        0.000       95.506        0.000        0.000        1.978        1.996        2.732
     710.000  -264181.845    25316.080    15949.792    42945.971       80.127  -398328.545    49854.730       25.775       26.079        3.066        3.034        3.074        3.199        3.245        2.974        2.732        3.005        3.191        3.220        3.027        2.519        3.043        3.007        3.189        2.915        0.476        0.000        1.000        0.000        0.000        0.000        3.000        1.000        0.000        0.000        0.000        0.000        0.000        0.000        1.000        0.000        0.000        0.000        0.000        0.000        0.000        0.000        0.000        0.000        0.000        1.000        2.000        0.000        0.000        0.000        6.000        0.000        0.000        0.000        0.000        0.000      100.000        0.000        0.000        2.018        2.039        2.740
     720.000  -263245.454    26213.047    15441.010    43101.130       69.417  -396874.250    48804.193       25.653       25.770        3.063        3.054        3.003        3.172        3.202        2.900        2.713        2.967        3.202        3.209        3.091        2.520        3.086        2.986        3.207        2.900        0.494        0.000        0.000        0.000        0.000        1.000        4.000        0.000        0.000        0.000        0.000        0.000        0.000        0.000        2.000        0.000        0.000        0.000        0.000        0.000        0.000        0.000        0.000        0.000        0.000        1.000        6.000        1.000        0.000        1.000        6.000        0.000        0.000        0.000        0.000        0.000      100.000        0.000        0.000        2.048        2.080        2.737
     730.000  -263795.765    26261.298    15674.151    42949.472       81.223  -396518.983    47757.075       25.511       25.936        3.121        3.025        3.065        3.200        3.222        2.977        2.683        2.991        3.237        3.282        3.022        2.496        3.053        2.941        3.189        3.003        0.479        0.000        1.000        0.000        0.000        0.000        2.000        0.000        0.000        0.000        0.000        0.000        0.000        0.000        2.000        0.000        0.000        0.000        0.000        0.000        0.000        0.000        0.000        0.000        0.000        0.000        2.000        0.000        0.000        0.000        4.000        0.000        0.000        0.000        0.000        0.000      100.000        0.000        0.000        1.772        1.795        2.559
     740.000  -264141.970    26389.496    15660.758    43326.515       95.957  -397206.899    47592.203       25.455       25.623        3.043        3.024        3.029        3.279        3.198        2.942        2.693        3.054        3.220        3.238        3.021        2.481        3.120        2.987        3.230        2.971        0.497        0.000        1.000        0.000        0.000        0.000        3.000        1.000        0.000        1.000        0.000        0.000        0.000        0.000        1.000        0.000        0.000        0.000        0.000        0.000        0.000        0.000        0.000        0.000        0.000        0.000        0.000        1.000        1.000        2.000        2.000        1.000        0.000        0.000        0.000        0.000      100.000        0.000        0.000        2.028        2.004        2.791
     750.000  -263391.421    25816.167    15861.267    43349.015      100.988  -397188.277    48669.419       25.856       25.735        3.128        2.958        3.084        3.242        3.224        2.974        2.655        3.015        3.189        3.242        3.020        2.549        3.089        3.012        3.234        3.005        0.482        0.000        0.000        0.000        0.000        0.000        3.000        0.000        0.000        1.000        0.000        0.000        0.000        0.000        3.000        0.000        0.000        0.000        0.000        0.000        0.000        0.000        0.000        0.000        0.000        0.000        1.000        2.000        0.000        0.000        1.000        0.000        0.000        0.000        4.494        0.000       95.506        0.000        0.000        2.129        2.134        2.876
     760.000  -264401.661    26219.925    15667.282    43042.232       77.291  -398128.694    48720.303       25.667       25.797        3.092        3.018        3.028        3.244        3.216        3.017        2.695        2.961        3.220        3.253        3.018        2.602        3.123        3.024        3.246        3.001        0.471        0.000        0.000        0.000        0.000        0.000        3.000        0.000        0.000        1.000        0.000        0.000        0.000        0.000        1.000        0.000        0.000        0.000        0.000        0.000        0.000        0.000        0.000        0.000        0.000        0.000        0.000        2.000        0.000        1.000        4.000        1.000        0.000        0.000        0.000        0.000      100.000        0.000        0.000        2.133        2.152        2.958
     770.000  -263554.486    26897.233    15787.975    43350.169      105.157  -397452.841    47757.822       25.643       25.675        3.083        3.095        3.032        3.298        3.178        2.924        2.655        3.001        3.227        3.243        2.999        2.516        3.051        2.990        3.245        3.041        0.452        0.000        0.000        0.000        0.000        1.000        2.000        0.000        0.000        2.000        0.000        0.000        0.000        0.000        1.000        0.000        0.000        0.000        0.000        0.000        0.000        0.000        0.000        0.000        0.000        0.000        0.000        1.000        0.000        1.000        6.000        0.000        0.000        0.000        0.000        0.000      100.000        0.000        0.000        2.294        2.334        3.016
     780.000  -263013.093    25562.729    15620.265    43125.866       80.905  -396122.050    48719.193       26.070       26.164        3.095        2.997        3.049        3.158        3.228        2.990        2.726        2.984        3.176        3.258        2.975        2.546        3.043        2.967        3.255        3.031        0.468        0.000        0.000        0.000        0.000        1.000        3.000        0.000        0.000        0.000        0.000        0.000        1.000        0.000        0.000        0.000        0.000        0.000        0.000        0.000        0.000        0.000        0.000        0.000        0.000        1.000        2.000        2.000        0.000        1.000        5.000        1.000        0.000        0.000        0.000        0.000      100.000        0.000        0.000        2.425        2.463        3.072
     790.000  -263949.033    26205.984    15694.120    43216.693       77.071  -397530.979    48388.078       25.929       25.706        3.142        3.031        3.098        3.216        3.140        2.985        2.693        3.010        3.280        3.215        2.979        2.528        3.065        3.004        3.281        2.917        0.491        0.000        0.000        0.000        0.000        1.000        3.000        0.000        0.000        0.000        0.000        0.000        0.000        0.000        2.000        0.000        0.000        0.000        0.000        0.000        0.000        0.000        0.000        0.000        0.000        1.000        1.000        1.000        0.000        0.000        3.000        0.000        0.000        0.000        7.865        0.000       92.135        0.000        0.000        2.459        2.486        3.121
     800.000  -263591.047    25291.112    15667.219    43289.562      103.835  -397372.621    49429.847       25.796       25.707        3.077        3.068        3.024        3.174        3.293        2.984        2.619        3.041        3.234        3.215        3.016        2.524        3.147        3.014        3.277        2.973        0.488        0.000        0.000        0.000        0.000        0.000        1.000        0.000        0.000        0.000        0.000        0.000        0.000        0.000        0.000        0.000        0.000        0.000        0.000        0.000        0.000        0.000        0.000        0.000        0.000        1.000        2.000        2.000        0.000        1.000        3.000        0.000        0.000        0.000        0.000        0.000      100.000        0.000        0.000        2.318        2.359        3.047
     810.000  -263420.059    25303.568    15823.096    43163.930       78.509  -396990.584    49201.422       25.789       25.843        3.097        3.103        3.067        3.194        3.243        2.897        2.692        3.013        3.201        3.223        3.026        2.548        3.060        3.104        3.278        2.957        0.500        1.000        0.000        0.000        0.000        1.000        3.000        1.000        0.000        0.000        0.000        0.000        0.000        0.000        2.000        0.000        0.000        0.000        0.000        0.000        0.000        0.000        0.000        0.000        0.000        2.000        1.000        1.000        0.000        2.000        4.000        0.000        0.000        0.000        0.000        0.000      100.000        0.000        0.000        2.262        2.298        3.013
     820.000  -263759.668    25841.894    15347.239    43056.412      105.373  -395350.275    47239.689       26.088       25.978        3.016        3.049        3.047        3.202        3.214        3.010        2.706        2.983        3.246        3.247        2.999        2.479        3.080        3.023        3.211        3.007        0.487        0.000        0.000        0.000        0.000        1.000        3.000        0.000        0.000        2.000        0.000        0.000        0.000        0.000        1.000        0.000        0.000        0.000        0.000        0.000        0.000        0.000        0.000        0.000        0.000        1.000        4.000        3.000        0.000        1.000        2.000        1.000        0.000        0.000        0.000        0.000      100.000        0.000        0.000        2.160        2.187        2.844
     830.000  -263513.239    26926.351    15500.427    42938.209       91.353  -395998.364    47028.784       26.152       26.190        3.099        3.052        2.993        3.277        3.216        2.990        2.691        3.050        3.246        3.240        2.988        2.505        2.989        2.961        3.267        2.919        0.475        0.000        0.000        0.000        0.000        0.000        3.000        0.000        0.000        1.000        0.000        0.000        1.000        0.000        1.000        0.000        0.000        0.000        0.000        0.000        0.000        0.000        0.000        0.000        0.000        1.000        1.000        0.000        0.000        0.000        5.000        1.000        0.000        0.000        0.000        0.000      100.000        0.000        0.000        2.373        2.391        3.026
     840.000  -263596.829    25924.233    15852.094    43294.903       94.317  -397411.513    48649.137       25.985       26.051        3.053        3.019        3.015        3.228        3.204        3.023        2.661        3.013        3.190        3.260        3.022        2.495        3.121        3.021        3.247        2.923        0.494        0.000        1.000        0.000        0.000        0.000        4.000        0.000        0.000        1.000        0.000        0.000        0.000        0.000        1.000        0.000        0.000        0.000        0.000        0.000        0.000        0.000        0.000        0.000        0.000        1.000        0.000        0.000        0.000        1.000        4.000        1.000        0.000        0.000        0.000        0.000      100.000        0.000        0.000        1.969        2.010        2.646
     850.000  -263270.396    26208.527    15409.439    43184.698       95.619  -396391.203    48222.523       25.843       25.628        3.078        3.003        3.039        3.166        3.250        3.017        2.655        2.990        3.196        3.255        2.991        2.523        3.061        2.922        3.227        2.965        0.468        0.000        0.000        0.000        0.000        0.000        3.000        0.000        0.000        0.000        0.000        0.000        0.000        0.000        2.000        0.000        0.000        0.000        0.000        0.000        0.000        0.000        0.000        0.000        0.000        0.000        3.000        1.000        1.000        1.000        4.000        0.000        0.000        0.000        0.000        0.000      100.000        0.000        0.000        2.013        2.065        2.756
     860.000  -263881.685    26537.016    15582.581    43356.633       84.760  -396933.922    47491.247       25.917       25.894        3.080        3.077        3.027        3.149        3.193        3.000        2.661        2.979        3.227        3.241        3.052        2.535        3.027        2.961        3.248        2.994        0.500        0.000        1.000        0.000        0.000        0.000        3.000        0.000        0.000        1.000        0.000        0.000        0.000        0.000        1.000        0.000        0.000        0.000        0.000        0.000        0.000        0.000        0.000        0.000        0.000        1.000        1.000        1.000        0.000        1.000        5.000        0.000        0.000        0.000        4.494        0.000       95.506        0.000        0.000        1.785        1.820        2.680
     870.000  -263740.740    25270.869    15924.099    43437.536      104.331  -398824.639    50347.063       25.905       25.983        3.122        2.961        3.039        3.104        3.219        3.021        2.672        3.010        3.213        3.249        3.006        2.550        3.045        2.873        3.242        2.883        0.483        0.000        0.000        0.000        0.000        0.000        3.000        0.000        0.000        1.000        0.000        0.000        0.000        1.000        0.000        0.000        0.000        0.000        0.000        0.000        0.000        0.000        0.000        0.000        0.000        2.000        0.000        2.000        0.000        0.000        3.000        0.000        0.000        0.000        0.000        0.000      100.000        0.000        0.000        1.866        1.898        2.665
     880.000  -262955.964    26631.713    15822.567    43303.178       91.251  -396061.938    47257.266       26.004       25.952        3.091        3.032        3.065        3.170        3.201        3.106        2.666        2.968        3.208        3.304        3.062        2.591        3.092        2.989        3.231        2.897        0.465        0.000        0.000        0.000        0.000        0.000        2.000        0.000        0.000        1.000        0.000        0.000        1.000        0.000        2.000        2.000        0.000        0.000        0.000        0.000        0.000        0.000        0.000        0.000        0.000        1.000        1.000        2.000        1.000        0.000       10.000        0.000        0.000        0.000        4.494        0.000       95.506        0.000        0.000        1.932        1.976        2.745
     890.000  -264330.718    25946.539    15818.477    43172.887       88.723  -397168.716    47811.371       26.238       25.944        3.063        3.017        2.981        3.221        3.227        2.967        2.654        2.976        3.206        3.167        3.033        2.547        3.092        2.946        3.264        2.995        0.477        1.000        0.000        0.000        0.000        0.000        3.000        0.000        0.000        1.000        0.000        0.000        0.000        0.000        1.000        0.000        0.000        0.000        0.000        0.000        0.000        0.000        0.000        0.000        0.000        1.000        3.000        2.000        0.000        0.000        0.000        1.000        0.000        0.000        0.000        0.000      100.000        0.000        0.000        2.268        2.297        3.027
     900.000  -264202.347    25787.562    15770.851    43197.047       98.221  -397341.949    48285.921       26.212       26.040        3.077        3.006        3.054        3.176        3.168        2.995        2.626        3.037        3.236        3.213        3.008        2.531        3.127        2.942        3.302        3.079        0.497        1.000        0.000        0.000        0.000        1.000        4.000        0.000        0.000        0.000        0.000        0.000        0.000        0.000        2.000        0.000        0.000        0.000        0.000        0.000        0.000        0.000        0.000        0.000        0.000        0.000        0.000        2.000        0.000        0.000        5.000        1.000        0.000        0.000        0.000        0.000      100.000        0.000        0.000        1.930        1.955        2.681
     910.000  -264167.346    27029.791    15563.767    43111.431       98.586  -397136.719    47165.798       26.072       25.916        3.088        2.939        3.040        3.154        3.243        2.927        2.677        2.939        3.255        3.240        3.009        2.548        3.122        2.935        3.280        3.031        0.477        0.000        0.000        0.000        0.000        0.000        2.000        0.000        0.000        3.000        0.000        0.000        0.000        0.000        3.000        0.000        0.000        0.000        0.000        0.000        0.000        0.000        0.000        0.000        0.000        1.000        1.000        4.000        0.000        0.000       10.000        0.000        0.000        0.000        0.000        0.000      100.000        0.000        0.000        2.217        2.254        2.952
     920.000  -263867.615    25789.765    15817.362    43120.216       83.347  -396521.464    47843.159       26.140       25.948        3.115        2.989        3.094        3.217        3.214        3.091        2.709        3.041        3.214        3.267        2.964        2.619        3.101        2.957        3.276        2.980        0.488        0.000        0.000        0.000        0.000        0.000        3.000        0.000        0.000        1.000        0.000        0.000        0.000        0.000        1.000        0.000        0.000        0.000        0.000        0.000        0.000        0.000        0.000        0.000        0.000        2.000        1.000        1.000        1.000        2.000        3.000        1.000        0.000        0.000        0.000        0.000      100.000        0.000        0.000        1.996        2.028        2.740
     930.000  -264191.536    26704.384    15782.634    43370.732       87.515  -397501.187    47364.386       26.310       26.023        3.088        2.911        3.074        3.245        3.215        3.005        2.728        2.917        3.217        3.213        3.054        2.519        3.132        2.925        3.275        3.003        0.489        0.000        0.000        0.000        0.000        0.000        3.000        1.000        0.000        1.000        0.000        0.000        0.000        0.000        2.000        0.000        0.000        0.000        0.000        0.000        0.000        0.000        0.000        0.000        0.000        0.000        3.000        2.000        1.000        0.000       11.000        1.000        0.000        0.000        0.000        0.000      100.000        0.000        0.000        1.778        1.811        2.435
     940.000  -263755.025    27165.521    15612.013    43126.985       98.955  -396533.627    46775.128       26.129       25.809        3.074        2.910        3.060        3.215        3.166        3.015        2.720        3.034        3.224        3.235        3.032        2.586        3.044        2.968        3.266        2.971        0.499        0.000        0.000        0.000        0.000        1.000        3.000        0.000        0.000        0.000        0.000        0.000        1.000        0.000        2.000        0.000        0.000        0.000        0.000        0.000        0.000        0.000        0.000        0.000        0.000        1.000        0.000        1.000        0.000        0.000        6.000        0.000        0.000        0.000        0.000        0.000      100.000        0.000        0.000        1.956        1.998        2.528
     950.000  -263326.279    25728.981    15851.011    43127.421       78.117  -396688.223    48576.415       25.868       25.625        3.094        2.946        3.061        3.216        3.200        2.889        2.689        3.052        3.227        3.286        3.074        2.543        3.078        2.973        3.273        2.899        0.482        1.000        1.000        0.000        0.000        1.000        2.000        0.000        0.000        2.000        0.000        0.000        0.000        0.000        2.000        0.000        0.000        0.000        0.000        0.000        0.000        0.000        0.000        0.000        0.000        2.000        2.000        2.000        0.000        0.000        6.000        0.000        0.000        0.000        0.000        0.000      100.000        0.000        0.000        1.719        1.772        2.454
     960.000  -263413.739    26111.752    15824.756    43236.997      105.367  -396864.618    48172.008       25.787       25.889        3.064        2.948        3.054        3.153        3.218        3.096        2.627        2.994        3.254        3.240        3.048        2.509        3.013        3.045        3.232        2.924        0.468        0.000        0.000        0.000        0.000        0.000        2.000        0.000        0.000        1.000        0.000        0.000        0.000        0.000        1.000        1.000        0.000        0.000        0.000        0.000        0.000        0.000        0.000        0.000        0.000        0.000        7.000        1.000        0.000        3.000        4.000        0.000        0.000        0.000        0.000        0.000      100.000        0.000        0.000        1.824        1.872        2.647
     970.000  -263664.787    25518.864    15597.418    43421.838       89.999  -396980.885    48687.978       25.911       25.689        3.098        3.056        3.054        3.227        3.193        2.947        2.637        2.935        3.237        3.226        3.045        2.517        3.007        2.988        3.241        2.965        0.512        0.000        0.000        0.000        0.000        0.000        4.000        0.000        0.000        0.000        0.000        0.000        1.000        0.000        2.000        0.000        0.000        0.000        0.000        0.000        0.000        0.000        0.000        0.000        0.000        2.000        3.000        4.000        0.000        3.000        7.000        0.000        0.000        0.000        0.000        0.000      100.000        0.000        0.000        2.139        2.158        2.903
     980.000  -263815.453    26281.492    15748.216    42914.494       94.714  -398177.153    49322.784       25.721       25.825        3.102        3.088        3.007        3.280        3.237        3.052        2.681        2.937        3.242        3.247        3.035        2.545        3.121        3.038        3.232        2.995        0.471        1.000        0.000        0.000        0.000        0.000        4.000        0.000        0.000        1.000        0.000        0.000        1.000        0.000        1.000        0.000        0.000        0.000        0.000        0.000        0.000        0.000        0.000        0.000        0.000        3.000        3.000        1.000        0.000        2.000        5.000        0.000        0.000        0.000        0.000        0.000      100.000        0.000        0.000        1.851        1.838        2.773
     990.000  -263193.983    25675.552    15691.411    43067.515       94.696  -396051.578    48328.421       25.602       25.734        3.095        3.076        3.043        3.206        3.279        2.968        2.641        3.050        3.242        3.285        3.035        2.488        3.072        2.981        3.253        3.006        0.510        0.000        0.000        0.000        0.000        0.000        2.000        0.000        0.000        0.000        0.000        0.000        1.000        0.000        0.000        0.000        0.000        0.000        0.000        0.000        0.000        0.000        0.000        0.000        0.000        0.000        2.000        1.000        0.000        1.000        3.000        0.000        0.000        0.000        0.000        0.000      100.000        0.000        0.000        2.045        2.049        2.840
    1000.000  -264178.928    26020.030    15722.206    43107.704       80.808  -397415.568    48305.892       25.793       26.165        3.088        3.006        3.038        3.182        3.301        3.000        2.676        2.983        3.213        3.245        3.011        2.503        3.094        3.033        3.250        2.981        0.482        0.000        1.000        0.000        0.000        1.000        3.000        1.000        0.000        0.000        0.000        0.000        0.000        0.000        0.000        1.000        0.000        0.000        0.000        0.000        0.000        0.000        0.000        0.000        0.000        1.000        3.000        2.000        0.000        1.000        4.000        0.000        0.000        0.000        0.000        0.000      100.000        0.000        0.000        1.969        1.959        2.779
     Average  -265657.004    26648.658    15744.392    43182.784       89.285  -400380.287    49058.165       25.886       26.000        3.059        3.004        3.043        3.201        3.195        3.007        2.646        3.024        3.224        3.234        3.035        2.536        3.081        2.986        3.205        2.965        0.484        0.208        0.158        0.287        0.089        0.297        3.584        0.119        0.000        0.554        0.089        0.000        0.149        0.069        1.208        0.158        0.000        0.000        0.000        0.000        0.000        0.000        0.000        0.000        0.000        0.782        1.416        1.168        0.228        0.604        4.485        0.485        0.000        0.000        0.612        0.000       99.388        0.000        0.000        1.982        1.995        2.603

