____Time[ps] Energy[ kJ/mol ]_____Bond _______Angle ____Dihedral ___Planarity _____Coulomb _________VdW _Your result _Your result _Your result _Your result _Your result _Your result _Your result _Your result _Your result _Your result _Your result _Your result _Your result _Your result _Your result _Your result _Your result _Your result _Your result _Your result _Your result _Your result _Your result _Your result _Your result _Your result _Your result _Your result _Your result _Your result _Your result _Your result _Your result _Your result _Your result _Your result _Your result _Your result _Your result _Your result _Your result _Your result _Your result _Your result _Your result _Your result _Your result _Your result _Your result _Your result _Your result _Your result _Your result _Your result _Your result _Your result _Your result _RMSDs[A]:CA ____Backbone __HeavyAtoms
       0.000  -391307.972     9155.386     4975.213    43354.964       12.592  -525551.867    76745.741       25.457       25.407        2.950        3.018        3.071        3.150        3.201        3.123        2.654        3.111        3.227        3.192        2.988        2.647        3.091        2.883        3.081        2.991        0.489        1.000        2.000        0.000        1.000        1.000        5.000        0.000        0.000        0.000        0.000        0.000        1.000        0.000        1.000        0.000        0.000        0.000        0.000        0.000        0.000        0.000        0.000        0.000        0.000        1.000        4.000        0.000        1.000        3.000        7.000        0.000        0.000        0.000        0.000        0.000      100.000        0.000        0.000        0.482        0.515        0.562
      10.000  -294634.260    35056.642    16992.942    43154.045       64.723  -446950.010    57047.399       26.136       25.799        3.061        3.029        3.176        3.210        3.243        3.106        2.681        3.053        3.283        3.249        3.012        2.632        2.949        2.921        3.102        3.007        0.494        2.000        1.000        0.000        1.000        2.000        4.000        0.000        0.000        0.000        1.000        0.000        2.000        0.000        2.000        0.000        0.000        0.000        0.000        0.000        0.000        0.000        0.000        0.000        0.000        1.000        6.000        0.000        2.000        1.000        3.000        0.000        0.000        0.000        0.000        0.000      100.000        0.000        0.000        0.997        1.025        1.300
      20.000  -294167.344    32922.122    17314.968    43275.410       91.726  -445808.947    58037.377       26.042       25.706        2.946        3.083        3.088        3.127        3.156        3.135        2.730        2.973        3.211        3.262        2.961        2.529        3.011        2.804        3.077        3.045        0.486        1.000        0.000        0.000        1.000        2.000        3.000        0.000        0.000        0.000        1.000        0.000        2.000        0.000        2.000        0.000        0.000        0.000        0.000        0.000        1.000        0.000        0.000        0.000        0.000        1.000        1.000        0.000        3.000        1.000        7.000        0.000        0.000        0.000        0.000        0.000      100.000        0.000        0.000        1.179        1.205        1.498
      30.000  -293840.326    33229.846    17580.462    43324.437       92.328  -444196.215    56128.816       26.049       25.938        3.011        3.037        3.091        3.131        3.222        3.088        2.689        2.979        3.195        3.233        3.009        2.515        2.987        2.856        3.174        2.987        0.475        1.000        1.000        0.000        1.000        2.000        3.000        0.000        0.000        0.000        0.000        0.000        2.000        0.000        0.000        0.000        0.000        0.000        0.000        0.000        0.000        0.000        0.000        0.000        0.000        0.000        3.000        0.000        2.000        1.000        5.000        0.000        0.000        0.000        0.000        0.000      100.000        0.000        0.000        1.364        1.370        1.599
      40.000  -293017.612    31288.345    17465.888    43243.699      112.914  -442092.146    56963.688       25.936       25.876        3.032        2.961        3.115        3.067        3.182        3.089        2.701        2.933        3.265        3.238        2.986        2.514        3.009        2.918        3.089        2.959        0.477        2.000        1.000        0.000        1.000        1.000        4.000        0.000        0.000        0.000        0.000        0.000        0.000        0.000        1.000        0.000        0.000        0.000        0.000        0.000        0.000        0.000        0.000        0.000        0.000        1.000        6.000        0.000        2.000        0.000        2.000        0.000        0.000        0.000        0.000        0.000      100.000        0.000        0.000        1.669        1.659        1.991
      50.000  -292460.000    30716.845    17663.744    43143.434       94.083  -441722.252    57644.147       26.046       25.945        2.946        2.947        3.065        3.197        3.229        3.069        2.721        2.967        3.240        3.322        3.042        2.522        3.007        2.902        3.196        2.966        0.474        2.000        0.000        0.000        1.000        2.000        3.000        0.000        0.000        0.000        0.000        0.000        2.000        0.000        2.000        0.000        0.000        0.000        0.000        0.000        0.000        0.000        0.000        0.000        0.000        1.000        5.000        0.000        2.000        1.000        6.000        0.000        0.000        0.000        0.000        0.000      100.000        0.000        0.000        1.764        1.778        2.048
      60.000  -292524.173    31004.100    18039.284    43018.976       71.190  -442555.929    57898.206       26.102       26.068        3.000        2.877        3.066        3.177        3.143        3.128        2.707        2.989        3.217        3.241        3.030        2.544        3.016        2.903        3.120        3.006        0.477        1.000        2.000        0.000        1.000        2.000        1.000        0.000        0.000        0.000        0.000        0.000        1.000        0.000        1.000        0.000        0.000        0.000        0.000        0.000        0.000        0.000        0.000        0.000        0.000        2.000        2.000        0.000        2.000        1.000        2.000        0.000        0.000        0.000        0.000        0.000      100.000        0.000        0.000        2.083        2.097        2.354
      70.000  -292637.139    32131.192    17745.917    43193.063       78.978  -440314.629    54528.340       25.890       25.720        3.028        2.926        3.084        3.074        3.181        3.042        2.704        2.897        3.243        3.287        2.986        2.520        3.029        2.923        3.145        2.992        0.494        1.000        1.000        0.000        1.000        2.000        2.000        0.000        0.000        1.000        0.000        0.000        1.000        0.000        1.000        0.000        0.000        0.000        0.000        0.000        0.000        0.000        0.000        0.000        0.000        1.000        2.000        0.000        2.000        1.000        3.000        0.000        0.000        0.000        0.000        0.000      100.000        0.000        0.000        2.290        2.314        2.503
      80.000  -292482.475    30368.304    17894.154    43280.809       79.486  -441058.164    56952.936       25.678       25.950        3.046        2.951        3.108        3.113        3.155        3.097        2.721        2.999        3.219        3.218        2.990        2.555        3.062        2.877        3.109        2.964        0.483        1.000        1.000        0.000        1.000        2.000        2.000        0.000        0.000        1.000        1.000        0.000        0.000        0.000        1.000        0.000        0.000        0.000        0.000        0.000        1.000        0.000        0.000        0.000        0.000        0.000        5.000        0.000        2.000        1.000        5.000        0.000        0.000        0.000        0.000        0.000      100.000        0.000        0.000        2.014        2.047        2.185
      90.000  -292049.237    31544.009    17547.085    42988.878       91.239  -438757.390    54536.942       25.935       26.142        3.072        2.914        3.103        3.137        3.191        3.085        2.719        2.998        3.252        3.228        3.060        2.556        3.065        2.995        3.146        2.988        0.484        1.000        0.000        0.000        1.000        2.000        2.000        0.000        0.000        1.000        0.000        0.000        1.000        0.000        2.000        0.000        0.000        0.000        0.000        0.000        0.000        0.000        0.000        0.000        0.000        1.000        5.000        0.000        3.000        0.000        2.000        0.000        0.000        0.000        0.000        0.000      100.000        0.000        0.000        1.842        1.857        2.121
     100.000  -292993.001    30911.877    17351.297    43117.102      106.139  -440170.679    55691.262       25.741       26.039        3.074        2.949        3.100        3.148        3.242        3.007        2.712        3.029        3.284        3.226        2.952        2.541        3.085        2.949        3.108        3.034        0.487        1.000        2.000        0.000        1.000        2.000        3.000        0.000        0.000        2.000        2.000        0.000        1.000        0.000        2.000        0.000        0.000        0.000        0.000        0.000        1.000        0.000        0.000        0.000        0.000        2.000        5.000        0.000        2.000        1.000        4.000        0.000        0.000        0.000        0.000        0.000      100.000        0.000        0.000        1.383        1.396        1.771
     110.000  -291712.477    30134.410    17385.487    43084.225       99.186  -440100.896    57685.111       25.791       26.252        3.017        2.950        3.091        3.172        3.169        3.130        2.741        3.052        3.297        3.201        3.017        2.527        2.983        2.966        3.165        3.027        0.472        2.000        1.000        0.000        1.000        1.000        2.000        0.000        0.000        1.000        0.000        0.000        0.000        0.000        1.000        0.000        0.000        0.000        0.000        0.000        0.000        0.000        0.000        0.000        0.000        1.000        7.000        0.000        2.000        1.000        0.000        0.000        0.000        0.000        0.000        0.000      100.000        0.000        0.000        1.691        1.716        2.052
     120.000  -292160.682    29962.273    17370.791    43074.648       81.755  -438793.838    56143.689       25.843       25.829        3.055        2.923        3.094        3.145        3.241        3.194        2.715        3.075        3.249        3.227        2.987        2.562        3.041        2.925        3.197        3.029        0.495        1.000        0.000        0.000        1.000        1.000        3.000        0.000        0.000        1.000        0.000        0.000        0.000        0.000        0.000        0.000        0.000        0.000        0.000        0.000        0.000        0.000        0.000        0.000        0.000        1.000        3.000        0.000        2.000        0.000        2.000        0.000        0.000        0.000        0.000        0.000      100.000        0.000        0.000        1.413        1.424        1.840
     130.000  -291426.238    30709.363    17936.873    43288.209       95.342  -438610.119    55154.095       25.964       25.798        3.045        2.941        3.055        3.177        3.204        3.146        2.747        3.030        3.243        3.160        2.957        2.555        3.058        2.994        3.167        2.990        0.473        2.000        0.000        0.000        1.000        1.000        2.000        0.000        0.000        1.000        0.000        0.000        2.000        0.000        0.000        0.000        0.000        0.000        0.000        0.000        0.000        0.000        0.000        0.000        0.000        1.000        5.000        0.000        5.000        1.000        2.000        0.000        0.000        0.000        0.000        0.000      100.000        0.000        0.000        1.249        1.277        1.826
     140.000  -291202.222    29856.383    17420.511    43407.600       76.421  -436646.527    54683.390       25.745       25.796        2.974        2.987        3.079        3.136        3.205        3.066        2.665        3.044        3.207        3.237        2.965        2.519        3.058        3.000        3.153        3.050        0.476        2.000        0.000        0.000        1.000        2.000        2.000        0.000        0.000        0.000        0.000        0.000        1.000        0.000        2.000        0.000        0.000        0.000        0.000        0.000        0.000        0.000        0.000        0.000        0.000        1.000        3.000        0.000        2.000        0.000        1.000        0.000        0.000        0.000        4.494        0.000       95.506        0.000        0.000        1.118        1.141        1.706
     150.000  -290764.645    29995.127    17429.075    43235.690       91.427  -436371.379    54855.416       25.876       25.763        3.023        3.023        3.134        3.143        3.203        3.103        2.723        3.052        3.241        3.191        2.959        2.507        3.071        2.982        3.186        3.044        0.500        2.000        1.000        0.000        1.000        2.000        2.000        0.000        0.000        0.000        1.000        0.000        0.000        0.000        1.000        0.000        0.000        0.000        0.000        0.000        0.000        0.000        0.000        0.000        0.000        0.000        6.000        0.000        3.000        0.000        1.000        0.000        0.000        0.000        0.000        0.000      100.000        0.000        0.000        1.642        1.673        2.201
     160.000  -290877.004    29359.072    17546.975    43346.322       79.507  -435961.964    54753.084       25.668       25.772        3.002        3.012        3.103        3.087        3.185        3.052        2.695        2.992        3.207        3.164        2.997        2.532        2.991        3.020        3.174        3.003        0.500        2.000        0.000        0.000        1.000        2.000        2.000        0.000        0.000        1.000        0.000        0.000        0.000        0.000        1.000        0.000        0.000        0.000        0.000        0.000        0.000        0.000        0.000        0.000        0.000        0.000        1.000        0.000        4.000        0.000        2.000        0.000        0.000        0.000        0.000        0.000      100.000        0.000        0.000        2.177        2.218        2.669
     170.000  -290446.311    30153.199    17132.340    43083.520       90.362  -436538.937    55633.205       26.072       26.042        3.029        2.932        3.072        3.106        3.189        3.085        2.658        2.968        3.189        3.220        2.982        2.477        3.047        2.977        3.156        3.063        0.474        2.000        0.000        0.000        1.000        2.000        2.000        0.000        0.000        0.000        1.000        0.000        0.000        0.000        2.000        0.000        0.000        0.000        0.000        0.000        0.000        0.000        0.000        0.000        0.000        0.000        2.000        0.000        4.000        0.000        4.000        0.000        0.000        0.000        0.000        0.000      100.000        0.000        0.000        1.881        1.922        2.448
     180.000  -290142.460    29141.804    17362.077    43403.770       86.298  -435480.973    55344.563       25.894       25.817        3.023        2.958        3.112        3.134        3.205        3.138        2.715        3.018        3.231        3.148        2.993        2.506        3.058        3.086        3.137        3.007        0.480        2.000        0.000        0.000        1.000        1.000        2.000        0.000        0.000        0.000        0.000        0.000        0.000        0.000        1.000        0.000        0.000        0.000        0.000        0.000        0.000        0.000        0.000        0.000        0.000        1.000        2.000        0.000        2.000        1.000        5.000        0.000        0.000        0.000        0.000        0.000      100.000        0.000        0.000        1.663        1.691        2.434
     190.000  -289841.015    30664.129    17497.317    43199.969       82.617  -435694.269    54409.221       25.928       25.967        3.021        2.934        3.132        3.151        3.213        3.107        2.697        3.008        3.175        3.193        2.985        2.543        3.110        3.060        3.128        3.046        0.493        2.000        1.000        0.000        1.000        2.000        2.000        0.000        0.000        0.000        0.000        0.000        0.000        0.000        2.000        0.000        0.000        0.000        0.000        0.000        0.000        0.000        0.000        0.000        0.000        0.000        5.000        0.000        2.000        0.000        3.000        0.000        0.000        0.000        0.000        0.000      100.000        0.000        0.000        1.263        1.296        2.127
     200.000  -289773.907    29852.075    17161.730    43037.697      101.919  -431756.329    51829.002       26.131       25.821        3.076        2.978        3.076        3.155        3.250        3.052        2.722        3.024        3.220        3.185        3.004        2.574        3.044        3.012        3.215        3.020        0.481        2.000        0.000        0.000        1.000        2.000        2.000        0.000        0.000        1.000        2.000        0.000        0.000        1.000        0.000        0.000        0.000        0.000        0.000        0.000        0.000        0.000        0.000        0.000        0.000        0.000        4.000        0.000        0.000        1.000        2.000        0.000        0.000        0.000        0.000        0.000      100.000        0.000        0.000        1.326        1.340        2.256
     210.000  -290115.129    29137.766    17271.122    43249.536       99.629  -434196.173    54322.991       26.136       25.799        3.115        3.004        3.117        3.181        3.238        3.048        2.694        3.007        3.222        3.163        2.949        2.540        3.067        3.044        3.234        3.044        0.478        2.000        0.000        0.000        1.000        2.000        2.000        0.000        0.000        0.000        0.000        0.000        0.000        1.000        0.000        0.000        0.000        0.000        0.000        0.000        0.000        0.000        0.000        0.000        0.000        0.000        4.000        0.000        3.000        0.000        5.000        0.000        0.000        0.000        0.000        0.000      100.000        0.000        0.000        1.635        1.648        2.451
     220.000  -289975.541    29652.609    17425.871    43099.906       81.613  -432904.700    52669.160       26.127       25.893        3.033        2.944        3.122        3.157        3.202        3.049        2.712        3.075        3.218        3.186        3.006        2.524        3.032        2.997        3.190        3.033        0.483        2.000        1.000        0.000        1.000        1.000        2.000        0.000        0.000        0.000        1.000        0.000        0.000        0.000        0.000        0.000        0.000        0.000        0.000        0.000        0.000        0.000        0.000        0.000        0.000        0.000        5.000        0.000        3.000        0.000        5.000        0.000        0.000        0.000        0.000        0.000      100.000        0.000        0.000        1.467        1.502        2.427
     230.000  -289556.357    28354.583    17278.987    43126.069      102.400  -432986.842    54568.445       26.014       25.725        3.135        2.936        3.070        3.139        3.198        3.085        2.697        2.956        3.210        3.218        3.039        2.525        3.037        3.064        3.184        3.044        0.471        1.000        1.000        0.000        1.000        2.000        2.000        0.000        0.000        0.000        0.000        0.000        1.000        0.000        0.000        0.000        0.000        0.000        0.000        0.000        0.000        0.000        0.000        0.000        0.000        2.000        4.000        0.000        3.000        0.000        2.000        0.000        0.000        0.000        0.000        0.000      100.000        0.000        0.000        1.484        1.508        2.595
     240.000  -288631.379    29825.506    17202.465    43242.583       98.748  -433308.148    54307.466       26.146       25.863        3.045        2.856        3.061        3.129        3.151        3.083        2.684        2.989        3.264        3.179        2.999        2.491        3.006        2.943        3.229        3.030        0.497        1.000        0.000        0.000        1.000        1.000        1.000        0.000        0.000        0.000        0.000        0.000        0.000        1.000        0.000        0.000        0.000        0.000        0.000        0.000        0.000        0.000        0.000        0.000        0.000        3.000        9.000        0.000        2.000        0.000        3.000        0.000        0.000        0.000        0.000        0.000      100.000        0.000        0.000        1.577        1.602        2.633
     250.000  -289142.375    29128.486    17588.159    42969.114       98.036  -433291.061    54364.890       26.326       26.210        3.074        2.937        3.014        3.163        3.217        3.120        2.732        2.988        3.162        3.234        3.075        2.557        3.060        2.936        3.201        3.024        0.503        0.000        1.000        0.000        1.000        1.000        2.000        0.000        0.000        0.000        0.000        0.000        0.000        1.000        0.000        0.000        0.000        0.000        0.000        0.000        0.000        0.000        0.000        0.000        0.000        1.000        4.000        0.000        1.000        1.000        4.000        0.000        0.000        0.000        0.000        0.000      100.000        0.000        0.000        1.806        1.818        2.799
     260.000  -288974.811    29243.445    17402.525    43325.473       70.425  -433066.277    54049.598       25.937       26.028        3.069        2.888        3.046        3.122        3.148        3.065        2.681        2.993        3.127        3.241        3.094        2.522        3.090        2.898        3.219        3.040        0.480        1.000        0.000        0.000        1.000        1.000        3.000        0.000        0.000        1.000        0.000        0.000        0.000        0.000        0.000        0.000        0.000        0.000        0.000        0.000        0.000        0.000        0.000        0.000        0.000        0.000        6.000        0.000        2.000        0.000        6.000        0.000        0.000        0.000        0.000        0.000      100.000        0.000        0.000        1.493        1.497        2.678
     270.000  -289022.798    29002.333    17156.451    43116.965       92.522  -432833.621    54442.552       25.910       25.728        3.031        2.999        3.131        3.102        3.118        3.122        2.685        2.998        3.246        3.264        3.011        2.528        3.009        2.864        3.210        3.030        0.503        0.000        0.000        0.000        1.000        1.000        2.000        0.000        0.000        0.000        2.000        0.000        1.000        0.000        2.000        0.000        0.000        0.000        0.000        0.000        0.000        0.000        0.000        0.000        0.000        3.000        3.000        0.000        3.000        0.000        5.000        0.000        0.000        0.000        0.000        0.000      100.000        0.000        0.000        1.381        1.375        2.686
     280.000  -288815.362    29657.863    16903.531    43243.463       92.338  -432601.549    53888.992       26.146       26.082        3.056        2.910        3.038        3.113        3.166        3.058        2.701        2.940        3.284        3.252        3.048        2.559        2.954        2.952        3.218        2.960        0.499        1.000        1.000        0.000        1.000        2.000        2.000        0.000        0.000        0.000        0.000        0.000        0.000        0.000        0.000        0.000        0.000        0.000        0.000        0.000        0.000        0.000        0.000        0.000        0.000        1.000        4.000        0.000        1.000        0.000        2.000        0.000        0.000        0.000        0.000        0.000      100.000        0.000        0.000        1.636        1.625        2.727
     290.000  -288217.709    29475.685    16618.804    43167.233       86.543  -431276.892    53710.918       26.095       26.006        3.131        2.924        3.095        3.220        3.147        3.050        2.714        2.940        3.253        3.234        3.022        2.513        3.005        2.994        3.212        3.046        0.475        1.000        1.000        0.000        1.000        2.000        2.000        0.000        0.000        0.000        0.000        0.000        0.000        0.000        0.000        0.000        0.000        0.000        0.000        0.000        0.000        0.000        0.000        0.000        0.000        0.000        3.000        0.000        1.000        0.000        3.000        0.000        0.000        0.000        0.000        0.000      100.000        0.000        0.000        1.446        1.446        2.676
     300.000  -288862.372    28836.112    17102.532    43193.498       84.277  -432819.236    54740.445       26.147       25.842        3.037        2.985        3.092        3.245        3.092        3.073        2.674        2.985        3.283        3.194        3.053        2.515        2.989        2.971        3.197        3.063        0.506        2.000        2.000        0.000        1.000        2.000        1.000        0.000        0.000        0.000        0.000        0.000        0.000        0.000        1.000        0.000        0.000        0.000        0.000        0.000        0.000        0.000        0.000        0.000        0.000        1.000        4.000        0.000        1.000        1.000        4.000        0.000        0.000        0.000        0.000        0.000      100.000        0.000        0.000        1.366        1.369        2.618
     310.000  -289089.184    29746.645    17161.578    43094.808       99.716  -432149.291    52957.361       26.220       25.888        3.054        2.977        3.064        3.180        3.200        3.112        2.685        3.015        3.306        3.183        3.015        2.496        3.066        2.934        3.175        2.992        0.488        2.000        2.000        0.000        0.000        2.000        2.000        0.000        0.000        0.000        1.000        0.000        0.000        1.000        0.000        0.000        0.000        0.000        0.000        0.000        0.000        0.000        0.000        0.000        0.000        0.000        4.000        0.000        0.000        0.000        5.000        0.000        0.000        0.000        0.000        0.000      100.000        0.000        0.000        1.604        1.621        2.806
     320.000  -288719.209    28593.463    16877.950    43344.553       76.181  -430576.602    52965.245       25.940       25.602        3.094        2.930        3.117        3.088        3.188        3.072        2.671        3.012        3.278        3.137        3.072        2.560        3.073        2.928        3.221        3.012        0.482        1.000        2.000        0.000        1.000        1.000        2.000        0.000        0.000        1.000        0.000        0.000        0.000        0.000        0.000        0.000        0.000        0.000        0.000        0.000        0.000        0.000        0.000        0.000        0.000        1.000        6.000        0.000        1.000        0.000        2.000        0.000        0.000        0.000        0.000        0.000      100.000        0.000        0.000        1.639        1.673        2.773
     330.000  -287850.904    28513.789    16817.436    43204.400       85.854  -430680.414    54208.031       26.094       25.763        3.163        3.026        3.051        3.194        3.240        3.100        2.702        2.985        3.226        3.193        3.027        2.492        3.035        2.882        3.260        3.016        0.486        1.000        3.000        0.000        1.000        1.000        2.000        0.000        0.000        1.000        0.000        0.000        0.000        0.000        1.000        0.000        0.000        0.000        0.000        0.000        0.000        0.000        0.000        0.000        0.000        2.000        3.000        0.000        2.000        0.000        2.000        0.000        0.000        0.000        0.000        0.000      100.000        0.000        0.000        2.072        2.113        2.922
     340.000  -288710.672    28742.541    16594.192    43103.508       79.294  -430286.333    53056.124       26.244       25.912        3.028        2.923        3.076        3.184        3.210        3.153        2.727        2.980        3.178        3.196        3.052        2.513        3.073        2.867        3.195        3.062        0.477        1.000        2.000        0.000        1.000        1.000        2.000        0.000        0.000        0.000        1.000        0.000        0.000        0.000        0.000        0.000        0.000        0.000        0.000        0.000        0.000        0.000        0.000        0.000        0.000        1.000        4.000        0.000        1.000        1.000        5.000        0.000        0.000        0.000        0.000        0.000      100.000        0.000        0.000        1.973        2.013        2.802
     350.000  -288920.193    28438.575    16901.995    43331.910       93.121  -432579.083    54893.290       26.425       25.974        3.014        3.034        3.047        3.170        3.161        3.052        2.720        2.949        3.283        3.189        3.046        2.502        3.067        2.868        3.163        2.955        0.502        0.000        2.000        0.000        1.000        2.000        2.000        0.000        0.000        0.000        1.000        0.000        1.000        1.000        0.000        0.000        0.000        0.000        0.000        0.000        0.000        0.000        0.000        0.000        0.000        0.000        1.000        0.000        2.000        1.000        6.000        0.000        0.000        0.000        4.494        0.000       95.506        0.000        0.000        1.909        1.929        2.759
     360.000  -288925.319    28579.971    17007.007    43189.258       96.867  -431042.394    53243.973       26.150       25.874        3.054        2.943        3.045        3.242        3.201        3.107        2.698        2.981        3.290        3.168        3.113        2.510        3.038        2.917        3.170        2.951        0.498        0.000        0.000        0.000        1.000        1.000        1.000        0.000        0.000        0.000        3.000        0.000        0.000        0.000        1.000        0.000        0.000        0.000        0.000        0.000        0.000        0.000        0.000        0.000        0.000        2.000        3.000        0.000        0.000        0.000        4.000        0.000        0.000        0.000        4.494        0.000       95.506        0.000        0.000        1.707        1.729        2.672
     370.000  -288628.044    27978.247    16805.370    43152.405      100.301  -430759.448    54095.080       25.961       26.119        3.019        2.940        3.105        3.139        3.169        3.106        2.662        3.052        3.220        3.214        3.055        2.510        3.036        2.907        3.225        3.021        0.489        0.000        0.000        0.000        1.000        2.000        1.000        0.000        0.000        0.000        1.000        0.000        0.000        0.000        0.000        0.000        0.000        0.000        0.000        0.000        0.000        0.000        0.000        0.000        0.000        1.000        3.000        0.000        3.000        1.000        4.000        0.000        0.000        0.000        0.000        0.000      100.000        0.000        0.000        1.633        1.649        2.701
     380.000  -288179.212    28898.931    16691.078    43022.220      102.178  -430461.393    53567.774       26.235       26.097        3.005        3.024        3.070        3.127        3.210        3.065        2.692        2.961        3.278        3.226        3.124        2.568        3.016        2.935        3.187        2.962        0.467        0.000        2.000        0.000        1.000        2.000        2.000        0.000        0.000        0.000        2.000        0.000        0.000        0.000        0.000        0.000        0.000        0.000        0.000        0.000        0.000        0.000        0.000        0.000        0.000        2.000        4.000        0.000        1.000        1.000        2.000        0.000        0.000        0.000        4.494        0.000       95.506        0.000        0.000        1.964        1.995        2.713
     390.000  -287690.202    29257.153    16729.642    43002.049       94.297  -428397.489    51624.147       26.297       26.314        3.114        2.931        3.058        3.213        3.161        3.074        2.701        2.903        3.205        3.262        3.066        2.493        3.007        2.960        3.207        3.024        0.470        1.000        2.000        0.000        1.000        2.000        2.000        0.000        0.000        0.000        0.000        0.000        1.000        0.000        1.000        0.000        0.000        0.000        0.000        0.000        0.000        0.000        0.000        0.000        0.000        0.000        3.000        0.000        2.000        0.000        5.000        0.000        0.000        0.000        4.494        0.000       95.506        0.000        0.000        2.161        2.190        2.848
     400.000  -287881.782    28559.889    16850.863    43233.674      121.243  -429071.430    52423.978       26.243       26.107        3.053        3.010        3.123        3.231        3.236        3.059        2.674        2.966        3.222        3.234        3.127        2.544        3.008        2.841        3.167        2.967        0.493        0.000        2.000        0.000        1.000        2.000        1.000        0.000        0.000        1.000        2.000        0.000        0.000        1.000        0.000        0.000        0.000        0.000        0.000        0.000        0.000        0.000        0.000        0.000        0.000        1.000        4.000        0.000        1.000        0.000        1.000        0.000        0.000        0.000        0.000        0.000      100.000        0.000        0.000        1.792        1.807        2.708
     410.000  -287397.009    29295.235    16609.875    43113.061       85.004  -427290.472    50790.288       26.348       26.032        3.103        2.947        3.149        3.197        3.129        3.136        2.647        3.013        3.194        3.208        3.137        2.532        2.987        2.931        3.206        3.019        0.472        0.000        0.000        0.000        1.000        1.000        2.000        0.000        0.000        0.000        2.000        0.000        0.000        0.000        1.000        0.000        0.000        0.000        0.000        0.000        0.000        0.000        0.000        0.000        0.000        1.000        2.000        0.000        2.000        0.000        3.000        0.000        0.000        0.000        0.000        0.000      100.000        0.000        0.000        1.712        1.725        2.721
     420.000  -287828.945    28191.533    16465.298    43178.472       98.562  -429485.155    53722.345       26.157       25.516        3.120        2.995        3.129        3.210        3.135        3.105        2.655        3.024        3.216        3.215        3.053        2.517        3.051        2.904        3.203        2.995        0.485        0.000        1.000        0.000        1.000        1.000        1.000        0.000        0.000        1.000        1.000        0.000        0.000        0.000        2.000        0.000        0.000        0.000        0.000        0.000        0.000        0.000        0.000        0.000        0.000        1.000        2.000        0.000        1.000        0.000        6.000        0.000        0.000        0.000        0.000        0.000      100.000        0.000        0.000        1.644        1.659        2.806
     430.000  -287746.728    29690.513    16318.920    43303.830      109.461  -429442.044    52272.592       26.472       25.838        3.126        2.999        3.094        3.221        3.176        3.109        2.655        3.006        3.183        3.219        3.044        2.493        3.040        2.945        3.225        3.039        0.493        0.000        1.000        0.000        1.000        1.000        1.000        0.000        0.000        1.000        1.000        0.000        0.000        0.000        0.000        0.000        0.000        0.000        0.000        0.000        0.000        0.000        0.000        0.000        0.000        0.000        4.000        0.000        3.000        1.000        1.000        0.000        0.000        0.000        0.000        0.000      100.000        0.000        0.000        2.040        2.053        3.055
     440.000  -287713.126    28034.650    16890.213    43200.479      116.961  -430093.398    54137.970       26.118       25.609        3.025        2.931        3.118        3.242        3.156        3.088        2.642        2.999        3.190        3.199        3.052        2.498        3.066        3.032        3.185        3.053        0.502        0.000        1.000        0.000        1.000        1.000        1.000        0.000        0.000        0.000        1.000        0.000        0.000        0.000        0.000        0.000        0.000        0.000        0.000        0.000        0.000        0.000        0.000        0.000        0.000        0.000        4.000        0.000        1.000        0.000        4.000        0.000        0.000        0.000        0.000        0.000      100.000        0.000        0.000        2.286        2.330        3.187
     450.000  -288023.873    28975.544    16329.883    43112.568      110.133  -428465.827    51913.826       26.254       25.656        3.100        2.963        3.049        3.255        3.145        3.066        2.656        3.004        3.232        3.271        3.128        2.538        3.072        2.991        3.196        2.996        0.483        0.000        2.000        0.000        1.000        2.000        1.000        0.000        0.000        0.000        0.000        0.000        1.000        0.000        1.000        0.000        0.000        0.000        0.000        0.000        0.000        0.000        0.000        0.000        0.000        2.000        5.000        0.000        1.000        2.000        5.000        0.000        0.000        0.000        4.494        0.000       95.506        0.000        0.000        2.074        2.088        3.201
     460.000  -288778.426    28118.204    16714.045    43129.934       77.615  -431817.016    54998.792       26.157       25.865        3.024        2.996        3.039        3.188        3.160        3.122        2.717        2.994        3.235        3.250        3.079        2.536        3.079        2.989        3.188        2.984        0.492        0.000        0.000        0.000        1.000        2.000        1.000        0.000        0.000        0.000        0.000        0.000        1.000        0.000        0.000        0.000        0.000        0.000        0.000        0.000        0.000        0.000        0.000        0.000        0.000        2.000        4.000        0.000        3.000        1.000        5.000        0.000        0.000        0.000        0.000        0.000      100.000        0.000        0.000        1.917        1.941        2.924
     470.000  -287001.779    28825.752    16685.989    43443.636      100.435  -427935.606    51878.015       26.457       26.187        3.089        3.044        3.042        3.163        3.152        3.068        2.750        2.986        3.216        3.185        3.155        2.531        3.075        3.024        3.202        2.942        0.509        1.000        0.000        0.000        1.000        1.000        2.000        0.000        0.000        1.000        1.000        0.000        1.000        0.000        1.000        0.000        0.000        0.000        0.000        0.000        0.000        0.000        0.000        0.000        0.000        1.000        5.000        0.000        2.000        1.000        6.000        0.000        0.000        0.000        0.000        0.000      100.000        0.000        0.000        1.767        1.784        2.900
     480.000  -287862.827    29188.826    16489.574    43206.025       88.000  -428347.723    51512.472       26.524       26.086        2.995        2.918        3.110        3.209        3.259        3.086        2.708        3.006        3.235        3.242        3.202        2.555        3.093        3.045        3.219        2.943        0.481        1.000        0.000        0.000        1.000        1.000        2.000        0.000        0.000        1.000        0.000        0.000        1.000        0.000        0.000        0.000        0.000        0.000        0.000        0.000        0.000        0.000        0.000        0.000        0.000        2.000        6.000        0.000        3.000        1.000        6.000        0.000        0.000        0.000        4.494        0.000       95.506        0.000        0.000        1.641        1.673        2.789
     490.000  -288497.463    28864.456    17044.046    43035.156       92.309  -431065.403    53531.972       26.440       26.115        3.064        3.026        3.114        3.173        3.187        3.062        2.705        2.961        3.227        3.198        3.109        2.537        3.061        3.022        3.216        2.910        0.494        1.000        1.000        0.000        1.000        1.000        3.000        0.000        0.000        0.000        0.000        0.000        0.000        0.000        0.000        0.000        0.000        0.000        0.000        0.000        0.000        0.000        0.000        0.000        0.000        1.000        3.000        0.000        2.000        1.000        5.000        0.000        0.000        0.000        0.000        0.000      100.000        0.000        0.000        1.577        1.631        2.759
     500.000  -287533.849    28482.408    16758.027    43114.377       79.313  -429063.814    53095.840       26.307       25.957        3.084        2.955        3.073        3.165        3.160        3.093        2.751        2.909        3.212        3.230        3.059        2.542        3.047        2.961        3.202        3.062        0.484        1.000        2.000        0.000        1.000        1.000        1.000        0.000        0.000        1.000        0.000        0.000        0.000        0.000        0.000        0.000        0.000        0.000        0.000        0.000        0.000        0.000        0.000        0.000        0.000        0.000        0.000        0.000        1.000        0.000        3.000        0.000        0.000        0.000        0.000        0.000      100.000        0.000        0.000        1.609        1.645        2.740
     510.000  -287405.427    29254.766    17006.447    43046.974       89.761  -428984.368    52180.992       26.449       26.105        3.066        3.112        3.088        3.250        3.215        3.071        2.740        2.988        3.216        3.161        3.078        2.481        3.044        2.937        3.196        2.973        0.491        1.000        1.000        0.000        1.000        1.000        1.000        0.000        0.000        0.000        1.000        0.000        0.000        0.000        0.000        0.000        0.000        0.000        0.000        0.000        0.000        0.000        0.000        0.000        0.000        2.000        3.000        0.000        3.000        0.000        4.000        0.000        0.000        0.000        0.000        0.000      100.000        0.000        0.000        1.772        1.804        2.824
     520.000  -287488.199    28194.962    16815.831    43252.112      100.745  -428883.373    53031.524       26.457       25.910        2.960        3.039        3.080        3.162        3.153        3.118        2.715        3.012        3.239        3.174        3.122        2.530        3.093        3.017        3.159        2.967        0.474        1.000        0.000        0.000        1.000        1.000        2.000        0.000        0.000        1.000        2.000        0.000        0.000        0.000        0.000        0.000        0.000        0.000        0.000        0.000        0.000        0.000        0.000        0.000        0.000        3.000        2.000        0.000        2.000        0.000        3.000        0.000        0.000        0.000        0.000        0.000      100.000        0.000        0.000        1.779        1.817        2.955
     530.000  -288006.450    27818.804    16926.462    43250.012      105.272  -429405.974    53298.974       26.148       25.702        3.073        2.928        3.136        3.193        3.168        3.138        2.715        3.009        3.269        3.231        3.111        2.578        3.087        2.959        3.233        2.976        0.506        1.000        1.000        0.000        1.000        2.000        2.000        0.000        0.000        0.000        1.000        0.000        1.000        0.000        0.000        0.000        0.000        0.000        0.000        0.000        0.000        0.000        0.000        0.000        0.000        2.000        4.000        0.000        2.000        1.000        2.000        0.000        0.000        0.000        0.000        0.000      100.000        0.000        0.000        1.730        1.767        2.707
     540.000  -287949.961    28149.269    16568.909    43208.579      113.292  -428560.469    52570.459       26.451       25.867        3.112        2.953        3.144        3.171        3.172        3.107        2.691        2.947        3.274        3.258        3.076        2.540        3.076        2.957        3.174        2.925        0.492        1.000        0.000        0.000        1.000        1.000        2.000        0.000        0.000        1.000        1.000        0.000        0.000        0.000        1.000        0.000        0.000        0.000        0.000        0.000        0.000        0.000        0.000        0.000        0.000        0.000        4.000        0.000        1.000        0.000        5.000        0.000        0.000        0.000        0.000        0.000      100.000        0.000        0.000        1.956        1.996        2.730
     550.000  -287575.054    27409.115    16374.601    43064.097       91.902  -427934.601    53419.832       26.023       25.758        2.990        2.923        3.060        3.204        3.203        3.148        2.686        2.937        3.171        3.350        3.067        2.527        3.017        2.952        3.245        2.909        0.485        1.000        1.000        0.000        1.000        2.000        2.000        0.000        0.000        0.000        1.000        0.000        0.000        1.000        1.000        0.000        0.000        0.000        0.000        0.000        0.000        0.000        0.000        0.000        0.000        1.000        3.000        0.000        2.000        1.000        4.000        0.000        0.000        0.000        0.000        0.000      100.000        0.000        0.000        1.912        1.933        2.796
     560.000  -287900.463    29314.896    16719.169    42866.875      102.415  -428119.867    51216.049       26.150       25.913        3.006        2.925        3.131        3.192        3.153        3.111        2.701        3.005        3.234        3.324        3.039        2.489        3.031        2.972        3.199        2.908        0.486        1.000        1.000        0.000        1.000        1.000        2.000        0.000        0.000        1.000        1.000        0.000        0.000        0.000        2.000        0.000        0.000        0.000        0.000        0.000        0.000        0.000        0.000        0.000        0.000        3.000        2.000        0.000        3.000        0.000        4.000        0.000        0.000        0.000        0.000        0.000      100.000        0.000        0.000        1.991        1.989        2.884
     570.000  -287696.159    27722.729    17020.515    43117.161      129.410  -430320.366    54634.392       25.841       25.653        3.048        3.039        3.153        3.232        3.151        3.155        2.685        2.965        3.206        3.212        3.075        2.483        3.096        2.911        3.174        2.965        0.491        0.000        1.000        0.000        0.000        0.000        3.000        0.000        0.000        0.000        0.000        0.000        0.000        0.000        0.000        0.000        0.000        0.000        0.000        0.000        0.000        0.000        0.000        0.000        0.000        3.000        2.000        0.000        3.000        0.000        2.000        0.000        0.000        0.000        0.000        0.000      100.000        0.000        0.000        1.610        1.632        2.639
     580.000  -288120.953    28895.727    16635.058    43218.435      113.498  -429206.204    52222.534       26.009       26.167        3.021        2.987        3.146        3.201        3.175        3.111        2.693        2.956        3.178        3.255        3.095        2.494        3.086        2.956        3.214        2.941        0.486        1.000        2.000        0.000        1.000        1.000        2.000        0.000        0.000        1.000        1.000        0.000        0.000        0.000        0.000        0.000        0.000        0.000        0.000        0.000        1.000        0.000        0.000        0.000        0.000        2.000        5.000        0.000        3.000        0.000        4.000        0.000        0.000        0.000        0.000        0.000      100.000        0.000        0.000        1.734        1.778        2.811
     590.000  -288601.448    28814.128    16455.280    43132.920       84.599  -429924.434    52836.059       26.077       25.974        3.032        3.016        3.164        3.172        3.207        3.143        2.688        2.973        3.215        3.199        3.069        2.595        3.135        3.013        3.248        2.991        0.503        1.000        1.000        0.000        1.000        2.000        2.000        0.000        0.000        0.000        0.000        0.000        0.000        0.000        0.000        0.000        0.000        0.000        0.000        0.000        0.000        0.000        0.000        0.000        0.000        0.000        4.000        0.000        4.000        1.000        3.000        0.000        0.000        0.000        0.000        0.000      100.000        0.000        0.000        1.898        1.919        2.949
     600.000  -288299.417    27609.416    16629.238    43155.704       77.456  -429941.003    54169.771       25.992       25.741        3.036        3.035        3.154        3.183        3.173        3.136        2.642        3.013        3.254        3.204        3.023        2.521        3.070        2.959        3.172        3.015        0.485        1.000        0.000        0.000        1.000        0.000        3.000        0.000        0.000        0.000        1.000        0.000        1.000        0.000        0.000        0.000        0.000        0.000        0.000        0.000        0.000        0.000        0.000        0.000        0.000        2.000        4.000        0.000        1.000        1.000        1.000        0.000        0.000        0.000        0.000        0.000      100.000        0.000        0.000        1.982        2.014        2.884
     610.000  -287410.850    27539.512    16906.355    43185.054       86.532  -429499.721    54371.419       25.975       25.960        3.071        3.134        3.106        3.186        3.130        2.976        2.625        2.975        3.281        3.164        3.005        2.537        3.041        3.000        3.180        2.956        0.455        0.000        1.000        0.000        1.000        0.000        3.000        0.000        0.000        0.000        2.000        0.000        1.000        0.000        1.000        0.000        0.000        0.000        0.000        0.000        0.000        0.000        0.000        0.000        0.000        0.000        3.000        0.000        2.000        0.000        5.000        0.000        0.000        0.000        0.000        0.000      100.000        0.000        0.000        1.961        1.980        2.788
     620.000  -288328.301    28930.455    16566.312    43201.044       76.730  -429779.064    52676.222       26.054       26.052        3.070        3.012        3.108        3.106        3.145        3.038        2.630        3.018        3.229        3.225        3.055        2.542        3.059        2.983        3.248        2.986        0.491        1.000        1.000        0.000        1.000        1.000        2.000        0.000        0.000        0.000        0.000        0.000        0.000        0.000        1.000        0.000        0.000        0.000        0.000        0.000        0.000        0.000        0.000        0.000        0.000        2.000        4.000        0.000        3.000        0.000        5.000        0.000        0.000        0.000        0.000        0.000      100.000        0.000        0.000        2.111        2.118        2.881
     630.000  -287953.409    27886.909    16643.376    43185.524       96.417  -428687.241    52921.605       26.164       25.968        3.047        3.000        3.087        3.121        3.144        3.108        2.636        3.023        3.257        3.137        3.024        2.544        3.036        2.951        3.215        3.015        0.488        1.000        2.000        0.000        1.000        2.000        2.000        0.000        0.000        0.000        2.000        0.000        1.000        0.000        1.000        0.000        0.000        0.000        0.000        0.000        0.000        0.000        0.000        0.000        0.000        0.000        5.000        0.000        2.000        0.000        6.000        0.000        0.000        0.000        0.000        0.000      100.000        0.000        0.000        2.129        2.160        3.055
     640.000  -287968.906    29077.783    16673.108    43139.543       77.535  -428681.945    51745.069       26.226       25.809        3.125        2.968        3.142        3.103        3.180        3.151        2.665        2.982        3.249        3.166        3.092        2.530        3.034        2.948        3.198        2.955        0.486        0.000        1.000        0.000        1.000        1.000        2.000        0.000        0.000        0.000        1.000        0.000        1.000        0.000        0.000        0.000        0.000        0.000        0.000        0.000        0.000        0.000        0.000        0.000        0.000        3.000        5.000        0.000        4.000        1.000        4.000        0.000        0.000        0.000        0.000        0.000      100.000        0.000        0.000        2.127        2.168        3.084
     650.000  -287394.141    27315.942    16997.886    43025.347       84.479  -429019.384    54201.589       26.087       25.643        2.991        2.937        3.090        3.150        3.138        3.128        2.728        3.018        3.313        3.191        3.066        2.487        3.118        2.970        3.199        3.082        0.479        0.000        2.000        0.000        1.000        1.000        3.000        0.000        0.000        0.000        0.000        0.000        0.000        0.000        0.000        0.000        0.000        0.000        0.000        0.000        1.000        0.000        0.000        0.000        0.000        3.000        3.000        0.000        2.000        0.000        2.000        0.000        0.000        0.000        4.494        0.000       95.506        0.000        0.000        2.071        2.116        3.056
     660.000  -287429.596    27616.798    16871.838    43214.140       69.524  -429187.850    53985.955       25.964       25.828        2.987        2.930        3.161        3.100        3.142        3.147        2.697        2.988        3.263        3.241        2.984        2.457        3.059        2.953        3.195        2.980        0.477        0.000        1.000        0.000        1.000        0.000        3.000        0.000        0.000        0.000        0.000        0.000        0.000        0.000        1.000        0.000        0.000        0.000        0.000        0.000        0.000        0.000        0.000        0.000        0.000        3.000        3.000        0.000        3.000        0.000        3.000        0.000        0.000        0.000        0.000        0.000      100.000        0.000        0.000        2.190        2.234        3.099
     670.000  -288025.720    28072.301    16774.851    43075.203       93.759  -429017.174    52975.341       26.032       25.849        3.009        2.980        3.164        3.107        3.199        3.057        2.695        3.003        3.208        3.208        3.042        2.519        3.104        2.984        3.173        2.945        0.493        0.000        1.000        0.000        1.000        0.000        3.000        0.000        0.000        0.000        0.000        0.000        0.000        0.000        1.000        0.000        0.000        0.000        0.000        0.000        1.000        0.000        0.000        0.000        0.000        0.000        1.000        0.000        1.000        0.000        2.000        0.000        0.000        0.000        0.000        0.000      100.000        0.000        0.000        2.110        2.145        3.064
     680.000  -287939.387    28921.126    16664.006    43161.460      117.612  -430002.041    53198.449       26.055       25.791        3.042        2.975        3.149        3.124        3.183        3.097        2.694        3.002        3.278        3.154        3.101        2.529        3.052        2.900        3.239        2.958        0.491        0.000        0.000        0.000        1.000        0.000        3.000        0.000        0.000        0.000        0.000        0.000        0.000        0.000        1.000        0.000        0.000        0.000        0.000        0.000        0.000        0.000        0.000        0.000        0.000        2.000        2.000        0.000        2.000        0.000        3.000        0.000        0.000        0.000        4.494        0.000       95.506        0.000        0.000        1.925        1.978        2.962
     690.000  -288445.104    28504.015    16644.707    43156.342       95.953  -430845.745    53999.625       25.858       25.786        3.057        3.040        3.150        3.172        3.174        3.144        2.683        2.938        3.272        3.189        2.998        2.518        3.067        2.959        3.222        3.000        0.508        0.000        1.000        0.000        1.000        0.000        3.000        0.000        0.000        0.000        0.000        0.000        0.000        0.000        0.000        0.000        0.000        0.000        0.000        0.000        0.000        0.000        0.000        0.000        0.000        3.000        4.000        0.000        2.000        0.000        6.000        0.000        0.000        0.000        4.494        0.000       95.506        0.000        0.000        1.787        1.841        2.836
     700.000  -287629.948    29001.053    16561.399    43295.549      105.666  -428612.016    52018.401       25.721       25.835        3.020        3.029        3.148        3.106        3.164        3.111        2.674        3.043        3.188        3.240        2.941        2.523        3.093        2.895        3.158        3.029        0.499        0.000        1.000        0.000        1.000        0.000        3.000        0.000        0.000        0.000        0.000        0.000        0.000        0.000        0.000        0.000        0.000        0.000        0.000        0.000        0.000        0.000        0.000        0.000        0.000        1.000        4.000        0.000        2.000        0.000        5.000        0.000        0.000        0.000        4.494        0.000       95.506        0.000        0.000        1.971        2.023        2.968
     710.000  -288381.547    28202.865    16884.276    43087.909       89.643  -430157.742    53511.501       25.983       25.996        2.997        3.014        3.126        3.131        3.234        3.026        2.683        3.079        3.197        3.280        3.116        2.550        3.006        2.959        3.212        3.031        0.486        0.000        2.000        0.000        1.000        1.000        3.000        0.000        0.000        1.000        0.000        0.000        1.000        0.000        0.000        0.000        0.000        0.000        0.000        0.000        1.000        0.000        0.000        0.000        0.000        5.000        2.000        0.000        3.000        0.000        7.000        0.000        0.000        0.000        0.000        0.000      100.000        0.000        0.000        2.290        2.318        3.245
     720.000  -288049.648    27866.907    16837.225    43260.177       85.291  -429753.659    53654.410       25.708       25.851        3.019        2.981        3.103        3.140        3.199        3.113        2.692        3.040        3.288        3.207        3.051        2.501        3.082        2.932        3.140        3.065        0.483        0.000        2.000        0.000        1.000        1.000        2.000        0.000        0.000        0.000        0.000        0.000        0.000        0.000        1.000        0.000        0.000        0.000        0.000        0.000        0.000        0.000        0.000        0.000        0.000        4.000        4.000        0.000        2.000        1.000        4.000        0.000        0.000        0.000        4.494        0.000       95.506        0.000        0.000        2.346        2.358        3.250
     730.000  -287876.990    28352.634    16929.821    43386.193       89.489  -428524.158    51889.030       25.766       26.148        3.008        2.961        3.072        3.135        3.200        3.075        2.712        3.012        3.292        3.185        3.035        2.518        3.035        3.027        3.211        2.997        0.488        0.000        1.000        0.000        1.000        1.000        2.000        0.000        0.000        1.000        0.000        0.000        1.000        0.000        0.000        0.000        0.000        0.000        0.000        0.000        0.000        0.000        0.000        0.000        0.000        2.000        5.000        0.000        2.000        0.000        1.000        0.000        0.000        0.000        0.000        0.000      100.000        0.000        0.000        2.230        2.247        3.201
     740.000  -288589.464    28665.852    16857.336    43069.265       80.434  -429573.386    52311.036       26.119       26.255        3.135        3.020        3.095        3.130        3.229        3.163        2.676        3.027        3.173        3.211        3.089        2.564        3.089        2.905        3.197        3.018        0.509        0.000        1.000        0.000        1.000        2.000        2.000        0.000        0.000        0.000        0.000        0.000        0.000        0.000        0.000        0.000        0.000        0.000        0.000        0.000        0.000        0.000        0.000        0.000        0.000        4.000        3.000        0.000        2.000        0.000        2.000        0.000        0.000        0.000        4.494        0.000       95.506        0.000        0.000        2.304        2.357        3.154
     750.000  -287507.091    29118.619    16783.727    43168.226      103.684  -429197.239    52515.892       26.029       26.148        3.059        2.888        3.023        3.169        3.231        3.127        2.700        2.956        3.244        3.232        3.050        2.521        2.986        3.056        3.211        2.971        0.495        0.000        0.000        0.000        1.000        2.000        2.000        0.000        0.000        1.000        0.000        0.000        0.000        0.000        0.000        0.000        0.000        0.000        0.000        0.000        0.000        0.000        0.000        0.000        0.000        2.000        1.000        0.000        3.000        0.000        3.000        0.000        0.000        0.000        0.000        0.000      100.000        0.000        0.000        2.377        2.393        3.254
     760.000  -288182.898    28100.775    17267.317    43041.182       94.543  -431123.892    54437.177       25.915       26.057        3.045        2.985        3.094        3.173        3.206        3.145        2.706        2.993        3.277        3.228        3.057        2.504        2.981        3.030        3.177        2.921        0.479        0.000        1.000        0.000        1.000        2.000        2.000        0.000        0.000        0.000        0.000        0.000        0.000        0.000        2.000        0.000        0.000        0.000        0.000        0.000        1.000        0.000        0.000        0.000        0.000        0.000        4.000        0.000        4.000        0.000        6.000        0.000        0.000        0.000        0.000        0.000      100.000        0.000        0.000        1.974        1.979        2.927
     770.000  -287661.365    28262.198    17027.014    42844.878       93.600  -428479.892    52590.836       26.238       26.592        2.982        2.875        3.190        3.093        3.185        3.104        2.706        3.002        3.288        3.238        3.059        2.476        3.057        3.127        3.206        3.048        0.493        0.000        0.000        0.000        1.000        2.000        2.000        0.000        0.000        1.000        0.000        0.000        0.000        1.000        1.000        0.000        0.000        0.000        0.000        0.000        1.000        0.000        0.000        0.000        0.000        2.000        3.000        0.000        2.000        0.000        2.000        0.000        0.000        0.000        0.000        0.000      100.000        0.000        0.000        2.068        2.083        2.873
     780.000  -287719.443    28783.649    16755.985    43256.246       98.358  -426721.703    50108.021       25.940       26.187        3.083        2.898        3.124        3.139        3.186        3.102        2.701        3.061        3.309        3.306        2.978        2.529        3.080        2.970        3.181        2.965        0.500        0.000        0.000        0.000        1.000        2.000        2.000        0.000        0.000        0.000        0.000        0.000        0.000        0.000        0.000        0.000        0.000        0.000        0.000        0.000        1.000        0.000        0.000        0.000        0.000        1.000        2.000        0.000        4.000        0.000        6.000        0.000        0.000        0.000        0.000        0.000      100.000        0.000        0.000        1.689        1.693        2.647
     790.000  -287826.271    27605.784    17253.659    43233.770       94.497  -429750.637    53736.656       25.741       26.078        3.136        2.959        3.151        3.126        3.196        3.136        2.711        3.028        3.292        3.274        3.022        2.537        3.110        3.024        3.193        3.021        0.487        0.000        1.000        0.000        1.000        2.000        2.000        0.000        0.000        0.000        0.000        0.000        0.000        1.000        1.000        0.000        0.000        0.000        0.000        0.000        1.000        0.000        0.000        0.000        0.000        1.000        4.000        0.000        2.000        2.000        4.000        0.000        0.000        0.000        0.000        0.000      100.000        0.000        0.000        1.738        1.744        2.712
     800.000  -287417.339    28070.602    16723.281    43188.644      108.294  -428530.885    53022.724       25.954       26.063        3.060        2.908        3.102        3.213        3.199        3.093        2.706        3.044        3.156        3.255        3.029        2.546        3.044        3.021        3.212        3.079        0.498        0.000        1.000        0.000        1.000        2.000        2.000        0.000        0.000        0.000        0.000        0.000        0.000        1.000        0.000        0.000        0.000        0.000        0.000        0.000        0.000        0.000        0.000        0.000        0.000        2.000        3.000        0.000        2.000        0.000        4.000        0.000        0.000        0.000        0.000        0.000      100.000        0.000        0.000        1.851        1.879        2.862
     810.000  -288103.443    28332.011    16698.979    43182.442      126.421  -429367.958    52924.661       25.948       26.150        3.063        2.863        3.181        3.217        3.200        3.136        2.676        2.978        3.243        3.274        3.095        2.574        3.041        2.955        3.186        2.947        0.481        0.000        1.000        0.000        1.000        2.000        2.000        0.000        0.000        0.000        0.000        0.000        0.000        1.000        0.000        0.000        0.000        0.000        0.000        0.000        0.000        0.000        0.000        0.000        0.000        2.000        4.000        0.000        3.000        0.000        3.000        0.000        0.000        0.000        4.494        0.000       95.506        0.000        0.000        2.011        2.042        2.890
     820.000  -288576.420    27410.189    16328.555    43344.505       92.204  -430645.462    54893.590       25.720       25.672        3.037        2.911        3.096        3.169        3.174        3.103        2.714        2.945        3.234        3.249        3.020        2.515        3.050        2.913        3.177        2.980        0.472        0.000        1.000        0.000        1.000        0.000        3.000        0.000        0.000        0.000        0.000        0.000        0.000        0.000        1.000        0.000        0.000        0.000        0.000        0.000        1.000        0.000        0.000        0.000        0.000        2.000        5.000        0.000        2.000        1.000        7.000        0.000        0.000        0.000        0.000        0.000      100.000        0.000        0.000        1.769        1.820        2.771
     830.000  -287538.580    28838.931    16768.506    43119.342       94.606  -428592.200    52232.236       26.065       25.978        2.977        2.942        3.118        3.222        3.221        3.064        2.695        3.010        3.185        3.272        3.019        2.494        3.104        3.045        3.213        3.076        0.483        0.000        0.000        0.000        1.000        1.000        2.000        0.000        0.000        0.000        1.000        0.000        0.000        1.000        2.000        0.000        0.000        0.000        0.000        0.000        0.000        0.000        0.000        0.000        0.000        1.000        2.000        0.000        2.000        1.000        6.000        0.000        0.000        0.000        0.000        0.000      100.000        0.000        0.000        1.870        1.915        2.825
     840.000  -286979.359    28156.057    17099.584    43187.183       68.327  -428732.813    53242.302       25.832       25.902        3.051        2.956        3.153        3.188        3.200        3.079        2.694        3.009        3.211        3.221        3.005        2.485        3.040        2.960        3.201        3.026        0.490        0.000        0.000        0.000        0.000        1.000        3.000        0.000        0.000        0.000        0.000        0.000        0.000        0.000        0.000        0.000        0.000        0.000        0.000        0.000        1.000        0.000        0.000        0.000        0.000        0.000        3.000        0.000        2.000        0.000        2.000        0.000        0.000        0.000        0.000        0.000      100.000        0.000        0.000        1.544        1.563        2.496
     850.000  -287604.759    28928.533    16742.566    43159.401       95.164  -430283.193    53752.770       26.311       26.440        3.076        2.919        3.181        3.270        3.188        3.118        2.701        2.986        3.233        3.210        3.069        2.516        3.108        2.971        3.210        2.960        0.472        0.000        1.000        0.000        1.000        2.000        2.000        0.000        0.000        0.000        0.000        0.000        0.000        1.000        2.000        0.000        0.000        0.000        0.000        0.000        1.000        0.000        0.000        0.000        0.000        1.000        1.000        0.000        3.000        1.000        5.000        0.000        0.000        0.000        0.000        0.000      100.000        0.000        0.000        1.746        1.777        2.659
     860.000  -287391.655    28138.506    16750.676    43095.711       89.821  -428670.466    53204.097       25.951       26.143        3.019        3.040        3.048        3.305        3.116        3.077        2.723        2.900        3.245        3.205        3.021        2.528        3.084        2.927        3.188        2.938        0.483        0.000        0.000        0.000        1.000        2.000        2.000        0.000        0.000        0.000        0.000        0.000        0.000        1.000        1.000        0.000        0.000        0.000        0.000        0.000        0.000        0.000        0.000        0.000        0.000        4.000        5.000        0.000        3.000        2.000        5.000        0.000        0.000        0.000        0.000        0.000      100.000        0.000        0.000        1.636        1.653        2.651
     870.000  -288034.830    28321.337    16575.340    43056.037       93.413  -429180.165    53099.209       26.091       26.254        3.130        3.024        3.179        3.231        3.196        3.156        2.733        3.031        3.195        3.176        2.959        2.509        3.106        3.005        3.186        2.996        0.486        0.000        0.000        0.000        1.000        2.000        2.000        0.000        0.000        0.000        0.000        0.000        0.000        1.000        0.000        0.000        0.000        0.000        0.000        0.000        1.000        0.000        0.000        0.000        0.000        1.000        4.000        0.000        2.000        1.000        4.000        0.000        0.000        0.000        0.000        0.000      100.000        0.000        0.000        2.028        2.046        2.958
     880.000  -287664.364    28218.233    16680.134    43248.089       84.608  -428980.424    53084.995       26.040       25.935        3.071        2.957        3.154        3.214        3.200        3.072        2.728        2.972        3.214        3.222        3.007        2.563        3.068        2.973        3.231        3.059        0.499        0.000        1.000        0.000        1.000        1.000        2.000        0.000        0.000        0.000        0.000        0.000        0.000        0.000        1.000        0.000        0.000        0.000        0.000        0.000        0.000        0.000        0.000        0.000        0.000        3.000        5.000        0.000        4.000        0.000        4.000        0.000        0.000        0.000        0.000        0.000      100.000        0.000        0.000        1.976        2.019        2.979
     890.000  -287272.888    29143.299    16843.069    43126.847      105.869  -429146.675    52654.703       25.832       26.028        2.992        2.946        3.195        3.232        3.203        3.119        2.646        3.012        3.243        3.224        3.016        2.495        3.109        2.973        3.223        2.964        0.467        0.000        1.000        0.000        1.000        2.000        2.000        0.000        0.000        0.000        0.000        0.000        1.000        1.000        0.000        0.000        0.000        0.000        0.000        0.000        1.000        0.000        0.000        0.000        0.000        1.000        3.000        0.000        3.000        1.000        3.000        0.000        0.000        0.000        0.000        0.000      100.000        0.000        0.000        2.271        2.309        3.056
     900.000  -287231.956    26821.894    16624.207    43391.810      108.046  -428099.831    53921.918       25.745       26.013        3.040        2.995        3.089        3.209        3.215        3.184        2.689        2.877        3.226        3.220        2.968        2.552        3.046        2.963        3.242        3.020        0.504        0.000        0.000        0.000        1.000        2.000        2.000        0.000        0.000        0.000        1.000        0.000        0.000        1.000        0.000        0.000        0.000        0.000        0.000        0.000        1.000        0.000        0.000        0.000        0.000        2.000        5.000        0.000        2.000        2.000        5.000        0.000        0.000        0.000        0.000        0.000      100.000        0.000        0.000        1.937        1.964        2.789
     910.000  -286967.129    29699.337    16733.241    42813.258       90.043  -426338.917    50035.908       26.062       26.297        2.973        3.008        3.123        3.210        3.224        3.153        2.632        3.030        3.244        3.206        3.044        2.562        3.064        2.921        3.221        3.087        0.478        0.000        2.000        0.000        1.000        2.000        2.000        0.000        0.000        0.000        0.000        0.000        0.000        0.000        0.000        0.000        0.000        0.000        0.000        0.000        1.000        0.000        0.000        0.000        0.000        5.000        4.000        0.000        1.000        1.000        3.000        0.000        0.000        0.000        0.000        0.000      100.000        0.000        0.000        2.055        2.074        2.761
     920.000  -287428.102    27189.678    16699.697    43131.655      100.223  -427277.447    52728.093       25.620       25.963        2.925        3.034        3.146        3.258        3.225        3.109        2.678        3.042        3.231        3.202        3.038        2.521        3.043        2.968        3.188        2.918        0.465        0.000        1.000        0.000        1.000        1.000        2.000        0.000        0.000        0.000        0.000        0.000        0.000        0.000        0.000        0.000        0.000        0.000        0.000        0.000        1.000        0.000        0.000        0.000        0.000        2.000        2.000        0.000        2.000        0.000        3.000        0.000        0.000        0.000        0.000        0.000      100.000        0.000        0.000        2.047        2.045        2.793
     930.000  -287951.340    28304.925    16820.582    43234.321       82.416  -430341.135    53947.549       26.073       26.060        3.130        3.058        3.178        3.252        3.185        3.105        2.673        2.990        3.220        3.238        3.039        2.508        3.055        2.989        3.196        2.967        0.488        0.000        1.000        0.000        1.000        1.000        2.000        0.000        0.000        0.000        0.000        0.000        0.000        0.000        1.000        0.000        0.000        0.000        0.000        0.000        1.000        0.000        0.000        0.000        0.000        0.000        4.000        0.000        2.000        0.000        3.000        0.000        0.000        0.000        0.000        0.000      100.000        0.000        0.000        1.949        1.951        2.882
     940.000  -288347.285    28215.895    16790.383    43334.748       87.096  -430168.680    53393.274       25.931       25.985        3.008        2.916        3.104        3.193        3.131        3.118        2.699        3.017        3.249        3.258        3.014        2.505        3.099        2.945        3.244        3.023        0.497        0.000        1.000        0.000        1.000        1.000        2.000        0.000        0.000        0.000        0.000        0.000        0.000        0.000        1.000        0.000        0.000        0.000        0.000        0.000        0.000        0.000        0.000        0.000        0.000        1.000        3.000        0.000        3.000        1.000        3.000        0.000        0.000        0.000        0.000        0.000      100.000        0.000        0.000        1.981        1.980        3.050
     950.000  -288331.163    28328.193    16739.858    43036.727       80.388  -429783.458    53267.128       26.111       26.545        2.977        2.914        3.146        3.215        3.205        3.123        2.694        3.031        3.251        3.263        3.043        2.513        3.149        2.950        3.161        2.892        0.505        0.000        0.000        0.000        1.000        1.000        1.000        0.000        0.000        0.000        2.000        0.000        0.000        0.000        1.000        0.000        0.000        0.000        0.000        0.000        0.000        0.000        0.000        0.000        0.000        2.000        4.000        0.000        1.000        1.000        2.000        0.000        0.000        0.000        0.000        0.000      100.000        0.000        0.000        2.018        2.013        2.967
     960.000  -287780.749    29054.309    16544.828    42964.488      108.608  -428862.427    52409.446       25.928       26.299        3.103        2.969        3.155        3.224        3.183        3.128        2.679        3.075        3.290        3.228        3.047        2.509        3.094        2.998        3.285        2.962        0.499        0.000        0.000        0.000        1.000        0.000        2.000        0.000        0.000        1.000        0.000        0.000        0.000        0.000        0.000        0.000        0.000        0.000        0.000        0.000        1.000        0.000        0.000        0.000        0.000        0.000        2.000        0.000        2.000        1.000        7.000        0.000        0.000        0.000        0.000        0.000      100.000        0.000        0.000        2.028        2.072        3.111
     970.000  -288155.383    29150.529    16403.450    42948.919       86.032  -428384.241    51639.927       26.067       26.420        3.030        2.989        3.084        3.156        3.189        3.116        2.681        3.040        3.294        3.179        3.019        2.537        3.148        2.961        3.255        2.946        0.489        0.000        1.000        0.000        1.000        1.000        2.000        0.000        0.000        0.000        0.000        0.000        0.000        0.000        0.000        0.000        0.000        0.000        0.000        0.000        1.000        0.000        0.000        0.000        0.000        1.000        5.000        0.000        3.000        1.000        8.000        0.000        0.000        0.000        0.000        0.000      100.000        0.000        0.000        1.932        1.964        3.074
     980.000  -288482.766    29192.316    16639.363    43115.152       97.948  -429169.431    51641.886       26.079       26.346        2.999        3.109        3.087        3.189        3.198        3.134        2.689        2.975        3.250        3.184        3.059        2.551        3.103        2.940        3.257        2.945        0.507        0.000        0.000        0.000        1.000        1.000        2.000        0.000        0.000        0.000        0.000        0.000        0.000        0.000        0.000        0.000        0.000        0.000        0.000        0.000        1.000        0.000        0.000        0.000        0.000        4.000        2.000        0.000        1.000        0.000        3.000        0.000        0.000        0.000        0.000        0.000      100.000        0.000        0.000        2.242        2.289        3.426
     990.000  -288342.399    28725.196    16635.603    42890.680       69.656  -429693.053    53029.519       26.237       26.091        3.029        2.982        3.116        3.221        3.151        3.149        2.711        2.999        3.306        3.193        3.108        2.525        3.113        2.973        3.260        3.020        0.487        0.000        0.000        0.000        1.000        1.000        2.000        0.000        0.000        0.000        0.000        0.000        1.000        0.000        0.000        0.000        0.000        0.000        0.000        0.000        1.000        0.000        0.000        0.000        0.000        2.000        5.000        0.000        3.000        1.000        8.000        0.000        0.000        0.000        0.000        0.000      100.000        0.000        0.000        2.031        2.062        3.236
    1000.000  -288222.172    28991.442    16669.212    43072.051      111.132  -429475.565    52409.555       26.150       25.981        2.868        3.011        3.114        3.156        3.127        3.072        2.680        2.989        3.291        3.190        3.131        2.476        3.092        2.984        3.263        2.917        0.464        0.000        1.000        0.000        1.000        1.000        2.000        0.000        0.000        1.000        0.000        0.000        0.000        0.000        0.000        0.000        0.000        0.000        0.000        0.000        1.000        0.000        0.000        0.000        0.000        1.000        4.000        0.000        2.000        0.000        2.000        0.000        0.000        0.000        0.000        0.000      100.000        0.000        0.000        1.873        1.888        3.127
     Average  -289880.602    28848.392    16822.479    43162.857       92.238  -432683.642    53877.074       26.048       25.964        3.042        2.972        3.107        3.171        3.185        3.101        2.694        2.997        3.237        3.219        3.041        2.527        3.055        2.961        3.193        2.997        0.487        0.644        0.851        0.000        0.970        1.356        2.119        0.000        0.000        0.287        0.465        0.000        0.327        0.178        0.604        0.000        0.000        0.000        0.000        0.000        0.248        0.000        0.000        0.000        0.000        1.386        3.644        0.000        2.178        0.505        3.812        0.000        0.000        0.000        0.623        0.000       99.377        0.000        0.000        1.812        1.837        2.685

