____Time[ps] Energy[ kJ/mol ]_____Bond _______Angle ____Dihedral ___Planarity _____Coulomb _________VdW _Your result _Your result _Your result _Your result _Your result _Your result _Your result _Your result _Your result _Your result _Your result _Your result _Your result _Your result _Your result _Your result _Your result _Your result _Your result _Your result _Your result _Your result _Your result _Your result _Your result _Your result _Your result _Your result _Your result _Your result _Your result _Your result _Your result _Your result _Your result _Your result _Your result _Your result _Your result _Your result _Your result _Your result _Your result _Your result _Your result _Your result _Your result _Your result _Your result _Your result _Your result _Your result _Your result _Your result _Your result _Your result _Your result _RMSDs[A]:CA ____Backbone __HeavyAtoms
       0.000  -350720.410     9565.346     4741.547    44815.941       14.954  -478926.192    69067.994       25.494       25.477        2.523        2.607        2.595        2.692        2.617        2.561        2.695        2.558        2.641        2.619        2.556        2.652        3.013        2.915        2.514        2.552        0.492        1.000        1.000        0.000        2.000        2.000        5.000        0.000        0.000        0.000        1.000        0.000        1.000        0.000        1.000        0.000        0.000        0.000        0.000        0.000        2.000        0.000        0.000        0.000        0.000        0.000        2.000        1.000        4.000        1.000        6.000        0.000        0.000        0.000        0.000        0.000      100.000        0.000        0.000        0.458        0.477        0.645
      10.000  -264496.761    30380.229    15470.912    44149.923       81.787  -403370.534    48790.922       26.190       26.150        2.549        2.625        2.579        2.667        2.611        2.622        2.704        2.559        2.648        2.714        2.612        2.587        3.085        2.961        2.526        2.555        0.471        0.000        1.000        0.000        2.000        1.000        3.000        0.000        0.000        0.000        0.000        0.000        0.000        0.000        1.000        0.000        0.000        0.000        0.000        0.000        0.000        0.000        0.000        0.000        0.000        0.000        2.000        2.000        3.000        3.000        3.000        0.000        0.000        0.000        4.494        0.000       95.506        0.000        0.000        1.372        1.385        1.631
      20.000  -262948.995    28981.672    15832.019    43952.377       63.508  -402837.056    51058.485       26.110       26.252        2.568        2.631        2.601        2.682        2.575        2.598        2.707        2.576        2.665        2.668        2.551        2.687        2.886        2.876        2.539        2.585        0.485        1.000        1.000        0.000        2.000        1.000        3.000        0.000        0.000        0.000        1.000        0.000        0.000        0.000        1.000        0.000        0.000        0.000        0.000        0.000        0.000        0.000        0.000        0.000        0.000        1.000        7.000        1.000        2.000        1.000        1.000        2.000        0.000        0.000        0.000        0.000      100.000        0.000        0.000        1.552        1.580        1.762
      30.000  -263451.650    30136.981    16367.010    43837.868       80.874  -402664.755    48790.372       26.350       26.412        2.469        2.690        2.632        2.707        2.577        2.536        2.688        2.563        2.715        2.672        2.539        2.663        3.019        2.924        2.491        2.545        0.515        1.000        1.000        0.000        2.000        1.000        5.000        1.000        0.000        0.000        0.000        0.000        0.000        0.000        1.000        0.000        0.000        0.000        0.000        0.000        1.000        0.000        0.000        0.000        0.000        0.000        3.000        0.000        4.000        1.000        1.000        0.000        0.000        0.000        0.000        0.000      100.000        0.000        0.000        1.553        1.571        1.776
      40.000  -263653.374    28096.588    16020.526    44021.454       66.290  -401879.294    50021.061       26.148       26.311        2.539        2.608        2.636        2.692        2.572        2.591        2.701        2.574        2.673        2.673        2.542        2.726        3.052        2.901        2.508        2.595        0.481        1.000        1.000        0.000        1.000        1.000        3.000        1.000        0.000        0.000        0.000        0.000        1.000        0.000        1.000        0.000        0.000        0.000        0.000        0.000        1.000        0.000        0.000        0.000        0.000        0.000       11.000        1.000        3.000        0.000        3.000        0.000        0.000        0.000        0.000        0.000      100.000        0.000        0.000        1.491        1.504        1.866
      50.000  -263286.934    28452.332    16195.934    43944.481       76.442  -402619.255    50663.131       25.821       25.918        2.573        2.629        2.641        2.633        2.647        2.601        2.668        2.530        2.685        2.636        2.515        2.695        3.044        2.927        2.526        2.547        0.503        1.000        0.000        0.000        2.000        2.000        5.000        0.000        0.000        0.000        0.000        0.000        1.000        0.000        1.000        0.000        0.000        0.000        0.000        0.000        1.000        0.000        0.000        0.000        0.000        0.000        5.000        0.000        5.000        0.000        4.000        0.000        0.000        0.000        0.000        0.000      100.000        0.000        0.000        1.611        1.613        1.968
      60.000  -262402.287    26950.042    15942.730    43999.549       58.486  -400107.713    50754.617       26.129       26.109        2.551        2.638        2.713        2.601        2.587        2.585        2.681        2.542        2.675        2.645        2.506        2.723        2.970        2.907        2.531        2.584        0.497        1.000        0.000        0.000        2.000        2.000        4.000        1.000        0.000        0.000        0.000        0.000        0.000        0.000        0.000        0.000        0.000        0.000        0.000        0.000        1.000        0.000        0.000        0.000        0.000        0.000        3.000        1.000        4.000        0.000        9.000        2.000        0.000        0.000        0.000        0.000      100.000        0.000        0.000        1.450        1.444        1.805
      70.000  -262939.619    28647.730    16011.699    43769.110       87.802  -399856.138    48400.178       26.278       26.088        2.631        2.623        2.709        2.684        2.609        2.534        2.704        2.540        2.671        2.625        2.502        2.683        3.011        2.957        2.510        2.526        0.501        1.000        0.000        0.000        2.000        2.000        4.000        1.000        0.000        0.000        0.000        0.000        0.000        0.000        0.000        0.000        0.000        0.000        0.000        0.000        1.000        0.000        0.000        0.000        0.000        0.000        3.000        1.000        2.000        0.000        4.000        1.000        0.000        0.000        0.000        0.000      100.000        0.000        0.000        1.607        1.598        1.883
      80.000  -261764.166    28949.100    16210.567    43725.735       67.918  -398307.601    47590.115       26.159       26.237        2.630        2.635        2.692        2.666        2.623        2.537        2.679        2.479        2.758        2.592        2.523        2.659        3.036        3.011        2.502        2.503        0.491        2.000        0.000        0.000        2.000        2.000        3.000        1.000        0.000        0.000        0.000        0.000        0.000        0.000        0.000        0.000        0.000        0.000        0.000        0.000        2.000        0.000        0.000        0.000        0.000        0.000        3.000        0.000        4.000        0.000        5.000        0.000        0.000        0.000        0.000        0.000      100.000        0.000        0.000        1.492        1.487        1.874
      90.000  -262875.710    26763.155    16060.882    43964.103       55.369  -398621.552    48902.332       25.545       25.763        2.622        2.619        2.675        2.642        2.627        2.528        2.722        2.535        2.667        2.615        2.504        2.630        2.952        2.990        2.521        2.535        0.496        2.000        0.000        0.000        2.000        2.000        4.000        1.000        0.000        0.000        0.000        0.000        1.000        0.000        1.000        0.000        0.000        0.000        0.000        0.000        1.000        0.000        0.000        0.000        0.000        0.000        7.000        0.000        3.000        1.000        8.000        0.000        0.000        0.000        0.000        0.000      100.000        0.000        0.000        1.480        1.450        1.855
     100.000  -261666.329    27985.218    16064.191    43992.051       60.018  -397404.614    47636.807       25.796       25.756        2.649        2.664        2.690        2.615        2.534        2.588        2.719        2.504        2.690        2.590        2.502        2.688        3.012        2.936        2.541        2.572        0.472        1.000        0.000        0.000        2.000        2.000        3.000        1.000        0.000        0.000        0.000        0.000        1.000        0.000        0.000        0.000        0.000        0.000        0.000        0.000        2.000        0.000        0.000        0.000        0.000        0.000        3.000        1.000        2.000        0.000        4.000        1.000        0.000        0.000        0.000        0.000      100.000        0.000        0.000        1.333        1.314        1.805
     110.000  -261605.255    27470.194    15797.104    43894.000       84.247  -398218.344    49367.543       25.808       25.827        2.616        2.659        2.692        2.619        2.553        2.595        2.734        2.470        2.730        2.628        2.510        2.701        3.049        2.997        2.499        2.580        0.501        1.000        0.000        0.000        2.000        2.000        2.000        1.000        0.000        0.000        0.000        0.000        0.000        0.000        0.000        0.000        0.000        0.000        0.000        0.000        0.000        0.000        0.000        0.000        0.000        0.000        6.000        1.000        1.000        0.000        6.000        1.000        0.000        0.000        0.000        0.000      100.000        0.000        0.000        1.556        1.522        1.921
     120.000  -262126.654    27537.190    15673.416    43645.007       95.220  -397440.610    48363.124       25.981       26.104        2.650        2.645        2.733        2.606        2.619        2.559        2.755        2.552        2.718        2.575        2.524        2.581        3.072        2.983        2.491        2.598        0.486        2.000        0.000        0.000        2.000        2.000        2.000        0.000        0.000        0.000        0.000        0.000        1.000        0.000        3.000        0.000        0.000        0.000        0.000        0.000        1.000        0.000        0.000        0.000        0.000        0.000        3.000        1.000        1.000        0.000        4.000        0.000        0.000        0.000        0.000        0.000      100.000        0.000        0.000        1.468        1.452        1.867
     130.000  -260923.266    27597.020    15974.615    43753.333       58.964  -396342.918    48035.720       25.923       25.889        2.616        2.676        2.691        2.638        2.650        2.558        2.648        2.538        2.699        2.618        2.548        2.582        3.012        3.050        2.528        2.576        0.484        1.000        0.000        0.000        2.000        2.000        2.000        0.000        0.000        0.000        0.000        0.000        1.000        0.000        1.000        0.000        0.000        0.000        0.000        0.000        2.000        0.000        0.000        0.000        0.000        1.000        5.000        0.000        3.000        2.000        7.000        0.000        0.000        0.000        0.000        0.000      100.000        0.000        0.000        1.427        1.403        1.885
     140.000  -260896.841    28048.931    16160.469    43891.645       57.352  -395857.890    46802.652       25.649       25.646        2.646        2.648        2.683        2.645        2.645        2.568        2.701        2.480        2.709        2.682        2.531        2.564        3.048        3.051        2.522        2.543        0.479        2.000        0.000        0.000        2.000        1.000        2.000        1.000        0.000        0.000        1.000        0.000        0.000        0.000        0.000        0.000        0.000        0.000        0.000        0.000        2.000        0.000        0.000        0.000        0.000        0.000        3.000        1.000        2.000        1.000        3.000        0.000        0.000        0.000        0.000        0.000      100.000        0.000        0.000        1.471        1.424        1.992
     150.000  -261261.196    27956.953    15475.739    43893.615       81.370  -395866.258    47197.385       25.863       25.685        2.602        2.639        2.693        2.673        2.534        2.597        2.654        2.594        2.711        2.668        2.479        2.489        3.011        3.092        2.494        2.578        0.498        1.000        0.000        0.000        2.000        2.000        3.000        1.000        0.000        0.000        1.000        0.000        0.000        0.000        0.000        0.000        0.000        0.000        0.000        0.000        1.000        0.000        0.000        0.000        0.000        0.000        4.000        1.000        2.000        1.000        8.000        0.000        0.000        0.000        0.000        0.000      100.000        0.000        0.000        1.902        1.851        2.405
     160.000  -260619.008    27096.340    15627.910    44029.798       92.604  -396322.347    48856.687       25.496       25.492        2.664        2.659        2.655        2.696        2.569        2.542        2.736        2.525        2.699        2.698        2.483        2.496        3.007        3.024        2.524        2.547        0.487        2.000        1.000        0.000        2.000        2.000        2.000        0.000        0.000        0.000        0.000        0.000        1.000        0.000        0.000        0.000        0.000        0.000        0.000        0.000        2.000        0.000        0.000        0.000        0.000        0.000        4.000        0.000        3.000        1.000        2.000        0.000        0.000        0.000        0.000        0.000      100.000        0.000        0.000        1.610        1.583        2.155
     170.000  -261087.473    27071.118    15699.424    43887.561       64.946  -395637.303    47826.782       25.665       25.677        2.630        2.574        2.723        2.626        2.592        2.543        2.709        2.538        2.697        2.672        2.494        2.533        3.050        3.002        2.537        2.503        0.485        1.000        1.000        0.000        1.000        2.000        5.000        1.000        0.000        0.000        0.000        0.000        1.000        0.000        1.000        0.000        0.000        0.000        0.000        0.000        2.000        0.000        0.000        0.000        0.000        0.000        3.000        0.000        5.000        1.000        5.000        0.000        0.000        0.000        4.494        0.000       95.506        0.000        0.000        1.826        1.788        2.247
     180.000  -260164.932    27311.360    15948.445    43996.517       72.290  -393905.079    46411.536       25.448       25.356        2.601        2.654        2.669        2.591        2.609        2.543        2.687        2.540        2.724        2.635        2.545        2.563        3.105        2.924        2.567        2.544        0.480        1.000        1.000        0.000        1.000        2.000        4.000        1.000        0.000        0.000        0.000        0.000        0.000        0.000        1.000        0.000        0.000        0.000        0.000        0.000        2.000        0.000        0.000        0.000        0.000        0.000        2.000        0.000        3.000        1.000        3.000        0.000        0.000        0.000        0.000        0.000      100.000        0.000        0.000        2.142        2.076        2.654
     190.000  -260408.171    25278.411    16189.558    43904.689       74.930  -395676.497    49820.738       25.556       25.734        2.675        2.618        2.703        2.573        2.546        2.543        2.714        2.533        2.698        2.675        2.489        2.534        3.046        2.958        2.542        2.531        0.490        2.000        0.000        0.000        1.000        2.000        4.000        1.000        0.000        0.000        0.000        0.000        1.000        0.000        1.000        0.000        0.000        0.000        0.000        0.000        2.000        0.000        0.000        0.000        0.000        0.000        5.000        0.000        4.000        0.000        4.000        0.000        0.000        0.000        0.000        0.000      100.000        0.000        0.000        2.079        2.028        2.530
     200.000  -259256.462    27284.520    15832.077    43952.682       65.294  -392116.778    45725.743       25.534       25.697        2.623        2.652        2.678        2.706        2.584        2.587        2.721        2.578        2.680        2.701        2.528        2.552        3.023        2.960        2.520        2.576        0.495        1.000        0.000        0.000        1.000        2.000        4.000        1.000        0.000        0.000        1.000        0.000        0.000        0.000        1.000        0.000        0.000        0.000        0.000        0.000        2.000        0.000        0.000        0.000        0.000        0.000        7.000        0.000        3.000        3.000        4.000        0.000        0.000        0.000        0.000        0.000      100.000        0.000        0.000        1.989        1.932        2.467
     210.000  -259553.517    25915.816    15888.375    43988.634       74.908  -393020.888    47599.638       25.609       25.781        2.635        2.608        2.723        2.624        2.497        2.566        2.693        2.580        2.691        2.597        2.496        2.557        2.978        2.959        2.497        2.562        0.490        1.000        0.000        0.000        2.000        2.000        2.000        1.000        0.000        0.000        1.000        0.000        1.000        0.000        0.000        0.000        0.000        0.000        0.000        0.000        2.000        0.000        0.000        0.000        0.000        0.000        4.000        0.000        5.000        1.000        3.000        0.000        0.000        0.000        0.000        0.000      100.000        0.000        0.000        1.884        1.860        2.320
     220.000  -259388.551    25644.906    15878.927    43944.894       85.949  -393251.752    48308.523       25.709       25.884        2.610        2.621        2.704        2.617        2.579        2.583        2.711        2.559        2.681        2.601        2.545        2.524        3.012        2.872        2.500        2.524        0.507        1.000        0.000        0.000        1.000        1.000        3.000        1.000        0.000        0.000        0.000        0.000        0.000        0.000        0.000        0.000        0.000        0.000        0.000        0.000        1.000        0.000        0.000        0.000        0.000        0.000        9.000        1.000        2.000        2.000        2.000        0.000        0.000        0.000        0.000        0.000      100.000        0.000        0.000        1.818        1.793        2.244
     230.000  -259555.385    26795.052    15552.186    43785.529       63.216  -393101.215    47349.846       25.996       25.743        2.571        2.556        2.707        2.654        2.496        2.550        2.733        2.527        2.691        2.593        2.509        2.603        2.992        2.914        2.509        2.505        0.491        1.000        0.000        0.000        1.000        2.000        3.000        0.000        0.000        0.000        0.000        0.000        0.000        0.000        0.000        0.000        0.000        0.000        0.000        0.000        1.000        0.000        0.000        0.000        0.000        0.000        8.000        0.000        4.000        2.000        6.000        0.000        0.000        0.000        0.000        0.000      100.000        0.000        0.000        1.885        1.849        2.262
     240.000  -258975.592    25611.118    15238.171    43987.926       60.182  -391137.112    47264.123       25.951       25.658        2.605        2.617        2.648        2.649        2.610        2.579        2.719        2.451        2.761        2.629        2.465        2.563        3.039        2.911        2.513        2.483        0.497        1.000        0.000        0.000        2.000        2.000        3.000        1.000        0.000        0.000        0.000        0.000        0.000        0.000        1.000        0.000        0.000        0.000        0.000        0.000        2.000        0.000        0.000        0.000        0.000        1.000        6.000        2.000        3.000        0.000        5.000        0.000        0.000        0.000        0.000        0.000      100.000        0.000        0.000        2.194        2.155        2.470
     250.000  -259283.130    25926.386    15280.130    43894.456       90.863  -391029.338    46554.373       25.743       25.580        2.565        2.626        2.688        2.685        2.549        2.560        2.718        2.575        2.668        2.642        2.484        2.550        3.021        2.918        2.567        2.550        0.462        1.000        0.000        0.000        1.000        2.000        3.000        0.000        0.000        0.000        0.000        0.000        0.000        0.000        0.000        0.000        0.000        0.000        0.000        0.000        1.000        0.000        0.000        0.000        0.000        1.000       10.000        0.000        5.000        0.000        8.000        2.000        0.000        0.000        0.000        0.000      100.000        0.000        0.000        1.812        1.749        2.215
     260.000  -260112.121    26149.308    15431.965    43988.290       97.027  -392931.987    47153.278       25.879       25.587        2.467        2.558        2.687        2.719        2.636        2.573        2.720        2.515        2.699        2.671        2.505        2.550        2.936        2.911        2.540        2.489        0.484        2.000        0.000        0.000        2.000        2.000        2.000        0.000        0.000        0.000        0.000        0.000        1.000        0.000        1.000        0.000        0.000        0.000        0.000        0.000        1.000        0.000        0.000        0.000        0.000        0.000        5.000        2.000        5.000        1.000        5.000        0.000        0.000        0.000        0.000        0.000      100.000        0.000        0.000        1.985        1.945        2.382
     270.000  -258991.394    26361.558    15566.993    43863.225       83.315  -391803.670    46937.185       25.893       25.672        2.535        2.541        2.687        2.620        2.593        2.600        2.708        2.610        2.716        2.682        2.523        2.536        2.979        2.865        2.523        2.552        0.479        2.000        0.000        0.000        2.000        2.000        2.000        1.000        0.000        0.000        1.000        0.000        0.000        0.000        0.000        0.000        0.000        0.000        0.000        0.000        0.000        0.000        0.000        0.000        0.000        0.000        3.000        0.000        1.000        0.000        5.000        0.000        0.000        0.000        0.000        0.000      100.000        0.000        0.000        1.734        1.673        2.130
     280.000  -259552.427    26283.295    15212.099    43811.785       54.945  -391175.957    46261.405       25.841       25.652        2.458        2.564        2.673        2.643        2.586        2.591        2.697        2.524        2.733        2.698        2.461        2.544        2.977        2.957        2.512        2.572        0.479        2.000        0.000        0.000        2.000        2.000        2.000        0.000        0.000        0.000        0.000        0.000        0.000        0.000        0.000        0.000        0.000        0.000        0.000        0.000        1.000        0.000        0.000        0.000        0.000        1.000        6.000        0.000        3.000        1.000        5.000        0.000        0.000        0.000        0.000        0.000      100.000        0.000        0.000        1.768        1.709        2.162
     290.000  -259280.747    25362.945    15329.111    43899.591       73.127  -392356.380    48410.859       25.669       25.950        2.498        2.678        2.711        2.643        2.607        2.551        2.636        2.598        2.692        2.665        2.517        2.550        3.009        2.922        2.508        2.508        0.502        2.000        0.000        0.000        2.000        2.000        3.000        1.000        0.000        0.000        1.000        0.000        0.000        0.000        1.000        0.000        0.000        0.000        0.000        0.000        2.000        0.000        0.000        0.000        0.000        1.000        7.000        1.000        4.000        1.000        5.000        1.000        0.000        0.000        0.000        0.000      100.000        0.000        0.000        1.690        1.626        2.105
     300.000  -258645.738    26735.385    15369.984    44075.698       83.831  -391501.194    46590.557       25.801       25.665        2.494        2.710        2.705        2.590        2.529        2.606        2.696        2.560        2.684        2.689        2.444        2.612        3.036        2.857        2.517        2.534        0.492        2.000        0.000        0.000        2.000        2.000        2.000        1.000        0.000        0.000        1.000        0.000        1.000        0.000        1.000        0.000        0.000        0.000        0.000        0.000        1.000        0.000        0.000        0.000        0.000        0.000        6.000        1.000        4.000        0.000        6.000        0.000        0.000        0.000        0.000        0.000      100.000        0.000        0.000        1.470        1.437        1.930
     310.000  -258482.263    24797.962    15044.743    44080.048       79.546  -390203.618    47719.056       25.846       25.746        2.489        2.642        2.713        2.618        2.496        2.580        2.693        2.573        2.642        2.660        2.470        2.515        2.953        2.896        2.518        2.545        0.470        2.000        0.000        0.000        2.000        2.000        2.000        0.000        0.000        0.000        0.000        0.000        1.000        0.000        0.000        0.000        0.000        0.000        0.000        0.000        1.000        0.000        0.000        0.000        0.000        0.000        4.000        1.000        5.000        0.000        6.000        3.000        0.000        0.000        0.000        0.000      100.000        0.000        0.000        1.743        1.715        2.111
     320.000  -257888.463    26002.740    15226.522    43833.174       81.641  -389880.640    46848.101       26.073       25.811        2.521        2.720        2.724        2.631        2.526        2.614        2.663        2.572        2.674        2.652        2.535        2.530        2.957        2.954        2.488        2.535        0.511        2.000        0.000        0.000        2.000        2.000        2.000        1.000        0.000        0.000        0.000        0.000        0.000        0.000        0.000        0.000        0.000        0.000        0.000        0.000        0.000        0.000        0.000        0.000        0.000        1.000        9.000        0.000        3.000        1.000        6.000        2.000        0.000        0.000        0.000        0.000      100.000        0.000        0.000        1.962        1.934        2.298
     330.000  -259135.065    25467.303    15400.713    43867.142       82.544  -391324.185    47371.418       25.895       25.555        2.532        2.592        2.707        2.666        2.519        2.602        2.652        2.558        2.686        2.687        2.462        2.503        3.013        2.939        2.523        2.580        0.489        2.000        0.000        0.000        2.000        2.000        2.000        0.000        0.000        0.000        1.000        0.000        0.000        0.000        0.000        0.000        0.000        0.000        0.000        0.000        2.000        0.000        0.000        0.000        0.000        0.000        8.000        1.000        5.000        0.000        7.000        1.000        0.000        0.000        0.000        0.000      100.000        0.000        0.000        2.058        2.047        2.368
     340.000  -258964.719    25963.358    15197.598    43864.926       84.686  -391400.260    47324.973       25.756       25.573        2.512        2.645        2.714        2.692        2.452        2.653        2.701        2.589        2.697        2.679        2.530        2.531        2.963        2.942        2.535        2.536        0.495        1.000        0.000        0.000        2.000        2.000        3.000        1.000        0.000        0.000        1.000        0.000        1.000        0.000        0.000        0.000        0.000        0.000        0.000        0.000        1.000        0.000        0.000        0.000        0.000        0.000        7.000        1.000        1.000        2.000        6.000        2.000        0.000        0.000        0.000        0.000      100.000        0.000        0.000        1.926        1.901        2.223
     350.000  -259480.910    25642.818    14791.548    43910.128       77.850  -390330.006    46426.752       25.950       25.736        2.520        2.733        2.659        2.669        2.513        2.562        2.741        2.565        2.679        2.631        2.503        2.547        2.982        3.014        2.504        2.559        0.496        2.000        1.000        0.000        2.000        1.000        2.000        1.000        0.000        0.000        1.000        0.000        0.000        0.000        0.000        0.000        0.000        0.000        0.000        0.000        1.000        0.000        0.000        0.000        0.000        0.000        3.000        1.000        4.000        1.000        7.000        0.000        0.000        0.000        0.000        0.000      100.000        0.000        0.000        1.957        1.958        2.250
     360.000  -257769.760    24741.780    15050.187    44102.474       80.348  -388082.964    46338.416       25.543       25.471        2.506        2.760        2.717        2.678        2.470        2.614        2.671        2.598        2.658        2.601        2.491        2.531        3.009        2.926        2.520        2.535        0.485        2.000        0.000        0.000        2.000        2.000        3.000        0.000        0.000        0.000        0.000        0.000        1.000        0.000        0.000        0.000        0.000        0.000        0.000        0.000        2.000        0.000        0.000        0.000        0.000        0.000        5.000        1.000        6.000        2.000        4.000        1.000        0.000        0.000        0.000        0.000      100.000        0.000        0.000        1.809        1.769        2.206
     370.000  -258034.500    24493.386    15541.473    43969.121       78.636  -388997.939    46880.823       25.762       25.691        2.561        2.681        2.739        2.621        2.462        2.579        2.672        2.496        2.707        2.599        2.516        2.508        2.926        2.910        2.506        2.572        0.492        2.000        1.000        0.000        2.000        2.000        2.000        0.000        0.000        0.000        0.000        0.000        1.000        0.000        1.000        0.000        0.000        0.000        0.000        0.000        1.000        0.000        0.000        0.000        0.000        0.000        6.000        2.000        2.000        2.000        5.000        0.000        0.000        0.000        0.000        0.000      100.000        0.000        0.000        1.905        1.896        2.239
     380.000  -258338.181    25568.805    15014.860    44208.183       78.837  -390011.899    46803.032       25.776       25.640        2.550        2.580        2.706        2.656        2.482        2.613        2.688        2.527        2.695        2.605        2.450        2.559        3.007        2.916        2.529        2.555        0.485        2.000        0.000        0.000        2.000        2.000        2.000        1.000        0.000        0.000        0.000        0.000        0.000        0.000        0.000        0.000        0.000        0.000        0.000        0.000        1.000        0.000        0.000        0.000        0.000        1.000        5.000        1.000        6.000        1.000        4.000        1.000        0.000        0.000        0.000        0.000      100.000        0.000        0.000        1.859        1.857        2.307
     390.000  -258092.058    25106.298    15202.338    44007.103       82.581  -389881.703    47391.326       25.838       25.754        2.592        2.657        2.678        2.658        2.457        2.630        2.721        2.530        2.679        2.611        2.509        2.602        3.010        2.894        2.538        2.561        0.504        2.000        1.000        0.000        2.000        2.000        2.000        1.000        0.000        0.000        0.000        0.000        0.000        0.000        0.000        0.000        0.000        0.000        0.000        0.000        1.000        0.000        0.000        0.000        0.000        0.000        2.000        1.000        5.000        1.000        5.000        0.000        0.000        0.000        0.000        0.000      100.000        0.000        0.000        1.848        1.848        2.231
     400.000  -257769.684    24921.368    14933.105    44174.536       87.746  -389437.811    47551.371       25.681       25.451        2.512        2.703        2.708        2.676        2.507        2.626        2.706        2.522        2.671        2.672        2.507        2.547        2.995        2.892        2.510        2.545        0.498        2.000        0.000        0.000        2.000        2.000        2.000        1.000        0.000        0.000        0.000        0.000        1.000        0.000        1.000        0.000        0.000        0.000        0.000        0.000        2.000        0.000        0.000        0.000        0.000        0.000        4.000        1.000        5.000        2.000        2.000        1.000        0.000        0.000        0.000        0.000      100.000        0.000        0.000        1.710        1.694        2.041
     410.000  -258159.105    25967.566    15205.236    43934.996       84.777  -389027.285    45675.605       25.812       25.734        2.575        2.716        2.695        2.609        2.488        2.596        2.693        2.509        2.703        2.688        2.536        2.516        3.049        2.881        2.512        2.580        0.498        2.000        0.000        0.000        2.000        2.000        2.000        1.000        0.000        0.000        0.000        0.000        1.000        0.000        0.000        0.000        0.000        0.000        0.000        0.000        1.000        0.000        0.000        0.000        0.000        0.000        6.000        1.000        2.000        0.000        7.000        2.000        0.000        0.000        0.000        0.000      100.000        0.000        0.000        1.765        1.766        2.104
     420.000  -257272.407    24469.334    15059.223    43864.716       89.724  -388221.827    47466.424       25.754       25.932        2.585        2.583        2.691        2.621        2.445        2.562        2.697        2.605        2.668        2.637        2.480        2.579        3.017        2.847        2.506        2.526        0.500        2.000        0.000        0.000        2.000        1.000        2.000        1.000        0.000        0.000        0.000        0.000        1.000        0.000        0.000        0.000        0.000        0.000        0.000        0.000        1.000        0.000        0.000        0.000        0.000        0.000        3.000        0.000        5.000        0.000        6.000        0.000        0.000        0.000        0.000        0.000      100.000        0.000        0.000        1.825        1.801        2.216
     430.000  -258291.908    26038.298    14825.650    43882.745       60.828  -389412.701    46313.272       25.744       25.908        2.515        2.706        2.748        2.688        2.441        2.612        2.691        2.494        2.688        2.665        2.529        2.564        3.030        2.909        2.509        2.549        0.531        2.000        0.000        0.000        2.000        2.000        3.000        1.000        0.000        0.000        0.000        0.000        0.000        0.000        0.000        0.000        0.000        0.000        0.000        0.000        1.000        0.000        0.000        0.000        0.000        0.000        2.000        0.000        0.000        2.000        5.000        1.000        0.000        0.000        0.000        0.000      100.000        0.000        0.000        1.639        1.632        2.015
     440.000  -258818.145    25645.857    15174.991    43746.764       66.739  -389568.857    46116.361       25.755       25.807        2.532        2.632        2.739        2.630        2.458        2.626        2.709        2.564        2.657        2.710        2.521        2.557        3.073        2.966        2.550        2.522        0.508        2.000        0.000        0.000        1.000        1.000        3.000        1.000        0.000        0.000        0.000        0.000        0.000        0.000        0.000        0.000        0.000        0.000        0.000        0.000        2.000        0.000        0.000        0.000        0.000        0.000        4.000        0.000        2.000        1.000        6.000        0.000        0.000        0.000        0.000        0.000      100.000        0.000        0.000        1.590        1.563        1.996
     450.000  -257953.877    26179.929    15058.191    43821.136       81.024  -388970.860    45876.702       25.807       25.769        2.512        2.679        2.725        2.614        2.466        2.595        2.675        2.581        2.662        2.640        2.506        2.527        3.058        2.865        2.495        2.543        0.492        2.000        0.000        0.000        1.000        2.000        3.000        0.000        0.000        0.000        0.000        0.000        0.000        0.000        1.000        0.000        0.000        0.000        0.000        0.000        2.000        0.000        0.000        0.000        0.000        0.000        6.000        1.000        1.000        1.000        3.000        0.000        0.000        0.000        0.000        0.000      100.000        0.000        0.000        1.642        1.610        2.012
     460.000  -258740.964    25735.040    15112.017    43812.467       64.382  -389049.769    45584.900       26.091       25.977        2.527        2.662        2.725        2.684        2.500        2.623        2.679        2.576        2.707        2.665        2.468        2.578        3.153        2.916        2.498        2.579        0.481        2.000        0.000        0.000        1.000        2.000        3.000        0.000        0.000        0.000        0.000        0.000        0.000        0.000        1.000        0.000        0.000        0.000        0.000        0.000        2.000        0.000        0.000        0.000        0.000        0.000        5.000        0.000        0.000        1.000        2.000        1.000        0.000        0.000        0.000        0.000      100.000        0.000        0.000        2.045        2.043        2.270
     470.000  -258070.787    24786.325    14555.521    43826.244       71.167  -388960.064    47650.020       25.880       25.786        2.525        2.657        2.689        2.672        2.458        2.522        2.669        2.587        2.699        2.624        2.475        2.551        3.050        2.881        2.505        2.569        0.478        2.000        0.000        0.000        1.000        1.000        2.000        0.000        0.000        0.000        0.000        0.000        1.000        0.000        3.000        0.000        0.000        0.000        0.000        0.000        2.000        0.000        0.000        0.000        0.000        0.000        4.000        2.000        2.000        3.000        2.000        1.000        0.000        0.000        0.000        0.000      100.000        0.000        0.000        2.110        2.065        2.417
     480.000  -257437.210    25880.272    15278.366    43963.030       89.623  -388319.593    45671.092       25.831       25.578        2.512        2.672        2.695        2.632        2.454        2.541        2.685        2.538        2.681        2.673        2.519        2.568        3.095        2.916        2.488        2.514        0.509        2.000        1.000        0.000        1.000        2.000        2.000        0.000        0.000        0.000        0.000        0.000        1.000        0.000        2.000        0.000        0.000        0.000        0.000        0.000        2.000        0.000        0.000        0.000        0.000        0.000        7.000        0.000        5.000        0.000        4.000        0.000        0.000        0.000        4.494        0.000       95.506        0.000        0.000        2.286        2.279        2.588
     490.000  -257671.013    24294.294    15407.018    43829.106      104.148  -388795.872    47490.292       25.509       25.185        2.538        2.736        2.689        2.706        2.473        2.526        2.730        2.542        2.695        2.643        2.469        2.541        3.044        2.874        2.515        2.561        0.481        2.000        0.000        0.000        1.000        2.000        3.000        1.000        0.000        0.000        0.000        0.000        1.000        0.000        0.000        0.000        0.000        0.000        0.000        0.000        2.000        0.000        0.000        0.000        0.000        0.000        7.000        2.000        1.000        1.000        5.000        2.000        0.000        0.000        4.494        0.000       95.506        0.000        0.000        2.520        2.498        2.788
     500.000  -257996.258    24614.424    14821.120    43945.734       97.072  -388854.124    47379.516       25.992       25.322        2.525        2.726        2.701        2.646        2.481        2.577        2.675        2.535        2.720        2.648        2.530        2.500        3.050        3.015        2.537        2.548        0.493        2.000        0.000        0.000        1.000        2.000        3.000        0.000        0.000        0.000        0.000        0.000        1.000        0.000        1.000        0.000        0.000        0.000        0.000        0.000        1.000        0.000        0.000        0.000        0.000        0.000        5.000        1.000        0.000        0.000        3.000        1.000        0.000        0.000        0.000        0.000      100.000        0.000        0.000        2.397        2.422        2.662
     510.000  -258275.893    26197.365    14974.245    43956.217       82.207  -388797.212    45311.285       25.859       25.284        2.597        2.661        2.703        2.710        2.477        2.536        2.655        2.534        2.690        2.681        2.519        2.498        3.061        3.041        2.556        2.575        0.494        2.000        0.000        0.000        1.000        2.000        2.000        1.000        0.000        0.000        0.000        0.000        0.000        0.000        0.000        0.000        0.000        0.000        0.000        0.000        1.000        0.000        0.000        0.000        0.000        0.000        2.000        1.000        3.000        1.000        4.000        1.000        0.000        0.000        0.000        0.000      100.000        0.000        0.000        2.530        2.568        2.717
     520.000  -258105.386    24486.129    14887.928    44076.967       67.219  -389138.629    47515.001       25.842       25.247        2.523        2.701        2.696        2.702        2.469        2.593        2.732        2.503        2.689        2.679        2.462        2.560        3.050        3.026        2.508        2.472        0.473        2.000        0.000        0.000        1.000        1.000        3.000        0.000        0.000        0.000        0.000        0.000        1.000        0.000        1.000        0.000        0.000        0.000        0.000        0.000        1.000        0.000        0.000        0.000        0.000        0.000        8.000        2.000        1.000        1.000        3.000        0.000        0.000        0.000        0.000        0.000      100.000        0.000        0.000        2.751        2.824        2.871
     530.000  -258070.337    26459.042    14819.782    43944.629      100.626  -388866.727    45472.310       25.558       25.308        2.534        2.592        2.760        2.710        2.511        2.622        2.624        2.581        2.668        2.685        2.483        2.519        3.027        2.945        2.510        2.565        0.497        2.000        0.000        0.000        1.000        1.000        3.000        1.000        0.000        0.000        0.000        0.000        1.000        0.000        0.000        0.000        0.000        0.000        0.000        0.000        1.000        0.000        0.000        0.000        0.000        0.000        2.000        0.000        2.000        0.000        1.000        0.000        0.000        0.000        0.000        0.000      100.000        0.000        0.000        2.481        2.522        2.728
     540.000  -258375.523    25519.452    15001.592    43768.081       79.913  -388726.095    45981.533       25.663       25.127        2.494        2.686        2.695        2.681        2.479        2.597        2.680        2.597        2.658        2.693        2.505        2.560        3.067        2.927        2.532        2.542        0.478        2.000        1.000        0.000        1.000        2.000        3.000        0.000        0.000        0.000        0.000        0.000        1.000        0.000        1.000        0.000        0.000        0.000        0.000        0.000        1.000        0.000        0.000        0.000        0.000        0.000        4.000        0.000        2.000        1.000        4.000        0.000        0.000        0.000        4.494        0.000       95.506        0.000        0.000        3.097        3.153        3.205
     550.000  -258017.223    24924.488    15018.477    43961.453       89.117  -389095.255    47084.498       25.633       25.123        2.467        2.694        2.743        2.642        2.477        2.617        2.662        2.575        2.725        2.665        2.492        2.518        3.088        2.900        2.495        2.625        0.504        2.000        1.000        0.000        1.000        2.000        3.000        0.000        0.000        0.000        0.000        0.000        0.000        0.000        0.000        0.000        0.000        0.000        0.000        0.000        2.000        0.000        0.000        0.000        0.000        1.000        4.000        0.000        1.000        1.000        6.000        1.000        0.000        0.000        4.494        0.000       95.506        0.000        0.000        2.744        2.805        2.941
     560.000  -257978.718    24381.975    14845.663    43809.797       77.478  -388755.257    47661.626       25.815       25.434        2.531        2.632        2.671        2.620        2.509        2.520        2.649        2.494        2.687        2.679        2.477        2.534        3.015        2.930        2.525        2.534        0.499        2.000        0.000        0.000        1.000        2.000        2.000        1.000        0.000        0.000        1.000        0.000        1.000        0.000        0.000        0.000        0.000        0.000        0.000        0.000        1.000        0.000        0.000        0.000        0.000        0.000        4.000        1.000        3.000        1.000        6.000        2.000        0.000        0.000        0.000        0.000      100.000        0.000        0.000        2.593        2.641        2.884
     570.000  -257719.515    25952.120    14833.340    44155.056       88.093  -388503.504    45755.379       25.639       25.358        2.483        2.638        2.691        2.698        2.502        2.529        2.680        2.513        2.712        2.606        2.484        2.529        3.058        2.874        2.542        2.583        0.492        2.000        0.000        0.000        1.000        3.000        1.000        0.000        0.000        0.000        0.000        0.000        1.000        0.000        1.000        0.000        0.000        0.000        0.000        0.000        2.000        0.000        0.000        0.000        0.000        1.000        2.000        0.000        0.000        1.000        4.000        0.000        0.000        0.000        0.000        0.000      100.000        0.000        0.000        2.360        2.383        2.694
     580.000  -257696.131    24949.573    15025.599    43929.099       68.864  -388040.563    46371.297       25.606       25.450        2.544        2.713        2.708        2.689        2.452        2.530        2.712        2.555        2.710        2.666        2.524        2.542        3.021        3.067        2.516        2.437        0.475        2.000        0.000        0.000        1.000        2.000        2.000        0.000        0.000        0.000        0.000        0.000        1.000        0.000        0.000        0.000        0.000        0.000        0.000        0.000        1.000        0.000        0.000        0.000        0.000        1.000        6.000        1.000        2.000        2.000        3.000        1.000        0.000        0.000        0.000        0.000      100.000        0.000        0.000        2.458        2.488        2.743
     590.000  -257326.253    25022.863    15185.527    44155.668       73.388  -388631.629    46867.929       25.551       25.415        2.563        2.742        2.663        2.721        2.508        2.502        2.642        2.470        2.698        2.694        2.519        2.557        3.060        2.968        2.550        2.457        0.509        2.000        1.000        0.000        1.000        2.000        2.000        1.000        0.000        0.000        1.000        0.000        0.000        0.000        0.000        0.000        0.000        0.000        0.000        0.000        1.000        0.000        0.000        0.000        0.000        0.000        3.000        0.000        0.000        2.000        2.000        0.000        0.000        0.000        0.000        0.000      100.000        0.000        0.000        2.594        2.625        2.955
     600.000  -258286.062    25259.240    14816.485    43948.072       62.324  -388460.943    46088.760       25.589       25.251        2.526        2.705        2.696        2.676        2.497        2.525        2.641        2.565        2.692        2.611        2.479        2.511        3.078        2.994        2.506        2.499        0.487        2.000        0.000        0.000        1.000        1.000        2.000        0.000        0.000        0.000        0.000        0.000        0.000        0.000        0.000        0.000        0.000        0.000        0.000        0.000        2.000        0.000        0.000        0.000        0.000        2.000        4.000        1.000        2.000        1.000        2.000        0.000        0.000        0.000        0.000        0.000      100.000        0.000        0.000        3.079        3.106        3.362
     610.000  -257673.279    24367.427    14524.276    44004.548       72.110  -387872.015    47230.374       25.258       25.183        2.490        2.649        2.682        2.608        2.474        2.591        2.701        2.536        2.694        2.594        2.494        2.541        3.026        2.893        2.515        2.491        0.464        2.000        0.000        0.000        1.000        2.000        3.000        1.000        0.000        0.000        0.000        0.000        0.000        0.000        0.000        0.000        0.000        0.000        0.000        0.000        2.000        0.000        0.000        0.000        0.000        2.000        4.000        1.000        1.000        1.000        0.000        0.000        0.000        0.000        0.000        0.000      100.000        0.000        0.000        3.166        3.200        3.479
     620.000  -258672.249    25561.310    15021.269    43855.257       67.395  -389738.823    46561.343       25.701       25.381        2.511        2.711        2.682        2.698        2.493        2.536        2.687        2.483        2.686        2.635        2.556        2.551        3.051        2.889        2.506        2.566        0.480        2.000        0.000        0.000        1.000        1.000        2.000        1.000        0.000        0.000        0.000        0.000        0.000        0.000        0.000        0.000        0.000        0.000        0.000        0.000        2.000        0.000        0.000        0.000        0.000        1.000        3.000        1.000        1.000        1.000        5.000        0.000        0.000        0.000        0.000        0.000      100.000        0.000        0.000        3.122        3.155        3.433
     630.000  -257870.160    25365.762    14870.458    43997.202       84.815  -388483.533    46295.138       25.553       25.627        2.548        2.748        2.673        2.668        2.466        2.570        2.654        2.553        2.689        2.641        2.529        2.560        3.112        2.862        2.524        2.514        0.472        2.000        0.000        0.000        1.000        2.000        2.000        1.000        0.000        0.000        0.000        0.000        0.000        0.000        1.000        0.000        0.000        0.000        0.000        0.000        2.000        0.000        0.000        0.000        0.000        0.000        6.000        1.000        1.000        1.000        2.000        0.000        0.000        0.000        0.000        0.000      100.000        0.000        0.000        2.633        2.643        2.984
     640.000  -257661.286    24464.857    14965.456    44013.088       66.239  -388677.856    47506.929       25.326       25.269        2.553        2.698        2.710        2.666        2.474        2.545        2.665        2.478        2.677        2.653        2.467        2.500        3.074        2.948        2.569        2.590        0.480        2.000        0.000        0.000        1.000        2.000        2.000        1.000        0.000        0.000        0.000        0.000        0.000        0.000        0.000        0.000        0.000        0.000        0.000        0.000        1.000        0.000        0.000        0.000        0.000        0.000        3.000        0.000        2.000        0.000        3.000        0.000        0.000        0.000        0.000        0.000      100.000        0.000        0.000        2.857        2.849        3.124
     650.000  -258213.435    24980.756    15020.210    43771.286       77.936  -388589.015    46525.391       25.470       25.547        2.539        2.740        2.675        2.672        2.498        2.630        2.699        2.575        2.665        2.666        2.501        2.554        2.972        2.973        2.521        2.540        0.483        2.000        0.000        0.000        1.000        2.000        2.000        0.000        0.000        0.000        0.000        0.000        1.000        0.000        0.000        0.000        0.000        0.000        0.000        0.000        1.000        0.000        0.000        0.000        0.000        0.000        5.000        1.000        1.000        1.000        3.000        0.000        0.000        0.000        0.000        0.000      100.000        0.000        0.000        2.839        2.848        3.023
     660.000  -258551.248    24900.067    15212.067    44175.156       97.369  -390588.525    47652.617       25.395       25.297        2.528        2.698        2.690        2.695        2.455        2.526        2.717        2.506        2.710        2.668        2.543        2.550        2.986        2.979        2.505        2.490        0.488        2.000        0.000        0.000        1.000        2.000        2.000        1.000        0.000        0.000        0.000        0.000        1.000        0.000        0.000        0.000        0.000        0.000        0.000        0.000        2.000        0.000        0.000        0.000        0.000        3.000        7.000        0.000        0.000        2.000        2.000        1.000        0.000        0.000        0.000        0.000      100.000        0.000        0.000        2.248        2.272        2.563
     670.000  -258199.858    25608.227    15205.754    43861.060       62.150  -389316.304    46379.254       25.469       25.329        2.589        2.647        2.710        2.715        2.506        2.547        2.656        2.548        2.731        2.692        2.527        2.529        3.119        3.025        2.498        2.565        0.495        2.000        0.000        0.000        1.000        2.000        1.000        1.000        0.000        0.000        0.000        0.000        1.000        0.000        0.000        0.000        0.000        0.000        0.000        0.000        1.000        0.000        0.000        0.000        0.000        1.000        5.000        0.000        1.000        1.000        4.000        0.000        0.000        0.000        0.000        0.000      100.000        0.000        0.000        2.146        2.149        2.550
     680.000  -257920.056    25229.365    15218.678    44019.786       77.958  -388999.240    46533.398       25.344       25.474        2.510        2.564        2.669        2.647        2.479        2.561        2.666        2.593        2.710        2.652        2.499        2.515        3.048        2.927        2.492        2.594        0.484        2.000        1.000        0.000        1.000        1.000        2.000        1.000        0.000        0.000        0.000        0.000        0.000        0.000        0.000        0.000        0.000        0.000        0.000        0.000        1.000        0.000        0.000        0.000        0.000        0.000        5.000        3.000        1.000        1.000        2.000        1.000        0.000        0.000        0.000        0.000      100.000        0.000        0.000        2.372        2.384        2.723
     690.000  -258419.332    24236.157    15085.058    44018.648       91.494  -389784.150    47933.462       25.649       25.547        2.612        2.542        2.675        2.663        2.420        2.527        2.612        2.514        2.681        2.660        2.492        2.559        3.026        2.899        2.461        2.531        0.504        2.000        1.000        0.000        1.000        2.000        2.000        1.000        0.000        0.000        1.000        0.000        1.000        0.000        0.000        0.000        0.000        0.000        0.000        0.000        1.000        0.000        0.000        0.000        0.000        1.000        3.000        1.000        2.000        1.000        4.000        1.000        0.000        0.000        4.494        0.000       95.506        0.000        0.000        2.449        2.497        2.789
     700.000  -257522.802    25086.088    15283.989    44050.110       54.868  -387811.680    45813.823       25.459       25.477        2.511        2.506        2.683        2.677        2.473        2.521        2.641        2.492        2.673        2.617        2.462        2.564        3.023        2.918        2.550        2.564        0.474        2.000        0.000        0.000        1.000        1.000        3.000        1.000        0.000        0.000        0.000        0.000        0.000        0.000        0.000        0.000        0.000        0.000        0.000        0.000        1.000        0.000        0.000        0.000        0.000        1.000        6.000        0.000        3.000        1.000        1.000        0.000        0.000        0.000        4.494        0.000       95.506        0.000        0.000        2.173        2.224        2.609
     710.000  -257784.178    24971.520    15148.680    44147.131       71.285  -390223.050    48100.257       25.617       25.514        2.583        2.536        2.684        2.644        2.455        2.614        2.650        2.473        2.669        2.625        2.432        2.548        3.015        2.981        2.518        2.454        0.483        2.000        0.000        0.000        1.000        1.000        3.000        1.000        0.000        0.000        0.000        0.000        0.000        0.000        0.000        1.000        0.000        0.000        0.000        0.000        1.000        0.000        0.000        0.000        0.000        0.000        5.000        1.000        3.000        1.000        1.000        1.000        0.000        0.000        8.989        0.000       91.011        0.000        0.000        2.024        2.065        2.492
     720.000  -258298.689    26224.107    15493.370    43872.316       64.649  -389744.714    45791.584       25.487       25.609        2.538        2.569        2.687        2.667        2.518        2.622        2.647        2.612        2.715        2.600        2.477        2.591        2.926        2.958        2.491        2.473        0.510        2.000        1.000        0.000        1.000        2.000        3.000        1.000        0.000        0.000        0.000        0.000        0.000        0.000        0.000        0.000        0.000        0.000        0.000        0.000        1.000        0.000        0.000        0.000        0.000        1.000        2.000        1.000        3.000        1.000        1.000        0.000        0.000        0.000        4.494        0.000       95.506        0.000        0.000        2.164        2.194        2.674
     730.000  -257856.673    24945.406    15238.857    43949.822       92.438  -389853.271    47770.075       25.484       25.592        2.536        2.540        2.677        2.691        2.449        2.605        2.707        2.512        2.682        2.634        2.519        2.512        2.997        2.958        2.519        2.466        0.501        2.000        0.000        0.000        1.000        1.000        2.000        1.000        0.000        0.000        0.000        0.000        1.000        0.000        1.000        0.000        0.000        0.000        0.000        0.000        1.000        0.000        0.000        0.000        0.000        2.000        6.000        1.000        1.000        1.000        2.000        0.000        0.000        0.000        4.494        0.000       95.506        0.000        0.000        2.047        2.049        2.547
     740.000  -258520.102    25072.444    15279.573    43926.089       77.229  -389832.212    46956.775       25.584       25.496        2.602        2.538        2.704        2.658        2.473        2.574        2.706        2.575        2.673        2.628        2.489        2.567        2.997        2.966        2.530        2.542        0.490        2.000        0.000        0.000        1.000        2.000        3.000        1.000        0.000        0.000        0.000        0.000        0.000        0.000        0.000        0.000        0.000        0.000        0.000        0.000        1.000        0.000        0.000        0.000        0.000        1.000        2.000        1.000        3.000        1.000        5.000        2.000        0.000        0.000        4.494        0.000       95.506        0.000        0.000        2.394        2.392        2.835
     750.000  -257476.897    25256.609    15168.619    43864.674       74.878  -388239.458    46397.781       25.357       25.106        2.602        2.569        2.706        2.662        2.459        2.600        2.695        2.527        2.696        2.609        2.459        2.496        3.057        2.941        2.559        2.535        0.467        1.000        0.000        0.000        1.000        2.000        2.000        1.000        0.000        0.000        0.000        0.000        1.000        0.000        0.000        0.000        0.000        0.000        0.000        0.000        1.000        0.000        0.000        0.000        0.000        0.000        3.000        1.000        6.000        0.000        4.000        0.000        0.000        0.000        4.494        0.000       95.506        0.000        0.000        2.310        2.298        2.777
     760.000  -258620.100    26356.253    15311.132    43793.178       78.101  -390646.230    46487.465       25.376       25.436        2.533        2.599        2.695        2.669        2.506        2.512        2.714        2.517        2.684        2.621        2.466        2.546        3.073        2.888        2.535        2.550        0.479        2.000        0.000        0.000        1.000        1.000        3.000        1.000        0.000        0.000        0.000        0.000        0.000        0.000        2.000        0.000        0.000        0.000        0.000        0.000        1.000        0.000        0.000        0.000        0.000        1.000        4.000        1.000        1.000        1.000        2.000        0.000        0.000        0.000        4.494        0.000       95.506        0.000        0.000        2.276        2.277        2.742
     770.000  -258467.736    25603.372    15156.834    43860.156       92.552  -390628.558    47447.909       25.286       25.283        2.553        2.605        2.677        2.670        2.495        2.485        2.694        2.556        2.705        2.624        2.476        2.513        3.010        3.002        2.519        2.541        0.495        2.000        0.000        0.000        1.000        2.000        3.000        0.000        0.000        0.000        0.000        0.000        0.000        0.000        0.000        0.000        0.000        0.000        0.000        0.000        1.000        0.000        0.000        0.000        0.000        1.000        2.000        1.000        3.000        1.000        3.000        1.000        0.000        0.000        0.000        0.000      100.000        0.000        0.000        2.280        2.266        2.759
     780.000  -258302.612    26669.363    15268.181    43968.082       66.427  -391698.357    47423.692       25.621       25.637        2.608        2.578        2.718        2.599        2.453        2.551        2.743        2.607        2.685        2.634        2.468        2.514        2.998        2.955        2.513        2.604        0.477        1.000        0.000        0.000        1.000        2.000        2.000        0.000        0.000        0.000        0.000        0.000        1.000        0.000        0.000        0.000        0.000        0.000        0.000        0.000        1.000        0.000        0.000        0.000        0.000        1.000        7.000        1.000        2.000        1.000        5.000        0.000        0.000        0.000        0.000        0.000      100.000        0.000        0.000        2.202        2.197        2.628
     790.000  -258600.999    24836.149    15149.366    44051.258      103.970  -390660.033    47918.292       25.449       25.533        2.542        2.660        2.672        2.684        2.442        2.548        2.668        2.546        2.731        2.613        2.502        2.530        2.965        2.943        2.557        2.536        0.480        2.000        1.000        0.000        1.000        2.000        2.000        0.000        0.000        0.000        0.000        0.000        0.000        0.000        0.000        0.000        0.000        0.000        0.000        0.000        1.000        0.000        0.000        0.000        0.000        2.000        1.000        0.000        2.000        1.000        2.000        1.000        0.000        0.000        0.000        0.000      100.000        0.000        0.000        2.181        2.168        2.614
     800.000  -258400.902    26091.087    15504.893    44093.826       95.378  -389695.185    45509.099       25.450       25.861        2.591        2.547        2.689        2.676        2.506        2.516        2.687        2.506        2.700        2.645        2.480        2.529        3.040        2.965        2.503        2.585        0.504        2.000        1.000        0.000        1.000        2.000        2.000        1.000        0.000        0.000        0.000        0.000        0.000        0.000        0.000        0.000        0.000        0.000        0.000        0.000        1.000        0.000        0.000        0.000        0.000        0.000        3.000        0.000        1.000        2.000        3.000        1.000        0.000        0.000        0.000        0.000      100.000        0.000        0.000        2.479        2.453        2.909
     810.000  -257628.090    24326.379    15206.298    43899.008       82.609  -388486.415    47344.031       25.436       25.717        2.585        2.716        2.709        2.687        2.498        2.530        2.681        2.531        2.739        2.593        2.471        2.560        3.011        2.944        2.511        2.526        0.498        1.000        1.000        0.000        1.000        2.000        2.000        0.000        0.000        0.000        0.000        0.000        0.000        0.000        0.000        0.000        0.000        0.000        0.000        0.000        1.000        0.000        0.000        0.000        0.000        0.000        3.000        2.000        3.000        1.000        4.000        0.000        0.000        0.000        0.000        0.000      100.000        0.000        0.000        2.791        2.788        3.170
     820.000  -257989.206    25403.698    15210.826    43829.186       74.741  -389102.177    46594.520       25.463       25.450        2.537        2.555        2.710        2.712        2.552        2.558        2.703        2.574        2.754        2.603        2.482        2.556        2.997        2.899        2.498        2.519        0.479        1.000        0.000        0.000        1.000        2.000        3.000        1.000        0.000        0.000        0.000        0.000        2.000        0.000        0.000        0.000        0.000        0.000        0.000        0.000        1.000        0.000        0.000        0.000        0.000        0.000        3.000        0.000        3.000        2.000        4.000        2.000        0.000        0.000        0.000        0.000      100.000        0.000        0.000        3.041        3.011        3.371
     830.000  -258851.866    24623.768    15356.921    43941.241       80.128  -389912.578    47058.654       25.496       25.395        2.574        2.632        2.652        2.655        2.496        2.537        2.702        2.526        2.726        2.601        2.492        2.555        3.021        2.986        2.529        2.514        0.512        2.000        1.000        0.000        1.000        2.000        2.000        1.000        0.000        0.000        0.000        0.000        0.000        0.000        0.000        0.000        0.000        0.000        0.000        0.000        1.000        0.000        0.000        0.000        0.000        0.000        3.000        2.000        5.000        3.000        1.000        0.000        0.000        0.000        0.000        0.000      100.000        0.000        0.000        3.057        3.054        3.469
     840.000  -258612.419    24904.894    15563.695    43824.419       86.737  -389648.461    46656.297       25.630       25.491        2.580        2.677        2.696        2.691        2.481        2.545        2.624        2.579        2.718        2.609        2.463        2.542        3.097        2.898        2.541        2.535        0.478        2.000        0.000        0.000        1.000        2.000        3.000        0.000        0.000        0.000        0.000        0.000        1.000        0.000        0.000        0.000        0.000        0.000        0.000        0.000        1.000        0.000        0.000        0.000        0.000        1.000        6.000        0.000        2.000        2.000        1.000        0.000        0.000        0.000        0.000        0.000      100.000        0.000        0.000        3.013        3.030        3.472
     850.000  -258669.458    25492.153    15045.495    43904.861       75.783  -388880.971    45693.222       25.422       25.212        2.597        2.564        2.653        2.621        2.514        2.584        2.680        2.547        2.694        2.634        2.513        2.533        2.920        2.838        2.550        2.501        0.485        2.000        0.000        0.000        1.000        1.000        3.000        0.000        0.000        0.000        0.000        0.000        1.000        0.000        0.000        0.000        0.000        0.000        0.000        0.000        1.000        0.000        0.000        0.000        0.000        0.000        1.000        3.000        4.000        3.000        4.000        2.000        0.000        0.000        0.000        0.000      100.000        0.000        0.000        2.648        2.647        3.107
     860.000  -258784.522    26046.270    15243.116    43965.108       67.335  -389388.892    45282.541       25.939       25.658        2.538        2.485        2.687        2.656        2.514        2.512        2.700        2.592        2.673        2.670        2.490        2.530        3.004        2.934        2.510        2.506        0.496        2.000        0.000        0.000        1.000        2.000        2.000        0.000        0.000        0.000        0.000        0.000        1.000        0.000        0.000        0.000        0.000        0.000        0.000        0.000        1.000        0.000        0.000        0.000        0.000        0.000        5.000        2.000        4.000        2.000        5.000        2.000        0.000        0.000        0.000        0.000      100.000        0.000        0.000        2.370        2.349        2.871
     870.000  -258498.793    25209.224    15344.206    43926.074       82.797  -390219.345    47158.250       25.603       25.522        2.555        2.500        2.704        2.644        2.454        2.559        2.697        2.622        2.700        2.599        2.498        2.519        3.058        2.932        2.593        2.478        0.482        2.000        0.000        0.000        1.000        2.000        2.000        0.000        0.000        0.000        0.000        0.000        0.000        0.000        0.000        0.000        0.000        0.000        0.000        0.000        1.000        0.000        0.000        0.000        0.000        1.000        3.000        1.000        1.000        3.000        4.000        1.000        0.000        0.000        0.000        0.000      100.000        0.000        0.000        2.042        2.044        2.624
     880.000  -258419.745    26217.369    15309.028    43955.837       65.004  -390004.538    46037.554       25.581       25.508        2.554        2.502        2.699        2.660        2.499        2.558        2.665        2.566        2.699        2.588        2.517        2.539        2.991        2.927        2.637        2.536        0.484        2.000        0.000        0.000        1.000        2.000        2.000        0.000        0.000        0.000        0.000        0.000        1.000        0.000        0.000        0.000        0.000        0.000        0.000        0.000        1.000        0.000        0.000        0.000        0.000        0.000        0.000        1.000        6.000        2.000        1.000        1.000        0.000        0.000        0.000        0.000      100.000        0.000        0.000        2.529        2.532        2.992
     890.000  -258136.319    25363.777    14961.363    44090.898       75.766  -388856.585    46228.462       25.863       25.636        2.579        2.486        2.687        2.612        2.468        2.549        2.651        2.559        2.757        2.606        2.567        2.517        2.951        2.937        2.621        2.545        0.489        1.000        0.000        0.000        1.000        2.000        2.000        0.000        0.000        0.000        0.000        0.000        0.000        0.000        1.000        0.000        0.000        0.000        0.000        0.000        1.000        0.000        0.000        0.000        0.000        2.000        4.000        2.000        3.000        2.000        5.000        0.000        0.000        0.000        0.000        0.000      100.000        0.000        0.000        2.345        2.332        2.793
     900.000  -258631.613    25708.777    15005.102    43782.148       95.271  -390100.926    46878.014       25.830       25.728        2.600        2.493        2.690        2.636        2.473        2.579        2.705        2.603        2.687        2.615        2.490        2.594        3.056        3.017        2.660        2.530        0.496        2.000        0.000        0.000        1.000        1.000        2.000        0.000        0.000        0.000        0.000        0.000        1.000        0.000        0.000        0.000        0.000        0.000        0.000        0.000        1.000        0.000        0.000        0.000        0.000        1.000        1.000        2.000        2.000        2.000        3.000        1.000        0.000        0.000        0.000        0.000      100.000        0.000        0.000        2.138        2.109        2.697
     910.000  -257799.053    26384.077    14925.787    43938.875       89.604  -387615.924    44478.528       25.741       25.714        2.609        2.551        2.720        2.648        2.487        2.553        2.703        2.585        2.720        2.685        2.525        2.563        2.996        2.973        2.580        2.510        0.480        2.000        0.000        0.000        1.000        1.000        2.000        0.000        0.000        0.000        0.000        0.000        1.000        0.000        0.000        0.000        0.000        0.000        0.000        0.000        1.000        0.000        0.000        0.000        0.000        0.000        6.000        1.000        2.000        0.000        1.000        2.000        0.000        0.000        0.000        0.000      100.000        0.000        0.000        2.128        2.097        2.768
     920.000  -258754.629    24783.475    15188.838    43901.122       78.249  -389781.788    47075.474       25.541       25.882        2.591        2.503        2.721        2.620        2.437        2.548        2.652        2.532        2.696        2.683        2.477        2.491        2.991        2.884        2.584        2.480        0.498        2.000        0.000        0.000        1.000        2.000        2.000        0.000        0.000        0.000        0.000        0.000        0.000        0.000        0.000        0.000        0.000        0.000        0.000        0.000        2.000        0.000        0.000        0.000        0.000        1.000        2.000        0.000        1.000        1.000        4.000        2.000        0.000        0.000        0.000        0.000      100.000        0.000        0.000        2.264        2.258        2.807
     930.000  -257511.442    25162.609    15186.627    44098.356       49.542  -388691.324    46682.748       25.714       25.721        2.658        2.542        2.701        2.630        2.485        2.495        2.714        2.590        2.691        2.600        2.524        2.533        3.056        2.919        2.598        2.492        0.497        2.000        0.000        0.000        1.000        2.000        1.000        0.000        0.000        0.000        0.000        0.000        1.000        0.000        0.000        0.000        0.000        0.000        0.000        0.000        2.000        0.000        0.000        0.000        0.000        1.000        4.000        1.000        5.000        3.000        3.000        2.000        0.000        0.000        0.000        0.000      100.000        0.000        0.000        2.361        2.314        2.850
     940.000  -259297.467    25137.271    14802.234    44046.664       75.460  -391035.974    47676.878       25.697       25.632        2.671        2.521        2.734        2.646        2.480        2.578        2.634        2.561        2.691        2.585        2.466        2.537        3.036        2.958        2.582        2.506        0.480        2.000        0.000        0.000        1.000        2.000        2.000        0.000        0.000        0.000        0.000        0.000        0.000        0.000        0.000        0.000        0.000        0.000        0.000        0.000        2.000        0.000        0.000        0.000        0.000        3.000        4.000        2.000        4.000        1.000        4.000        2.000        0.000        0.000        0.000        0.000      100.000        0.000        0.000        2.377        2.379        2.832
     950.000  -258271.195    25148.228    15380.568    44034.506       62.919  -390387.686    47490.268       25.546       25.736        2.657        2.483        2.702        2.621        2.460        2.539        2.758        2.539        2.714        2.608        2.494        2.566        2.969        2.975        2.578        2.454        0.482        2.000        0.000        0.000        1.000        2.000        2.000        0.000        0.000        0.000        0.000        0.000        1.000        0.000        1.000        0.000        0.000        0.000        0.000        0.000        1.000        0.000        0.000        0.000        0.000        1.000        1.000        0.000        4.000        2.000        4.000        2.000        0.000        0.000        0.000        0.000      100.000        0.000        0.000        2.370        2.350        2.902
     960.000  -258677.061    25487.676    15218.540    43837.347       91.903  -389805.638    46493.110       25.452       25.718        2.652        2.563        2.728        2.681        2.473        2.547        2.702        2.577        2.703        2.611        2.486        2.538        3.046        2.927        2.584        2.542        0.484        2.000        0.000        0.000        1.000        1.000        2.000        0.000        0.000        0.000        0.000        0.000        1.000        0.000        1.000        0.000        0.000        0.000        0.000        0.000        2.000        0.000        0.000        0.000        0.000        1.000        1.000        1.000        5.000        1.000        2.000        7.000        0.000        0.000        0.000        0.000      100.000        0.000        0.000        2.464        2.454        2.935
     970.000  -258540.892    26119.861    15005.453    44073.982       72.431  -390294.331    46481.711       25.885       25.671        2.680        2.530        2.688        2.638        2.491        2.586        2.709        2.548        2.737        2.628        2.549        2.563        2.999        2.915        2.601        2.496        0.478        1.000        0.000        0.000        1.000        2.000        2.000        0.000        0.000        0.000        0.000        0.000        0.000        0.000        0.000        0.000        0.000        0.000        0.000        0.000        1.000        0.000        0.000        0.000        0.000        1.000        0.000        1.000        2.000        1.000        6.000        6.000        0.000        0.000        0.000        0.000      100.000        0.000        0.000        2.495        2.508        2.937
     980.000  -258574.364    24735.341    15282.959    43973.025       71.739  -391450.160    48812.732       26.059       25.703        2.638        2.519        2.712        2.634        2.441        2.551        2.667        2.495        2.759        2.618        2.477        2.511        3.051        2.986        2.566        2.522        0.481        1.000        0.000        0.000        0.000        2.000        2.000        0.000        0.000        0.000        0.000        0.000        0.000        0.000        0.000        0.000        0.000        0.000        0.000        0.000        2.000        0.000        0.000        0.000        0.000        2.000        6.000        2.000        4.000        3.000        5.000        0.000        0.000        0.000        0.000        0.000      100.000        0.000        0.000        2.182        2.203        2.611
     990.000  -258338.188    24945.619    15306.362    43880.018       76.331  -389183.881    46637.364       26.052       25.700        2.705        2.551        2.705        2.658        2.475        2.610        2.724        2.563        2.717        2.618        2.527        2.487        3.027        2.959        2.606        2.480        0.500        2.000        0.000        0.000        0.000        1.000        2.000        0.000        0.000        0.000        0.000        0.000        0.000        0.000        0.000        0.000        0.000        0.000        0.000        0.000        1.000        0.000        0.000        0.000        0.000        2.000        3.000        1.000        2.000        3.000        3.000        1.000        0.000        0.000        0.000        0.000      100.000        0.000        0.000        1.889        1.925        2.404
    1000.000  -258662.107    25957.003    15425.672    43794.393      105.486  -390602.360    46657.698       25.876       25.520        2.685        2.503        2.693        2.652        2.493        2.625        2.711        2.599        2.681        2.637        2.534        2.536        3.055        2.948        2.587        2.571        0.478        1.000        0.000        0.000        0.000        2.000        2.000        0.000        0.000        0.000        0.000        0.000        0.000        0.000        1.000        0.000        0.000        0.000        0.000        0.000        1.000        0.000        0.000        0.000        0.000        3.000        1.000        1.000        3.000        1.000        3.000        2.000        0.000        0.000        0.000        0.000      100.000        0.000        0.000        1.877        1.921        2.325
     Average  -259978.153    25750.489    15212.372    43946.535       76.933  -392332.358    47367.876       25.715       25.631        2.567        2.622        2.693        2.657        2.512        2.569        2.689        2.547        2.696        2.642        2.503        2.557        3.023        2.941        2.530        2.537        0.489        1.703        0.218        0.000        1.327        1.772        2.535        0.525        0.000        0.000        0.149        0.000        0.475        0.000        0.396        0.010        0.000        0.000        0.000        0.000        1.287        0.000        0.000        0.000        0.000        0.505        4.307        0.822        2.752        1.139        3.911        0.772        0.000        0.000        0.667        0.000       99.333        0.000        0.000        2.110        2.105        2.494

