____Time[ps] Energy[ kJ/mol ]_____Bond _______Angle ____Dihedral ___Planarity _____Coulomb _________VdW _Your result _Your result _Your result _Your result _Your result _Your result _Your result _Your result _Your result _Your result _Your result _Your result _Your result _Your result _Your result _Your result _Your result _Your result _Your result _Your result _Your result _Your result _Your result _Your result _Your result _Your result _Your result _Your result _Your result _Your result _Your result _Your result _Your result _Your result _Your result _Your result _Your result _Your result _Your result _Your result _Your result _Your result _Your result _Your result _Your result _Your result _Your result _Your result _Your result _Your result _Your result _Your result _Your result _Your result _Your result _Your result _Your result _RMSDs[A]:CA ____Backbone __HeavyAtoms
       0.000  -337218.345     8065.996     4933.365    44057.300       15.938  -460236.206    65945.261       25.405       25.239        2.581        2.607        2.582        2.652        3.227        3.036        3.263        2.951        3.174        3.158        3.144        3.207        2.466        2.574        2.552        2.539        0.487        0.000        0.000        1.000        0.000        3.000       10.000        0.000        0.000        2.000        0.000        0.000        0.000        0.000        1.000        1.000        0.000        0.000        0.000        0.000        0.000        0.000        0.000        0.000        0.000        1.000        0.000        1.000        0.000        1.000       11.000        1.000        0.000        0.000        0.000        0.000      100.000        0.000        0.000        0.407        0.443        0.532
      10.000  -253992.097    30831.447    14941.217    43537.724       72.357  -391467.656    48092.815       25.753       25.996        2.564        2.612        2.692        2.645        3.225        3.018        3.241        2.981        3.150        3.238        3.203        3.192        2.492        2.642        2.640        2.486        0.499        0.000        0.000        1.000        0.000        3.000       10.000        0.000        0.000        2.000        0.000        0.000        0.000        0.000        0.000        0.000        0.000        0.000        0.000        0.000        0.000        0.000        0.000        0.000        0.000        0.000        1.000        0.000        0.000        0.000        6.000        0.000        0.000        0.000        0.000        0.000      100.000        0.000        0.000        1.352        1.392        1.606
      20.000  -253802.837    28628.674    14992.167    43552.129       68.247  -389996.528    48952.474       25.940       25.973        2.574        2.659        2.654        2.591        3.215        3.038        3.248        2.893        3.113        3.179        3.215        3.206        2.581        2.610        2.577        2.472        0.511        0.000        0.000        0.000        0.000        3.000        8.000        0.000        0.000        0.000        0.000        0.000        0.000        0.000        1.000        0.000        0.000        0.000        0.000        0.000        0.000        0.000        0.000        0.000        0.000        1.000        1.000        0.000        0.000        0.000        7.000        0.000        0.000        0.000        4.494        0.000       95.506        0.000        0.000        1.371        1.405        1.709
      30.000  -254147.048    27740.101    15266.812    43531.321       63.042  -388806.113    48057.788       26.085       25.949        2.565        2.549        2.682        2.657        3.230        3.081        3.243        2.895        3.256        3.221        3.212        3.185        2.586        2.588        2.624        2.500        0.477        1.000        0.000        1.000        0.000        3.000        8.000        0.000        0.000        0.000        0.000        0.000        0.000        0.000        1.000        0.000        0.000        0.000        0.000        0.000        0.000        0.000        0.000        0.000        0.000        1.000        1.000        1.000        0.000        0.000        3.000        0.000        0.000        0.000        4.494        0.000       95.506        0.000        0.000        1.374        1.401        1.707
      40.000  -253285.417    27707.801    15345.478    43485.202       79.926  -388259.161    48355.338       26.077       25.913        2.571        2.631        2.702        2.673        3.219        3.085        3.244        2.866        3.241        3.194        3.154        3.205        2.555        2.592        2.640        2.527        0.498        1.000        0.000        1.000        0.000        2.000       10.000        0.000        0.000        0.000        0.000        0.000        0.000        0.000        1.000        0.000        0.000        0.000        0.000        0.000        0.000        0.000        0.000        0.000        0.000        1.000        1.000        1.000        0.000        1.000        6.000        0.000        0.000        0.000        0.000        0.000      100.000        0.000        0.000        1.578        1.598        1.916
      50.000  -253058.260    27111.810    15646.527    43576.591       67.705  -388744.521    49283.628       25.900       25.866        2.547        2.629        2.703        2.612        3.260        3.045        3.266        2.855        3.265        3.239        3.202        3.273        2.499        2.623        2.615        2.506        0.454        1.000        0.000        0.000        0.000        2.000        8.000        0.000        0.000        0.000        0.000        0.000        0.000        0.000        2.000        0.000        0.000        0.000        0.000        0.000        0.000        0.000        0.000        0.000        0.000        1.000        2.000        1.000        0.000        1.000        5.000        0.000        0.000        0.000        4.494        0.000       95.506        0.000        0.000        1.614        1.644        1.918
      60.000  -252943.614    26989.538    15458.748    43489.895       74.250  -386662.170    47706.125       25.819       25.613        2.543        2.553        2.723        2.581        3.223        3.051        3.246        2.931        3.284        3.210        3.189        3.238        2.555        2.591        2.588        2.595        0.483        1.000        0.000        0.000        0.000        1.000        8.000        0.000        0.000        1.000        0.000        0.000        0.000        0.000        1.000        0.000        0.000        0.000        0.000        0.000        0.000        0.000        0.000        0.000        0.000        1.000        0.000        0.000        0.000        1.000        8.000        0.000        0.000        0.000        4.494        0.000       95.506        0.000        0.000        2.010        2.036        2.214
      70.000  -252467.678    27285.249    15676.523    43539.445       93.165  -386087.241    47025.182       25.938       25.676        2.580        2.555        2.717        2.611        3.256        3.068        3.249        2.880        3.276        3.239        3.148        3.206        2.472        2.648        2.580        2.571        0.493        1.000        0.000        0.000        0.000        1.000        8.000        0.000        0.000        0.000        0.000        0.000        0.000        0.000        0.000        1.000        0.000        0.000        0.000        0.000        0.000        0.000        0.000        0.000        0.000        0.000        2.000        2.000        0.000        1.000       10.000        0.000        0.000        0.000        0.000        0.000      100.000        0.000        0.000        2.339        2.391        2.483
      80.000  -252199.539    26706.389    15472.110    43659.362       83.377  -386130.898    48010.119       25.984       25.721        2.534        2.531        2.681        2.595        3.213        3.113        3.223        2.884        3.257        3.199        3.179        3.232        2.559        2.573        2.563        2.562        0.502        1.000        0.000        0.000        0.000        1.000        8.000        0.000        0.000        1.000        0.000        0.000        0.000        1.000        2.000        1.000        0.000        0.000        0.000        0.000        0.000        0.000        0.000        0.000        0.000        0.000        0.000        0.000        0.000        1.000       10.000        0.000        0.000        0.000        4.494        0.000       95.506        0.000        0.000        2.254        2.286        2.488
      90.000  -251686.885    26431.570    15722.405    43677.168       67.361  -385370.207    47784.818       25.805       25.496        2.636        2.507        2.689        2.668        3.195        3.041        3.225        2.950        3.222        3.242        3.189        3.278        2.482        2.590        2.592        2.551        0.482        1.000        0.000        0.000        0.000        0.000        9.000        0.000        0.000        0.000        0.000        0.000        0.000        0.000        2.000        0.000        0.000        0.000        0.000        0.000        0.000        0.000        0.000        0.000        0.000        0.000        0.000        0.000        0.000        2.000        7.000        0.000        0.000        0.000        0.000        0.000      100.000        0.000        0.000        1.549        1.583        1.986
     100.000  -251473.524    26190.239    15375.704    43528.633       61.942  -383052.088    46422.046       26.180       25.969        2.610        2.529        2.675        2.663        3.156        3.062        3.296        2.869        3.250        3.251        3.162        3.260        2.529        2.605        2.576        2.582        0.496        1.000        0.000        0.000        0.000        1.000        9.000        0.000        0.000        0.000        0.000        0.000        0.000        0.000        1.000        0.000        0.000        0.000        0.000        0.000        0.000        0.000        0.000        0.000        0.000        0.000        0.000        0.000        0.000        0.000       11.000        0.000        0.000        0.000        0.000        0.000      100.000        0.000        0.000        1.856        1.912        2.211
     110.000  -251468.511    26987.315    15594.336    43589.857       89.707  -383548.484    45818.759       26.308       25.867        2.630        2.506        2.657        2.664        3.227        3.032        3.325        2.925        3.265        3.283        3.140        3.223        2.529        2.606        2.561        2.516        0.507        1.000        0.000        0.000        0.000        1.000        7.000        0.000        0.000        1.000        0.000        0.000        0.000        0.000        1.000        0.000        0.000        0.000        0.000        0.000        0.000        0.000        0.000        0.000        0.000        0.000        0.000        1.000        0.000        1.000        9.000        0.000        0.000        0.000        0.000        0.000      100.000        0.000        0.000        1.586        1.622        2.097
     120.000  -250207.062    26623.050    15649.665    43628.204       61.921  -382480.003    46310.102       26.260       25.955        2.587        2.538        2.683        2.641        3.263        3.028        3.276        2.908        3.238        3.241        3.158        3.162        2.478        2.599        2.604        2.570        0.466        1.000        0.000        0.000        0.000        1.000        9.000        0.000        0.000        1.000        0.000        0.000        0.000        0.000        0.000        0.000        0.000        0.000        0.000        0.000        0.000        0.000        0.000        0.000        0.000        4.000        2.000        0.000        0.000        1.000        8.000        1.000        0.000        0.000        0.000        0.000      100.000        0.000        0.000        1.678        1.698        2.114
     130.000  -250765.902    26075.029    15424.874    43436.625       69.710  -382262.314    46490.174       26.307       25.940        2.566        2.541        2.687        2.587        3.217        3.080        3.251        2.886        3.273        3.233        3.175        3.242        2.499        2.551        2.613        2.558        0.506        1.000        0.000        0.000        0.000        2.000        9.000        0.000        0.000        0.000        0.000        0.000        0.000        0.000        3.000        0.000        0.000        0.000        0.000        0.000        0.000        0.000        0.000        0.000        0.000        1.000        1.000        2.000        0.000        1.000       11.000        0.000        0.000        0.000        0.000        0.000      100.000        0.000        0.000        1.941        1.959        2.307
     140.000  -251576.137    26791.864    15169.134    43474.263       73.105  -383088.712    46004.210       26.216       25.947        2.639        2.527        2.677        2.670        3.282        3.006        3.278        2.983        3.202        3.238        3.199        3.240        2.489        2.530        2.560        2.545        0.505        1.000        0.000        0.000        0.000        1.000        7.000        0.000        0.000        0.000        0.000        0.000        0.000        0.000        2.000        0.000        0.000        0.000        0.000        0.000        0.000        0.000        0.000        0.000        0.000        1.000        1.000        0.000        0.000        1.000       10.000        0.000        0.000        0.000        0.000        0.000      100.000        0.000        0.000        1.742        1.763        2.267
     150.000  -250411.813    25872.019    15444.897    43715.361       78.976  -381231.833    45708.768       26.170       25.668        2.620        2.529        2.727        2.586        3.209        3.046        3.311        2.947        3.192        3.239        3.159        3.275        2.542        2.529        2.578        2.466        0.476        1.000        0.000        0.000        0.000        1.000        6.000        0.000        0.000        1.000        0.000        0.000        0.000        0.000        0.000        0.000        0.000        0.000        0.000        0.000        0.000        0.000        0.000        0.000        0.000        1.000        0.000        0.000        0.000        1.000       12.000        0.000        0.000        0.000        0.000        0.000      100.000        0.000        0.000        1.785        1.812        2.405
     160.000  -250343.613    25004.969    15259.910    43613.244       81.275  -381411.296    47108.285       26.122       25.824        2.601        2.542        2.698        2.559        3.223        3.075        3.256        2.951        3.273        3.191        3.158        3.260        2.525        2.568        2.598        2.551        0.484        1.000        0.000        0.000        0.000        1.000        8.000        0.000        0.000        0.000        0.000        0.000        0.000        0.000        1.000        0.000        0.000        0.000        0.000        0.000        0.000        0.000        0.000        0.000        0.000        0.000        1.000        0.000        0.000        2.000        8.000        0.000        0.000        0.000        0.000        0.000      100.000        0.000        0.000        2.055        2.109        2.552
     170.000  -250431.923    24917.863    15231.046    43607.019      102.741  -380779.506    46488.916       26.063       25.564        2.619        2.569        2.704        2.608        3.224        3.016        3.248        2.963        3.244        3.247        3.173        3.214        2.580        2.557        2.590        2.613        0.478        1.000        0.000        0.000        0.000        1.000        6.000        0.000        0.000        0.000        0.000        0.000        0.000        0.000        2.000        2.000        0.000        0.000        0.000        0.000        0.000        0.000        0.000        0.000        0.000        2.000        1.000        0.000        0.000        1.000       15.000        0.000        0.000        0.000        0.000        0.000      100.000        0.000        0.000        1.993        2.038        2.564
     180.000  -250540.117    25677.331    14881.588    43561.320       68.050  -379931.872    45203.464       25.880       25.692        2.653        2.549        2.691        2.579        3.214        3.086        3.302        2.997        3.223        3.265        3.168        3.235        2.493        2.630        2.651        2.514        0.485        1.000        0.000        0.000        0.000        1.000        6.000        0.000        0.000        0.000        0.000        0.000        0.000        0.000        1.000        0.000        0.000        0.000        0.000        0.000        0.000        0.000        0.000        0.000        0.000        0.000        0.000        2.000        0.000        1.000       13.000        0.000        0.000        0.000        0.000        0.000      100.000        0.000        0.000        2.235        2.263        2.760
     190.000  -249955.341    26296.807    14877.732    43498.899       77.953  -379541.200    44834.467       25.906       25.727        2.602        2.461        2.673        2.591        3.298        3.071        3.231        2.976        3.303        3.235        3.170        3.187        2.489        2.612        2.601        2.579        0.474        1.000        0.000        1.000        0.000        1.000        6.000        0.000        0.000        1.000        0.000        0.000        0.000        0.000        0.000        0.000        0.000        0.000        0.000        0.000        0.000        0.000        0.000        0.000        0.000        3.000        0.000        0.000        0.000        0.000        9.000        0.000        0.000        0.000        0.000        0.000      100.000        0.000        0.000        2.217        2.253        2.819
     200.000  -250118.903    25248.350    14757.489    43694.737       81.543  -380977.673    47076.651       26.093       26.100        2.559        2.560        2.652        2.662        3.237        3.049        3.290        2.990        3.200        3.223        3.186        3.178        2.548        2.614        2.642        2.522        0.449        1.000        0.000        0.000        0.000        1.000        8.000        0.000        0.000        1.000        0.000        0.000        0.000        0.000        1.000        2.000        0.000        0.000        0.000        0.000        0.000        0.000        0.000        0.000        0.000        2.000        1.000        0.000        0.000        0.000        9.000        0.000        0.000        0.000        0.000        0.000      100.000        0.000        0.000        2.316        2.346        2.866
     210.000  -250254.128    25990.686    15033.166    43704.775       69.060  -381959.173    46907.359       26.250       26.017        2.555        2.536        2.725        2.596        3.268        3.067        3.213        2.954        3.290        3.240        3.187        3.134        2.496        2.566        2.614        2.517        0.494        1.000        0.000        0.000        0.000        1.000        7.000        0.000        0.000        0.000        0.000        0.000        0.000        0.000        3.000        1.000        0.000        0.000        0.000        0.000        0.000        0.000        0.000        0.000        0.000        1.000        1.000        1.000        0.000        0.000       11.000        0.000        0.000        0.000        0.000        0.000      100.000        0.000        0.000        2.639        2.681        2.960
     220.000  -249494.141    25664.991    15164.542    43541.108       87.040  -380681.563    46729.741       26.226       25.942        2.551        2.523        2.700        2.597        3.221        3.059        3.223        2.993        3.259        3.221        3.187        3.203        2.457        2.586        2.587        2.586        0.487        1.000        0.000        0.000        0.000        1.000        8.000        0.000        0.000        0.000        0.000        0.000        0.000        0.000        1.000        0.000        0.000        0.000        0.000        0.000        0.000        0.000        0.000        0.000        0.000        1.000        1.000        1.000        0.000        0.000        8.000        0.000        0.000        0.000        0.000        0.000      100.000        0.000        0.000        2.160        2.207        2.735
     230.000  -249733.819    23892.871    14940.070    43620.315       73.129  -379871.953    47611.750       26.087       25.653        2.617        2.526        2.682        2.600        3.220        2.974        3.275        2.947        3.250        3.198        3.168        3.245        2.490        2.634        2.595        2.495        0.496        1.000        0.000        0.000        0.000        2.000        7.000        0.000        0.000        1.000        0.000        0.000        0.000        0.000        2.000        0.000        0.000        0.000        0.000        0.000        0.000        0.000        0.000        0.000        0.000        0.000        0.000        1.000        0.000        0.000        7.000        0.000        0.000        0.000        0.000        0.000      100.000        0.000        0.000        1.988        2.026        2.691
     240.000  -249362.320    26640.532    15134.940    43433.529       77.530  -378200.818    43551.966       26.304       26.066        2.596        2.539        2.712        2.671        3.190        3.027        3.276        2.981        3.280        3.244        3.182        3.212        2.506        2.612        2.644        2.544        0.478        1.000        0.000        1.000        0.000        1.000        7.000        0.000        0.000        0.000        0.000        0.000        0.000        0.000        3.000        0.000        0.000        0.000        0.000        0.000        0.000        0.000        0.000        0.000        0.000        0.000        1.000        0.000        1.000        1.000        6.000        0.000        0.000        0.000        0.000        0.000      100.000        0.000        0.000        2.054        2.116        2.637
     250.000  -249425.182    25889.199    14717.903    43654.635      103.771  -379612.415    45821.725       26.220       25.874        2.574        2.545        2.723        2.635        3.328        2.975        3.276        2.946        3.269        3.226        3.144        3.247        2.525        2.613        2.657        2.580        0.499        1.000        0.000        1.000        0.000        2.000        9.000        0.000        0.000        1.000        0.000        0.000        0.000        0.000        1.000        0.000        0.000        0.000        0.000        0.000        0.000        0.000        0.000        0.000        0.000        0.000        1.000        1.000        0.000        0.000        6.000        1.000        0.000        0.000        0.000        0.000      100.000        0.000        0.000        2.117        2.171        2.691
     260.000  -249041.992    25508.137    15331.334    43519.401       71.905  -379049.916    45577.147       26.049       26.083        2.611        2.543        2.684        2.619        3.250        3.080        3.231        2.956        3.229        3.227        3.167        3.281        2.446        2.590        2.601        2.583        0.484        1.000        0.000        1.000        0.000        1.000        7.000        0.000        0.000        1.000        0.000        0.000        0.000        0.000        1.000        1.000        0.000        0.000        0.000        0.000        0.000        0.000        0.000        0.000        0.000        0.000        1.000        0.000        0.000        1.000        9.000        0.000        0.000        0.000        0.000        0.000      100.000        0.000        0.000        2.311        2.344        2.888
     270.000  -249411.028    26503.384    14780.905    43412.196       61.438  -379269.469    45100.517       26.262       26.095        2.597        2.520        2.705        2.603        3.234        3.025        3.188        2.982        3.272        3.256        3.177        3.236        2.492        2.553        2.589        2.555        0.501        1.000        0.000        0.000        0.000        1.000       10.000        0.000        0.000        1.000        0.000        0.000        0.000        0.000        1.000        0.000        0.000        0.000        0.000        0.000        0.000        0.000        0.000        0.000        0.000        1.000        1.000        1.000        0.000        1.000        9.000        0.000        0.000        0.000        0.000        0.000      100.000        0.000        0.000        2.499        2.554        2.979
     280.000  -249031.209    24854.796    15172.050    43609.686       68.944  -378915.663    46178.979       25.800       25.459        2.557        2.530        2.734        2.616        3.225        3.000        3.199        2.976        3.240        3.271        3.157        3.192        2.512        2.584        2.587        2.538        0.479        1.000        0.000        1.000        0.000        2.000        8.000        0.000        0.000        0.000        0.000        0.000        0.000        0.000        1.000        0.000        0.000        0.000        0.000        0.000        0.000        0.000        0.000        0.000        0.000        0.000        1.000        0.000        0.000        0.000        7.000        0.000        0.000        0.000        0.000        0.000      100.000        0.000        0.000        2.580        2.645        3.040
     290.000  -249275.664    24929.015    15412.284    43663.548      118.923  -378728.342    45328.909       25.850       25.571        2.566        2.536        2.714        2.653        3.245        3.042        3.224        2.869        3.254        3.197        3.136        3.315        2.472        2.526        2.616        2.525        0.502        1.000        0.000        0.000        0.000        2.000        9.000        0.000        0.000        0.000        0.000        0.000        0.000        0.000        1.000        0.000        0.000        0.000        0.000        0.000        0.000        0.000        0.000        0.000        0.000        3.000        1.000        0.000        0.000        0.000        9.000        0.000        0.000        0.000        0.000        0.000      100.000        0.000        0.000        2.601        2.660        3.005
     300.000  -249097.530    24337.502    15187.747    43498.052       55.259  -379120.867    46944.777       26.186       25.992        2.519        2.506        2.735        2.646        3.173        3.031        3.199        2.953        3.226        3.221        3.165        3.230        2.472        2.557        2.616        2.514        0.483        1.000        0.000        0.000        0.000        2.000       10.000        0.000        0.000        0.000        0.000        0.000        0.000        0.000        1.000        0.000        0.000        0.000        0.000        0.000        0.000        0.000        0.000        0.000        0.000        2.000        0.000        1.000        0.000        0.000        5.000        0.000        0.000        0.000        0.000        0.000      100.000        0.000        0.000        3.019        3.096        3.388
     310.000  -249578.087    24961.408    14822.026    43524.391       89.618  -378580.595    45605.066       26.023       25.627        2.545        2.582        2.703        2.621        3.203        3.075        3.269        3.007        3.287        3.243        3.130        3.188        2.515        2.571        2.627        2.499        0.488        1.000        0.000        0.000        0.000        2.000        8.000        0.000        0.000        0.000        0.000        0.000        0.000        0.000        2.000        0.000        0.000        0.000        0.000        0.000        0.000        0.000        0.000        0.000        0.000        0.000        4.000        0.000        0.000        0.000        5.000        0.000        0.000        0.000        0.000        0.000      100.000        0.000        0.000        2.980        3.032        3.332
     320.000  -248973.304    24490.454    15175.834    43699.871       68.710  -377325.885    44917.712       26.008       25.520        2.528        2.537        2.730        2.618        3.212        3.089        3.214        2.928        3.254        3.194        3.177        3.166        2.534        2.637        2.633        2.460        0.507        1.000        0.000        0.000        0.000        1.000        8.000        0.000        0.000        0.000        0.000        0.000        0.000        0.000        1.000        0.000        0.000        0.000        0.000        0.000        0.000        0.000        0.000        0.000        0.000        0.000        0.000        0.000        1.000        0.000        6.000        0.000        0.000        0.000        0.000        0.000      100.000        0.000        0.000        3.032        3.086        3.395
     330.000  -248423.372    24395.086    14865.981    43748.119       89.981  -378861.792    47339.253       25.828       25.289        2.521        2.562        2.684        2.575        3.204        3.053        3.240        2.937        3.245        3.189        3.196        3.199        2.560        2.650        2.665        2.501        0.496        1.000        0.000        0.000        0.000        1.000        6.000        0.000        0.000        0.000        1.000        0.000        0.000        0.000        2.000        0.000        0.000        0.000        0.000        0.000        0.000        0.000        0.000        0.000        0.000        1.000        1.000        0.000        1.000        0.000        8.000        0.000        0.000        0.000        0.000        0.000      100.000        0.000        0.000        2.949        3.021        3.388
     340.000  -248703.873    24941.721    15111.173    43432.303       91.450  -376576.074    44295.554       25.945       25.775        2.606        2.554        2.710        2.619        3.160        3.054        3.245        3.014        3.174        3.209        3.174        3.234        2.495        2.612        2.716        2.520        0.485        1.000        0.000        0.000        0.000        1.000        6.000        0.000        0.000        0.000        0.000        0.000        0.000        0.000        0.000        0.000        0.000        0.000        0.000        0.000        0.000        0.000        0.000        0.000        0.000        0.000        3.000        0.000        1.000        0.000        6.000        0.000        0.000        0.000        4.494        0.000       95.506        0.000        0.000        3.259        3.345        3.591
     350.000  -247828.640    24343.293    15112.984    43751.826       72.511  -376993.849    45884.595       25.909       25.910        2.604        2.508        2.696        2.596        3.235        3.034        3.255        2.973        3.245        3.316        3.187        3.235        2.539        2.593        2.721        2.552        0.467        1.000        0.000        0.000        0.000        1.000        9.000        0.000        0.000        1.000        0.000        0.000        0.000        0.000        0.000        0.000        0.000        0.000        0.000        0.000        0.000        0.000        0.000        0.000        0.000        1.000        3.000        1.000        1.000        0.000       12.000        0.000        0.000        0.000        4.494        0.000       95.506        0.000        0.000        2.942        3.011        3.360
     360.000  -249177.116    24123.188    15070.905    43341.688       71.561  -377009.496    45225.038       25.952       26.106        2.589        2.548        2.706        2.580        3.244        3.004        3.195        2.996        3.231        3.269        3.194        3.180        2.539        2.555        2.674        2.517        0.498        1.000        0.000        1.000        0.000        2.000        7.000        0.000        0.000        0.000        0.000        0.000        0.000        0.000        1.000        0.000        0.000        0.000        0.000        0.000        0.000        0.000        0.000        0.000        0.000        0.000        1.000        0.000        0.000        0.000        5.000        1.000        0.000        0.000        0.000        0.000      100.000        0.000        0.000        2.917        2.968        3.284
     370.000  -248277.124    24992.657    15153.019    43500.885       85.522  -377694.667    45685.460       25.878       25.699        2.629        2.566        2.674        2.608        3.250        2.987        3.257        3.022        3.236        3.207        3.193        3.188        2.580        2.571        2.684        2.478        0.487        0.000        0.000        0.000        0.000        1.000        7.000        0.000        0.000        0.000        0.000        0.000        0.000        0.000        1.000        0.000        0.000        0.000        0.000        0.000        0.000        0.000        0.000        0.000        0.000        1.000        2.000        0.000        0.000        0.000        7.000        0.000        0.000        0.000        0.000        0.000      100.000        0.000        0.000        2.762        2.822        3.146
     380.000  -249489.411    24690.933    15172.336    43376.523       88.170  -378471.511    45654.138       26.120       25.787        2.607        2.526        2.678        2.605        3.187        2.977        3.224        2.926        3.243        3.261        3.229        3.208        2.509        2.578        2.694        2.491        0.476        1.000        0.000        0.000        0.000        2.000        6.000        0.000        0.000        0.000        0.000        0.000        0.000        0.000        1.000        0.000        0.000        0.000        0.000        0.000        0.000        0.000        0.000        0.000        0.000        1.000        2.000        0.000        2.000        0.000        5.000        0.000        0.000        0.000        0.000        0.000      100.000        0.000        0.000        2.613        2.653        3.071
     390.000  -249089.172    25002.735    15079.760    43406.343       95.882  -377800.415    45126.524       25.759       25.636        2.618        2.565        2.708        2.672        3.200        3.045        3.231        3.028        3.266        3.294        3.153        3.210        2.521        2.608        2.751        2.518        0.520        1.000        0.000        0.000        0.000        2.000        8.000        0.000        0.000        0.000        0.000        0.000        0.000        0.000        1.000        0.000        0.000        0.000        0.000        0.000        0.000        0.000        0.000        0.000        0.000        0.000        1.000        0.000        1.000        0.000        5.000        0.000        0.000        0.000        0.000        0.000      100.000        0.000        0.000        2.301        2.366        2.849
     400.000  -249012.903    23693.555    14913.363    43497.146       75.256  -378042.474    46850.251       25.985       25.919        2.595        2.638        2.729        2.623        3.278        3.083        3.285        2.956        3.220        3.269        3.217        3.182        2.558        2.602        2.704        2.501        0.474        1.000        0.000        0.000        0.000        2.000        8.000        0.000        0.000        0.000        1.000        0.000        0.000        0.000        1.000        0.000        0.000        0.000        0.000        0.000        0.000        0.000        0.000        0.000        0.000        0.000        0.000        0.000        0.000        1.000        7.000        0.000        0.000        0.000        0.000        0.000      100.000        0.000        0.000        2.762        2.793        3.263
     410.000  -249080.030    24431.748    15032.917    43483.642       92.362  -377078.771    44958.073       25.975       25.767        2.557        2.640        2.641        2.647        3.105        3.056        3.211        2.947        3.294        3.294        3.165        3.210        2.548        2.594        2.645        2.495        0.472        1.000        0.000        0.000        0.000        2.000        7.000        0.000        0.000        0.000        0.000        0.000        0.000        0.000        1.000        0.000        0.000        0.000        0.000        0.000        0.000        0.000        0.000        0.000        0.000        0.000        0.000        0.000        0.000        0.000        8.000        0.000        0.000        0.000        0.000        0.000      100.000        0.000        0.000        2.548        2.601        3.022
     420.000  -248636.237    25208.277    14925.563    43298.677       73.868  -377028.925    44886.303       26.058       25.685        2.582        2.609        2.672        2.683        3.268        3.107        3.222        3.035        3.269        3.228        3.178        3.214        2.515        2.618        2.718        2.501        0.489        1.000        0.000        1.000        0.000        2.000        4.000        0.000        0.000        0.000        0.000        0.000        0.000        0.000        1.000        0.000        0.000        0.000        0.000        0.000        0.000        0.000        0.000        0.000        0.000        1.000        1.000        0.000        0.000        0.000       13.000        0.000        0.000        0.000        0.000        0.000      100.000        0.000        0.000        2.329        2.414        2.872
     430.000  -248786.529    25477.263    15296.435    43164.102       89.136  -376992.351    44178.885       25.944       25.621        2.580        2.607        2.728        2.656        3.280        3.023        3.277        2.981        3.303        3.232        3.150        3.180        2.536        2.603        2.701        2.579        0.503        1.000        0.000        0.000        0.000        2.000        8.000        0.000        0.000        1.000        0.000        0.000        0.000        0.000        0.000        0.000        0.000        0.000        0.000        0.000        0.000        0.000        0.000        0.000        0.000        1.000        3.000        0.000        1.000        1.000        8.000        0.000        0.000        0.000        0.000        0.000      100.000        0.000        0.000        2.296        2.318        2.930
     440.000  -248922.822    23821.790    15190.891    43359.527       74.754  -377163.739    45793.954       25.967       25.792        2.572        2.618        2.669        2.645        3.231        3.025        3.215        3.013        3.291        3.251        3.135        3.193        2.505        2.598        2.682        2.491        0.482        1.000        0.000        0.000        0.000        1.000        6.000        0.000        0.000        0.000        0.000        0.000        0.000        0.000        2.000        0.000        0.000        0.000        0.000        0.000        0.000        0.000        0.000        0.000        0.000        0.000        1.000        1.000        0.000        0.000       10.000        0.000        0.000        0.000        0.000        0.000      100.000        0.000        0.000        2.334        2.379        2.903
     450.000  -248168.845    23665.338    15337.164    43530.699       85.193  -377511.489    46724.250       26.019       25.699        2.565        2.614        2.668        2.631        3.232        3.163        3.306        2.944        3.239        3.215        3.186        3.170        2.473        2.595        2.684        2.533        0.476        1.000        0.000        0.000        0.000        1.000        4.000        0.000        0.000        0.000        0.000        0.000        0.000        0.000        1.000        0.000        0.000        0.000        0.000        0.000        0.000        0.000        0.000        0.000        0.000        1.000        1.000        0.000        1.000        0.000        9.000        0.000        0.000        0.000        0.000        0.000      100.000        0.000        0.000        2.117        2.158        2.697
     460.000  -248682.932    23405.374    14917.671    43784.532       64.455  -377748.851    46893.888       26.105       25.767        2.584        2.688        2.672        2.630        3.242        3.082        3.252        2.918        3.266        3.193        3.168        3.218        2.509        2.581        2.641        2.610        0.482        1.000        0.000        0.000        0.000        1.000        5.000        0.000        0.000        0.000        0.000        0.000        0.000        0.000        0.000        0.000        0.000        0.000        0.000        0.000        0.000        0.000        0.000        0.000        0.000        2.000        1.000        1.000        0.000        1.000        8.000        0.000        0.000        0.000        0.000        0.000      100.000        0.000        0.000        1.810        1.825        2.438
     470.000  -248424.057    24151.933    15038.479    43411.950       84.598  -377068.821    45957.803       26.322       25.810        2.626        2.616        2.665        2.623        3.209        3.028        3.218        2.960        3.286        3.216        3.177        3.168        2.539        2.613        2.724        2.589        0.473        0.000        0.000        0.000        0.000        1.000        5.000        0.000        0.000        0.000        0.000        0.000        0.000        0.000        0.000        0.000        0.000        0.000        0.000        0.000        0.000        0.000        0.000        0.000        0.000        0.000        3.000        0.000        1.000        0.000       12.000        1.000        0.000        0.000        0.000        0.000      100.000        0.000        0.000        1.777        1.809        2.556
     480.000  -248268.593    24801.381    14852.893    43389.324       80.581  -376180.998    44788.226       26.196       26.026        2.607        2.594        2.740        2.606        3.215        3.013        3.230        2.922        3.215        3.303        3.171        3.179        2.520        2.574        2.709        2.446        0.465        0.000        0.000        1.000        0.000        1.000        8.000        0.000        0.000        0.000        0.000        0.000        0.000        0.000        0.000        0.000        0.000        0.000        0.000        0.000        0.000        0.000        0.000        0.000        0.000        0.000        1.000        1.000        1.000        0.000        6.000        0.000        0.000        0.000        0.000        0.000      100.000        0.000        0.000        1.943        1.952        2.739
     490.000  -248850.753    24652.414    14747.007    43341.920       77.095  -376321.966    44652.777       26.227       25.931        2.606        2.627        2.678        2.601        3.272        2.996        3.235        2.997        3.282        3.188        3.226        3.194        2.532        2.602        2.680        2.586        0.482        0.000        0.000        1.000        0.000        1.000        6.000        0.000        0.000        1.000        0.000        0.000        0.000        0.000        0.000        0.000        0.000        0.000        0.000        0.000        0.000        0.000        0.000        0.000        0.000        1.000        0.000        0.000        1.000        1.000        5.000        0.000        0.000        0.000        0.000        0.000      100.000        0.000        0.000        2.249        2.273        2.876
     500.000  -248919.457    25511.256    14911.813    43232.651       79.934  -377599.143    44944.031       26.164       25.880        2.572        2.583        2.745        2.621        3.261        3.060        3.213        2.998        3.289        3.210        3.198        3.264        2.513        2.613        2.666        2.529        0.475        1.000        0.000        0.000        0.000        2.000        7.000        0.000        0.000        1.000        0.000        0.000        0.000        0.000        1.000        0.000        0.000        0.000        0.000        0.000        0.000        0.000        0.000        0.000        0.000        0.000        1.000        1.000        1.000        0.000        7.000        0.000        0.000        0.000        0.000        0.000      100.000        0.000        0.000        2.235        2.258        2.827
     510.000  -248385.806    24969.203    15123.422    43211.416       95.270  -377537.062    45751.946       25.959       25.860        2.576        2.575        2.698        2.684        3.237        3.058        3.210        2.988        3.205        3.261        3.231        3.222        2.561        2.602        2.685        2.594        0.502        1.000        0.000        1.000        0.000        2.000        5.000        0.000        0.000        1.000        0.000        0.000        0.000        0.000        0.000        0.000        0.000        0.000        0.000        0.000        0.000        0.000        0.000        0.000        0.000        0.000        0.000        1.000        1.000        0.000        2.000        0.000        0.000        0.000        0.000        0.000      100.000        0.000        0.000        2.212        2.243        2.926
     520.000  -248709.678    24909.152    14816.605    43220.412       75.629  -376476.457    44744.982       25.909       25.929        2.605        2.630        2.651        2.638        3.227        3.072        3.303        2.963        3.193        3.228        3.167        3.208        2.498        2.594        2.670        2.485        0.494        1.000        0.000        0.000        0.000        1.000        6.000        0.000        0.000        0.000        0.000        0.000        0.000        0.000        1.000        0.000        0.000        0.000        0.000        0.000        0.000        0.000        0.000        0.000        0.000        1.000        4.000        0.000        0.000        0.000       12.000        0.000        0.000        0.000        0.000        0.000      100.000        0.000        0.000        2.469        2.486        3.134
     530.000  -248577.544    24575.765    15058.114    43195.337       82.834  -376302.446    44812.851       26.189       25.970        2.617        2.659        2.691        2.659        3.186        3.028        3.227        2.960        3.305        3.254        3.211        3.225        2.500        2.569        2.702        2.515        0.487        1.000        0.000        0.000        0.000        2.000        8.000        0.000        0.000        0.000        0.000        0.000        0.000        0.000        0.000        0.000        0.000        0.000        0.000        0.000        0.000        0.000        0.000        0.000        0.000        0.000        2.000        0.000        0.000        0.000        6.000        0.000        0.000        0.000        0.000        0.000      100.000        0.000        0.000        2.217        2.255        2.946
     540.000  -248840.869    24404.506    14759.706    43308.310       60.870  -376268.654    44894.392       26.161       26.136        2.596        2.613        2.726        2.691        3.197        3.024        3.254        2.959        3.255        3.269        3.202        3.198        2.518        2.557        2.642        2.494        0.497        1.000        0.000        0.000        0.000        1.000        5.000        0.000        0.000        1.000        0.000        0.000        0.000        0.000        1.000        0.000        0.000        0.000        0.000        0.000        0.000        0.000        0.000        0.000        0.000        0.000        1.000        1.000        0.000        1.000        6.000        0.000        0.000        0.000        0.000        0.000      100.000        0.000        0.000        2.476        2.530        3.109
     550.000  -248233.170    25008.794    14769.845    43383.808      109.738  -376433.442    44928.088       26.292       26.094        2.625        2.639        2.669        2.705        3.220        3.028        3.225        2.946        3.267        3.251        3.237        3.245        2.530        2.624        2.698        2.525        0.481        1.000        0.000        0.000        0.000        2.000        5.000        0.000        0.000        0.000        0.000        0.000        0.000        0.000        0.000        0.000        0.000        0.000        0.000        0.000        0.000        0.000        0.000        0.000        0.000        0.000        0.000        0.000        0.000        0.000        5.000        0.000        0.000        0.000        0.000        0.000      100.000        0.000        0.000        2.923        2.977        3.324
     560.000  -247908.407    24756.443    14513.800    43382.114       72.011  -375516.846    44884.071       26.092       26.009        2.596        2.616        2.708        2.586        3.251        3.112        3.249        3.054        3.214        3.236        3.201        3.232        2.505        2.573        2.701        2.500        0.482        1.000        0.000        0.000        0.000        1.000        5.000        0.000        0.000        1.000        0.000        0.000        0.000        0.000        1.000        0.000        0.000        0.000        0.000        0.000        0.000        0.000        0.000        0.000        0.000        1.000        2.000        0.000        0.000        0.000        4.000        0.000        0.000        0.000        0.000        0.000      100.000        0.000        0.000        2.811        2.873        3.282
     570.000  -249157.472    24333.746    14667.880    43619.292       83.632  -377735.844    45873.822       25.860       25.552        2.653        2.612        2.697        2.635        3.207        3.020        3.211        2.995        3.252        3.263        3.201        3.227        2.503        2.554        2.677        2.492        0.498        1.000        0.000        0.000        0.000        2.000        6.000        0.000        0.000        0.000        0.000        0.000        0.000        0.000        0.000        0.000        0.000        0.000        0.000        0.000        0.000        0.000        0.000        0.000        0.000        0.000        0.000        1.000        0.000        0.000        7.000        0.000        0.000        0.000        0.000        0.000      100.000        0.000        0.000        2.197        2.245        2.764
     580.000  -248565.673    25105.945    14743.651    43418.947       99.950  -377078.102    45143.935       25.907       25.548        2.600        2.571        2.702        2.622        3.166        3.048        3.195        3.077        3.209        3.247        3.174        3.270        2.525        2.570        2.659        2.535        0.493        0.000        0.000        0.000        0.000        2.000        3.000        0.000        0.000        0.000        0.000        0.000        0.000        0.000        0.000        0.000        0.000        0.000        0.000        0.000        0.000        0.000        0.000        0.000        0.000        0.000        1.000        0.000        0.000        0.000        8.000        0.000        0.000        0.000        0.000        0.000      100.000        0.000        0.000        1.857        1.884        2.587
     590.000  -248595.867    25167.326    14830.938    43578.330       66.870  -377013.185    44773.853       25.809       25.458        2.625        2.629        2.666        2.638        3.268        3.081        3.255        2.994        3.274        3.247        3.197        3.282        2.477        2.525        2.656        2.504        0.499        1.000        0.000        0.000        0.000        2.000        5.000        0.000        0.000        0.000        0.000        0.000        0.000        0.000        0.000        0.000        0.000        0.000        0.000        0.000        0.000        0.000        0.000        0.000        0.000        0.000        0.000        0.000        1.000        1.000        6.000        0.000        0.000        0.000        0.000        0.000      100.000        0.000        0.000        2.202        2.214        2.756
     600.000  -248780.081    25829.627    15170.856    43470.021       63.235  -376777.402    43463.583       25.725       25.397        2.663        2.622        2.650        2.615        3.293        3.022        3.207        3.006        3.225        3.264        3.230        3.229        2.470        2.550        2.697        2.579        0.483        1.000        0.000        0.000        0.000        2.000        6.000        0.000        0.000        0.000        0.000        0.000        0.000        0.000        0.000        0.000        0.000        0.000        0.000        0.000        0.000        0.000        0.000        0.000        0.000        0.000        0.000        0.000        0.000        0.000        4.000        0.000        0.000        0.000        0.000        0.000      100.000        0.000        0.000        2.058        2.096        2.629
     610.000  -248331.261    25388.096    14578.975    43453.443       91.270  -376819.026    44975.982       25.644       25.568        2.613        2.641        2.689        2.693        3.247        3.017        3.243        2.995        3.241        3.291        3.206        3.191        2.527        2.545        2.641        2.563        0.488        1.000        0.000        0.000        0.000        1.000        6.000        0.000        0.000        0.000        0.000        0.000        0.000        0.000        1.000        0.000        0.000        0.000        0.000        0.000        0.000        0.000        0.000        0.000        0.000        1.000        3.000        0.000        0.000        1.000        4.000        0.000        0.000        0.000        0.000        0.000      100.000        0.000        0.000        2.015        2.057        2.592
     620.000  -248269.385    24192.469    14836.400    43640.509       80.822  -377079.741    46060.157       25.679       25.740        2.589        2.608        2.697        2.654        3.211        3.031        3.221        3.052        3.246        3.265        3.208        3.215        2.507        2.598        2.661        2.494        0.472        1.000        0.000        1.000        0.000        1.000        6.000        0.000        0.000        0.000        0.000        0.000        0.000        0.000        0.000        0.000        0.000        0.000        0.000        0.000        0.000        0.000        0.000        0.000        0.000        0.000        2.000        0.000        1.000        0.000       12.000        1.000        0.000        0.000        0.000        0.000      100.000        0.000        0.000        1.966        2.009        2.492
     630.000  -248833.468    24137.749    14713.391    43691.532       90.810  -377809.995    46343.046       25.849       25.731        2.565        2.605        2.679        2.656        3.253        3.032        3.223        2.895        3.209        3.206        3.222        3.168        2.539        2.597        2.679        2.556        0.485        1.000        0.000        0.000        0.000        2.000        5.000        0.000        0.000        0.000        0.000        0.000        0.000        0.000        0.000        0.000        0.000        0.000        0.000        0.000        0.000        0.000        0.000        0.000        0.000        0.000        0.000        0.000        0.000        1.000       11.000        0.000        0.000        0.000        0.000        0.000      100.000        0.000        0.000        1.779        1.794        2.321
     640.000  -247710.651    24179.275    14708.763    43681.466       95.457  -376142.690    45767.078       25.733       25.303        2.628        2.634        2.712        2.689        3.271        3.050        3.220        2.928        3.265        3.281        3.178        3.211        2.515        2.613        2.690        2.522        0.494        1.000        0.000        1.000        0.000        1.000        5.000        0.000        0.000        0.000        0.000        0.000        0.000        0.000        2.000        2.000        0.000        0.000        0.000        0.000        0.000        0.000        0.000        0.000        0.000        3.000        1.000        1.000        1.000        1.000       11.000        1.000        0.000        0.000        0.000        0.000      100.000        0.000        0.000        1.735        1.795        2.268
     650.000  -248322.723    24584.327    14965.958    43629.382       93.754  -376384.279    44788.136       25.831       25.618        2.591        2.593        2.691        2.650        3.260        2.971        3.301        2.873        3.247        3.243        3.113        3.236        2.542        2.568        2.694        2.551        0.480        1.000        0.000        0.000        0.000        2.000        5.000        0.000        0.000        0.000        0.000        0.000        0.000        0.000        1.000        3.000        0.000        0.000        0.000        0.000        0.000        0.000        0.000        0.000        0.000        0.000        0.000        0.000        0.000        2.000       12.000        0.000        0.000        0.000        0.000        0.000      100.000        0.000        0.000        1.958        2.000        2.455
     660.000  -247875.433    23853.480    14846.184    43786.459       73.271  -376198.608    45763.782       26.094       25.843        2.618        2.578        2.665        2.667        3.233        2.984        3.307        2.872        3.252        3.227        3.229        3.246        2.519        2.592        2.705        2.526        0.489        1.000        0.000        0.000        0.000        1.000        6.000        0.000        0.000        0.000        0.000        0.000        0.000        0.000        0.000        0.000        0.000        0.000        0.000        0.000        0.000        0.000        0.000        0.000        0.000        0.000        1.000        0.000        1.000        0.000        9.000        0.000        0.000        0.000        0.000        0.000      100.000        0.000        0.000        1.922        1.944        2.403
     670.000  -248574.504    24244.610    14760.534    43676.327       88.806  -376536.553    45191.771       26.090       25.759        2.543        2.612        2.676        2.607        3.235        3.041        3.277        2.904        3.245        3.271        3.116        3.222        2.502        2.585        2.712        2.517        0.483        1.000        0.000        0.000        0.000        2.000        6.000        0.000        0.000        0.000        0.000        0.000        0.000        0.000        0.000        0.000        0.000        0.000        0.000        0.000        0.000        0.000        0.000        0.000        0.000        0.000        1.000        0.000        0.000        1.000        6.000        0.000        0.000        0.000        0.000        0.000      100.000        0.000        0.000        1.801        1.851        2.228
     680.000  -248827.144    25653.412    14698.027    43423.068       98.286  -376323.030    43623.094       26.117       25.773        2.632        2.635        2.703        2.662        3.168        3.065        3.213        2.844        3.248        3.242        3.211        3.222        2.539        2.577        2.692        2.546        0.473        1.000        0.000        1.000        0.000        1.000        8.000        0.000        0.000        0.000        0.000        0.000        0.000        0.000        1.000        0.000        0.000        0.000        0.000        0.000        0.000        0.000        0.000        0.000        0.000        1.000        1.000        0.000        0.000        0.000        4.000        0.000        0.000        0.000        0.000        0.000      100.000        0.000        0.000        1.759        1.793        2.222
     690.000  -248722.704    24759.399    14699.206    43657.589       80.386  -377672.309    45753.027       25.818       25.634        2.589        2.624        2.714        2.625        3.196        3.089        3.235        2.995        3.263        3.237        3.065        3.231        2.549        2.582        2.709        2.541        0.502        1.000        0.000        1.000        0.000        1.000        6.000        0.000        0.000        0.000        0.000        0.000        0.000        0.000        2.000        0.000        0.000        0.000        0.000        0.000        0.000        0.000        0.000        0.000        0.000        1.000        1.000        0.000        1.000        0.000       11.000        0.000        0.000        0.000        0.000        0.000      100.000        0.000        0.000        1.676        1.711        2.135
     700.000  -248430.494    24072.965    14847.679    43499.623       94.306  -376892.051    45946.984       25.975       25.747        2.596        2.561        2.687        2.645        3.150        3.021        3.259        2.883        3.217        3.233        3.180        3.253        2.570        2.592        2.710        2.497        0.492        1.000        0.000        1.000        0.000        1.000        7.000        0.000        0.000        0.000        0.000        0.000        0.000        0.000        0.000        0.000        0.000        0.000        0.000        0.000        0.000        0.000        0.000        0.000        0.000        0.000        1.000        0.000        1.000        0.000        8.000        0.000        0.000        0.000        0.000        0.000      100.000        0.000        0.000        1.744        1.792        2.233
     710.000  -249180.757    24506.226    14553.351    43446.624       73.751  -376907.765    45147.056       26.034       25.729        2.615        2.640        2.686        2.643        3.143        3.107        3.200        2.982        3.278        3.226        3.189        3.204        2.513        2.584        2.698        2.532        0.462        1.000        0.000        1.000        0.000        1.000        6.000        0.000        0.000        1.000        0.000        0.000        0.000        0.000        1.000        0.000        0.000        0.000        0.000        0.000        0.000        0.000        0.000        0.000        0.000        0.000        2.000        0.000        0.000        0.000        7.000        1.000        0.000        0.000        0.000        0.000      100.000        0.000        0.000        1.588        1.657        2.097
     720.000  -248404.298    25389.420    14249.653    43396.414       94.432  -375738.963    44204.745       26.053       25.662        2.574        2.613        2.718        2.619        3.249        3.071        3.292        2.934        3.295        3.259        3.141        3.263        2.544        2.595        2.715        2.517        0.494        1.000        0.000        1.000        0.000        1.000        7.000        0.000        0.000        0.000        0.000        0.000        0.000        0.000        0.000        0.000        0.000        0.000        0.000        0.000        0.000        0.000        0.000        0.000        0.000        0.000        0.000        1.000        1.000        1.000       11.000        0.000        0.000        0.000        4.494        0.000       95.506        0.000        0.000        1.967        2.039        2.388
     730.000  -248539.351    24639.569    14480.525    43332.249       76.459  -376703.624    45635.471       26.213       25.724        2.546        2.603        2.704        2.598        3.167        3.100        3.269        2.983        3.275        3.243        3.202        3.214        2.568        2.602        2.673        2.511        0.493        1.000        0.000        1.000        0.000        1.000        6.000        0.000        0.000        0.000        0.000        0.000        0.000        0.000        0.000        1.000        0.000        0.000        0.000        0.000        0.000        0.000        0.000        0.000        0.000        2.000        0.000        0.000        1.000        0.000       12.000        0.000        0.000        0.000        0.000        0.000      100.000        0.000        0.000        1.739        1.796        2.260
     740.000  -248603.465    25658.712    14858.120    43462.184      103.962  -375988.022    43301.579       26.121       25.729        2.572        2.637        2.639        2.644        3.216        3.075        3.296        2.949        3.286        3.212        3.131        3.249        2.454        2.609        2.675        2.508        0.480        1.000        0.000        0.000        0.000        1.000        8.000        0.000        0.000        0.000        0.000        0.000        0.000        0.000        1.000        0.000        0.000        0.000        0.000        0.000        0.000        0.000        0.000        0.000        0.000        1.000        0.000        1.000        1.000        0.000        7.000        0.000        0.000        0.000        0.000        0.000      100.000        0.000        0.000        1.784        1.833        2.406
     750.000  -247481.309    24185.390    15036.427    43433.757       95.710  -376158.441    45925.848       25.955       25.744        2.558        2.625        2.690        2.663        3.178        3.103        3.245        2.947        3.259        3.218        3.107        3.270        2.520        2.588        2.688        2.473        0.481        1.000        0.000        0.000        0.000        1.000        7.000        0.000        0.000        0.000        0.000        0.000        0.000        0.000        1.000        1.000        0.000        0.000        0.000        0.000        0.000        0.000        0.000        0.000        0.000        1.000        0.000        0.000        0.000        1.000        9.000        0.000        0.000        0.000        0.000        0.000      100.000        0.000        0.000        1.683        1.752        2.313
     760.000  -248589.334    24546.558    14923.497    43672.278       92.726  -376851.096    45026.702       25.797       25.821        2.596        2.598        2.715        2.640        3.210        3.067        3.228        3.031        3.292        3.205        3.170        3.230        2.525        2.607        2.640        2.580        0.494        1.000        0.000        1.000        0.000        1.000        8.000        0.000        0.000        0.000        0.000        0.000        0.000        0.000        0.000        0.000        0.000        0.000        0.000        0.000        0.000        0.000        0.000        0.000        0.000        2.000        2.000        0.000        1.000        2.000        9.000        0.000        0.000        0.000        0.000        0.000      100.000        0.000        0.000        1.850        1.857        2.470
     770.000  -248508.257    25128.354    14559.961    43460.187       96.200  -376606.347    44853.388       25.973       25.696        2.633        2.611        2.727        2.651        3.194        3.133        3.259        3.029        3.273        3.258        3.222        3.184        2.551        2.571        2.660        2.574        0.491        1.000        0.000        1.000        0.000        1.000        8.000        0.000        0.000        0.000        0.000        0.000        0.000        0.000        1.000        0.000        0.000        0.000        0.000        0.000        0.000        0.000        0.000        0.000        0.000        1.000        0.000        0.000        1.000        0.000        4.000        0.000        0.000        0.000        0.000        0.000      100.000        0.000        0.000        2.074        2.111        2.714
     780.000  -248415.072    25491.442    14782.642    43449.987      105.143  -376137.768    43893.482       25.990       25.791        2.634        2.678        2.687        2.613        3.193        3.072        3.197        2.973        3.238        3.173        3.224        3.193        2.571        2.595        2.677        2.609        0.494        1.000        0.000        1.000        0.000        2.000        7.000        0.000        0.000        0.000        0.000        0.000        0.000        0.000        1.000        0.000        0.000        0.000        0.000        0.000        0.000        0.000        0.000        0.000        0.000        1.000        0.000        0.000        0.000        0.000        9.000        0.000        0.000        0.000        0.000        0.000      100.000        0.000        0.000        2.458        2.505        3.054
     790.000  -248614.854    24815.103    14758.025    43447.372       98.710  -376084.582    44350.518       26.086       25.830        2.630        2.650        2.716        2.673        3.198        3.056        3.226        2.983        3.194        3.210        3.187        3.238        2.525        2.596        2.664        2.573        0.464        1.000        0.000        0.000        0.000        1.000        8.000        0.000        0.000        0.000        0.000        0.000        0.000        0.000        3.000        0.000        0.000        0.000        0.000        0.000        0.000        0.000        0.000        0.000        0.000        0.000        1.000        0.000        0.000        0.000        5.000        0.000        0.000        0.000        0.000        0.000      100.000        0.000        0.000        2.212        2.261        2.802
     800.000  -248638.983    24223.343    14836.924    43531.158       92.636  -375860.546    44537.502       26.032       25.935        2.592        2.586        2.607        2.680        3.196        3.130        3.237        2.968        3.261        3.222        3.159        3.189        2.562        2.599        2.670        2.545        0.471        1.000        0.000        0.000        0.000        1.000        7.000        0.000        0.000        0.000        0.000        0.000        0.000        0.000        2.000        1.000        0.000        0.000        0.000        0.000        0.000        0.000        0.000        0.000        0.000        1.000        2.000        1.000        0.000        0.000        4.000        0.000        0.000        0.000        4.494        0.000       95.506        0.000        0.000        2.488        2.561        2.884
     810.000  -248177.540    24564.359    14823.586    43547.267       70.248  -376619.966    45436.965       26.092       25.832        2.562        2.610        2.646        2.643        3.196        3.084        3.256        2.956        3.214        3.229        3.193        3.153        2.554        2.563        2.686        2.611        0.477        0.000        0.000        1.000        0.000        1.000        7.000        0.000        0.000        0.000        0.000        0.000        0.000        0.000        0.000        0.000        0.000        0.000        0.000        0.000        0.000        0.000        0.000        0.000        0.000        1.000        1.000        1.000        1.000        0.000       10.000        0.000        0.000        0.000        0.000        0.000      100.000        0.000        0.000        2.683        2.753        3.131
     820.000  -248740.563    24330.714    14966.917    43519.589       97.551  -375740.950    44085.616       26.144       25.723        2.542        2.579        2.631        2.665        3.157        3.077        3.259        3.026        3.248        3.222        3.121        3.204        2.524        2.618        2.651        2.595        0.494        0.000        0.000        0.000        0.000        1.000        5.000        0.000        0.000        0.000        0.000        0.000        0.000        0.000        1.000        0.000        0.000        0.000        0.000        0.000        0.000        0.000        0.000        0.000        0.000        1.000        1.000        0.000        0.000        1.000        9.000        0.000        0.000        0.000        0.000        0.000      100.000        0.000        0.000        1.856        1.929        2.539
     830.000  -248421.092    24768.939    14686.440    43666.500       79.508  -375742.323    44119.843       26.078       25.780        2.572        2.610        2.642        2.666        3.192        3.100        3.256        2.963        3.326        3.254        3.151        3.212        2.566        2.568        2.678        2.604        0.502        1.000        0.000        0.000        0.000        1.000        5.000        0.000        0.000        0.000        0.000        0.000        0.000        0.000        2.000        1.000        0.000        0.000        0.000        0.000        0.000        0.000        0.000        0.000        0.000        0.000        1.000        1.000        2.000        1.000        7.000        0.000        0.000        0.000        0.000        0.000      100.000        0.000        0.000        1.874        1.913        2.570
     840.000  -247929.898    24695.327    14805.530    43285.890       68.684  -375207.335    44422.008       26.112       25.776        2.562        2.632        2.616        2.675        3.177        3.026        3.285        2.983        3.232        3.203        3.178        3.296        2.562        2.604        2.692        2.565        0.486        1.000        0.000        1.000        0.000        1.000        5.000        0.000        0.000        0.000        0.000        0.000        0.000        0.000        0.000        0.000        0.000        0.000        0.000        0.000        0.000        0.000        0.000        0.000        0.000        0.000        2.000        1.000        0.000        0.000        5.000        0.000        0.000        0.000        0.000        0.000      100.000        0.000        0.000        1.987        2.012        2.684
     850.000  -248847.516    24617.831    15088.139    43423.605      102.615  -377716.626    45636.920       26.064       25.677        2.580        2.598        2.701        2.630        3.229        3.086        3.264        2.965        3.267        3.253        3.142        3.220        2.546        2.573        2.703        2.591        0.487        1.000        0.000        1.000        0.000        1.000        5.000        0.000        0.000        0.000        0.000        0.000        0.000        0.000        1.000        1.000        0.000        0.000        0.000        0.000        0.000        0.000        0.000        0.000        0.000        1.000        0.000        0.000        0.000        0.000        5.000        0.000        0.000        0.000        0.000        0.000      100.000        0.000        0.000        2.040        2.048        2.725
     860.000  -248633.572    23704.707    14658.639    43419.669       75.680  -377318.761    46826.495       26.021       25.637        2.599        2.596        2.680        2.594        3.150        3.057        3.237        2.996        3.294        3.221        3.169        3.211        2.511        2.580        2.705        2.571        0.491        1.000        0.000        1.000        1.000        1.000        7.000        0.000        0.000        0.000        0.000        0.000        0.000        0.000        1.000        0.000        0.000        0.000        0.000        0.000        0.000        0.000        0.000        0.000        0.000        1.000        1.000        0.000        1.000        0.000       10.000        0.000        0.000        0.000        0.000        0.000      100.000        0.000        0.000        1.957        1.965        2.769
     870.000  -247977.615    23666.060    14404.814    43490.380       92.788  -376045.996    46414.338       26.000       25.608        2.645        2.618        2.658        2.661        3.154        3.052        3.256        3.011        3.243        3.210        3.212        3.172        2.508        2.587        2.659        2.550        0.509        1.000        0.000        1.000        0.000        2.000        6.000        0.000        0.000        0.000        0.000        0.000        0.000        0.000        0.000        0.000        0.000        0.000        0.000        0.000        0.000        0.000        0.000        0.000        0.000        0.000        3.000        0.000        1.000        0.000        9.000        0.000        0.000        0.000        0.000        0.000      100.000        0.000        0.000        1.809        1.847        2.701
     880.000  -247227.405    23994.487    14964.287    43660.643       89.842  -375861.907    45925.244       26.088       26.017        2.616        2.610        2.678        2.688        3.195        2.997        3.278        2.990        3.288        3.241        3.131        3.209        2.464        2.592        2.648        2.638        0.479        1.000        0.000        0.000        0.000        1.000        8.000        0.000        0.000        0.000        0.000        0.000        0.000        0.000        0.000        0.000        0.000        0.000        0.000        0.000        0.000        0.000        0.000        0.000        0.000        2.000        0.000        0.000        1.000        1.000        7.000        0.000        0.000        0.000        0.000        0.000      100.000        0.000        0.000        1.799        1.801        2.637
     890.000  -248124.784    24050.698    14814.147    43507.101       76.248  -374412.849    43839.871       26.298       26.037        2.596        2.627        2.672        2.663        3.208        3.031        3.260        3.022        3.274        3.266        3.209        3.238        2.536        2.544        2.693        2.548        0.498        1.000        0.000        1.000        0.000        1.000        8.000        0.000        0.000        0.000        0.000        0.000        0.000        0.000        1.000        1.000        0.000        0.000        0.000        0.000        0.000        0.000        0.000        0.000        0.000        0.000        0.000        0.000        0.000        0.000        8.000        0.000        0.000        0.000        0.000        0.000      100.000        0.000        0.000        1.939        1.970        2.848
     900.000  -247739.223    24402.724    15130.923    43687.411       85.043  -375814.180    44768.856       26.274       26.065        2.539        2.601        2.613        2.606        3.178        3.048        3.264        2.925        3.290        3.237        3.204        3.195        2.498        2.644        2.677        2.540        0.475        1.000        0.000        0.000        0.000        1.000        6.000        0.000        0.000        0.000        0.000        0.000        0.000        0.000        0.000        1.000        0.000        0.000        0.000        0.000        0.000        0.000        0.000        0.000        0.000        0.000        1.000        0.000        1.000        0.000        7.000        0.000        0.000        0.000        0.000        0.000      100.000        0.000        0.000        1.759        1.782        2.679
     910.000  -248877.819    24123.744    14987.804    43569.603      101.665  -376813.567    45152.932       26.285       26.059        2.532        2.624        2.646        2.611        3.237        3.135        3.281        2.991        3.233        3.247        3.124        3.253        2.541        2.608        2.713        2.639        0.494        1.000        0.000        0.000        0.000        1.000        6.000        0.000        0.000        0.000        0.000        0.000        0.000        0.000        0.000        0.000        0.000        0.000        0.000        0.000        0.000        0.000        0.000        0.000        0.000        0.000        0.000        0.000        0.000        0.000        6.000        0.000        0.000        0.000        0.000        0.000      100.000        0.000        0.000        1.754        1.774        2.654
     920.000  -248317.056    23856.162    14970.465    43671.885       68.873  -376987.050    46102.609       26.112       25.826        2.556        2.583        2.690        2.614        3.242        2.979        3.244        3.053        3.242        3.230        3.173        3.119        2.516        2.627        2.698        2.622        0.505        1.000        0.000        0.000        0.000        1.000        9.000        0.000        0.000        0.000        0.000        0.000        0.000        0.000        0.000        0.000        0.000        0.000        0.000        0.000        0.000        0.000        0.000        0.000        0.000        0.000        1.000        0.000        0.000        1.000        7.000        0.000        0.000        0.000        4.494        0.000       95.506        0.000        0.000        1.757        1.783        2.688
     930.000  -247594.717    25770.779    14659.740    43516.049       70.453  -374906.251    43294.514       26.213       25.915        2.552        2.629        2.618        2.655        3.213        3.111        3.272        2.929        3.266        3.282        3.136        3.213        2.520        2.592        2.686        2.614        0.484        1.000        0.000        0.000        0.000        1.000        6.000        0.000        0.000        0.000        0.000        0.000        0.000        0.000        2.000        0.000        0.000        0.000        0.000        0.000        0.000        0.000        0.000        0.000        0.000        1.000        1.000        1.000        0.000        0.000        3.000        2.000        0.000        0.000        0.000        0.000      100.000        0.000        0.000        1.661        1.672        2.583
     940.000  -248013.004    25416.749    15251.880    43293.782       67.755  -376820.382    44777.212       26.391       26.231        2.560        2.612        2.631        2.604        3.241        3.086        3.240        2.981        3.247        3.240        3.117        3.184        2.528        2.615        2.692        2.557        0.487        1.000        0.000        0.000        0.000        1.000        6.000        0.000        0.000        0.000        0.000        0.000        0.000        0.000        0.000        1.000        0.000        0.000        0.000        0.000        0.000        0.000        0.000        0.000        0.000        0.000        0.000        0.000        0.000        0.000        2.000        0.000        0.000        0.000        0.000        0.000      100.000        0.000        0.000        1.589        1.604        2.426
     950.000  -248379.459    23907.099    15158.372    43654.194       85.206  -376886.520    45702.190       26.100       25.965        2.560        2.613        2.633        2.586        3.188        3.109        3.265        2.990        3.255        3.213        3.109        3.247        2.494        2.595        2.719        2.457        0.483        1.000        0.000        0.000        0.000        2.000        5.000        0.000        0.000        0.000        0.000        0.000        0.000        0.000        0.000        0.000        0.000        0.000        0.000        0.000        0.000        0.000        0.000        0.000        0.000        0.000        0.000        0.000        0.000        0.000        6.000        1.000        0.000        0.000        4.494        0.000       95.506        0.000        0.000        1.418        1.437        2.338
     960.000  -248236.490    24574.969    14944.467    43550.715       81.888  -377569.714    46181.186       26.233       25.942        2.550        2.612        2.685        2.585        3.199        3.016        3.233        2.891        3.292        3.263        3.198        3.203        2.485        2.635        2.693        2.541        0.490        1.000        0.000        0.000        0.000        1.000        6.000        0.000        0.000        0.000        0.000        0.000        0.000        0.000        1.000        0.000        0.000        0.000        0.000        0.000        0.000        0.000        0.000        0.000        0.000        0.000        1.000        0.000        0.000        0.000        5.000        1.000        0.000        0.000        0.000        0.000      100.000        0.000        0.000        1.415        1.449        2.385
     970.000  -248632.576    24581.405    14960.958    43858.261       85.788  -376604.950    44485.963       26.082       25.855        2.534        2.578        2.687        2.634        3.171        3.050        3.333        2.958        3.278        3.288        3.147        3.242        2.513        2.592        2.660        2.539        0.486        0.000        0.000        0.000        0.000        1.000        6.000        0.000        0.000        0.000        0.000        0.000        0.000        0.000        1.000        0.000        0.000        0.000        0.000        0.000        0.000        0.000        0.000        0.000        0.000        3.000        1.000        1.000        0.000        0.000        8.000        1.000        0.000        0.000        0.000        0.000      100.000        0.000        0.000        1.694        1.738        2.462
     980.000  -248867.872    24013.560    14805.236    43671.495       91.270  -377272.798    45823.364       26.150       25.969        2.488        2.666        2.702        2.634        3.177        2.996        3.249        2.919        3.268        3.219        3.140        3.223        2.522        2.618        2.733        2.515        0.505        1.000        0.000        0.000        0.000        1.000        6.000        0.000        0.000        1.000        0.000        0.000        0.000        0.000        0.000        0.000        0.000        0.000        0.000        0.000        0.000        0.000        0.000        0.000        0.000        0.000        0.000        1.000        0.000        0.000        3.000        1.000        0.000        0.000        0.000        0.000      100.000        0.000        0.000        1.820        1.861        2.512
     990.000  -247947.745    23992.104    14550.411    43570.950       72.702  -376379.387    46245.475       26.109       25.864        2.537        2.652        2.679        2.597        3.209        2.984        3.229        2.899        3.226        3.200        3.164        3.247        2.492        2.613        2.695        2.505        0.508        1.000        0.000        0.000        0.000        1.000        8.000        0.000        0.000        0.000        0.000        0.000        0.000        0.000        2.000        0.000        0.000        0.000        0.000        0.000        0.000        0.000        0.000        0.000        0.000        1.000        0.000        1.000        0.000        0.000        4.000        0.000        0.000        0.000        0.000        0.000      100.000        0.000        0.000        1.636        1.658        2.394
    1000.000  -248331.713    25041.809    14521.357    43608.280       86.105  -377515.396    45926.133       26.077       25.797        2.630        2.603        2.686        2.599        3.182        3.085        3.177        3.010        3.296        3.212        3.194        3.278        2.478        2.565        2.699        2.536        0.494        1.000        0.000        0.000        0.000        1.000        5.000        0.000        0.000        1.000        0.000        0.000        0.000        0.000        1.000        0.000        0.000        0.000        0.000        0.000        0.000        0.000        0.000        0.000        0.000        1.000        1.000        1.000        0.000        1.000        7.000        0.000        0.000        0.000        0.000        0.000      100.000        0.000        0.000        1.570        1.600        2.322
     Average  -250110.500    24940.010    14881.466    43525.946       81.453  -379403.955    45864.581       26.037       25.798        2.586        2.589        2.685        2.632        3.218        3.051        3.248        2.960        3.251        3.236        3.175        3.218        2.519        2.591        2.659        2.539        0.488        0.891        0.000        0.307        0.010        1.366        6.871        0.000        0.000        0.248        0.020        0.000        0.000        0.010        0.861        0.218        0.000        0.000        0.000        0.000        0.000        0.000        0.000        0.000        0.000        0.663        0.941        0.366        0.327        0.406        7.624        0.139        0.000        0.000        0.489        0.000       99.511        0.000        0.000        2.069        2.110        2.627

