____Time[ps] Energy[ kJ/mol ]_____Bond _______Angle ____Dihedral ___Planarity _____Coulomb _________VdW _Your result _Your result _Your result _Your result _Your result _Your result _Your result _Your result _Your result _Your result _Your result _Your result _Your result _Your result _Your result _Your result _Your result _Your result _Your result _Your result _Your result _Your result _Your result _Your result _Your result _Your result _Your result _Your result _Your result _Your result _Your result _Your result _Your result _Your result _Your result _Your result _Your result _Your result _Your result _Your result _Your result _Your result _Your result _Your result _Your result _Your result _Your result _Your result _Your result _Your result _Your result _Your result _Your result _Your result _Your result _Your result _Your result _RMSDs[A]:CA ____Backbone __HeavyAtoms
       0.000  -331607.390     8388.222     5460.613    45084.272       10.724  -455026.446    64475.225       25.358       25.362        2.493        2.605        2.502        2.638        2.610        2.550        2.683        2.615        2.640        2.639        2.536        2.656        3.065        2.975        2.488        2.557        0.487        0.000        0.000        0.000        1.000        1.000        8.000        0.000        0.000        0.000        1.000        0.000        0.000        0.000        2.000        0.000        0.000        0.000        0.000        0.000        0.000        0.000        0.000        0.000        0.000        1.000        0.000        0.000        0.000        0.000        9.000        0.000        0.000        0.000        0.000        0.000      100.000        0.000        0.000        0.461        0.490        0.619
      10.000  -250630.665    28550.627    15191.373    43990.406       75.258  -385340.131    46901.804       25.921       26.081        2.487        2.596        2.533        2.626        2.576        2.545        2.708        2.591        2.606        2.656        2.709        2.641        3.044        2.915        2.498        2.619        0.485        0.000        0.000        0.000        1.000        1.000        3.000        0.000        0.000        0.000        0.000        0.000        0.000        0.000        4.000        0.000        0.000        0.000        0.000        0.000        0.000        0.000        0.000        0.000        0.000        0.000        1.000        0.000        0.000        0.000       11.000        0.000        0.000        0.000        0.000        0.000      100.000        0.000        0.000        1.140        1.186        1.412
      20.000  -249784.772    27724.683    14871.698    43975.576       83.878  -384876.557    48435.950       25.876       26.039        2.486        2.587        2.483        2.690        2.608        2.591        2.693        2.550        2.619        2.689        2.664        2.610        3.041        2.932        2.492        2.531        0.465        0.000        0.000        0.000        0.000        1.000        4.000        0.000        0.000        0.000        0.000        0.000        0.000        0.000        1.000        0.000        0.000        0.000        0.000        0.000        0.000        0.000        0.000        0.000        0.000        0.000        0.000        0.000        0.000        0.000       11.000        0.000        0.000        0.000        0.000        0.000      100.000        0.000        0.000        1.246        1.283        1.708
      30.000  -249703.332    27910.552    15240.235    43808.631       70.792  -382583.922    45850.381       26.009       26.030        2.470        2.639        2.472        2.640        2.490        2.508        2.723        2.564        2.632        2.669        2.648        2.662        2.973        2.929        2.427        2.542        0.489        0.000        0.000        0.000        1.000        0.000        4.000        0.000        0.000        0.000        0.000        0.000        0.000        0.000        2.000        0.000        0.000        0.000        0.000        0.000        0.000        0.000        0.000        0.000        0.000        1.000        1.000        0.000        1.000        0.000       10.000        0.000        0.000        0.000        0.000        0.000      100.000        0.000        0.000        1.420        1.465        1.861
      40.000  -249282.511    28060.148    15544.800    43974.760       84.986  -381823.534    44876.330       25.982       25.902        2.542        2.610        2.472        2.661        2.531        2.550        2.707        2.609        2.583        2.689        2.625        2.689        2.953        2.971        2.461        2.607        0.505        0.000        0.000        0.000        0.000        1.000        4.000        0.000        0.000        0.000        0.000        0.000        0.000        0.000        3.000        0.000        0.000        0.000        0.000        0.000        0.000        0.000        0.000        0.000        0.000        1.000        0.000        0.000        1.000        0.000        5.000        0.000        0.000        0.000        0.000        0.000      100.000        0.000        0.000        1.382        1.411        1.914
      50.000  -249362.345    26962.731    15185.653    43918.898       59.550  -379979.461    44490.285       25.803       25.711        2.509        2.652        2.501        2.601        2.567        2.578        2.707        2.575        2.642        2.662        2.600        2.655        3.061        2.974        2.485        2.599        0.487        0.000        0.000        0.000        0.000        1.000        4.000        0.000        0.000        0.000        1.000        0.000        0.000        0.000        1.000        0.000        0.000        0.000        0.000        0.000        0.000        0.000        0.000        0.000        0.000        2.000        1.000        0.000        1.000        2.000        8.000        0.000        0.000        0.000        0.000        0.000      100.000        0.000        0.000        1.391        1.405        2.013
      60.000  -248267.640    26059.769    15359.050    44005.941       95.334  -382318.578    48530.843       25.966       25.702        2.513        2.579        2.493        2.674        2.501        2.611        2.658        2.569        2.599        2.686        2.618        2.655        3.017        2.921        2.405        2.558        0.485        0.000        0.000        0.000        1.000        1.000        4.000        0.000        0.000        0.000        2.000        0.000        0.000        0.000        1.000        0.000        0.000        0.000        0.000        0.000        0.000        0.000        0.000        0.000        0.000        1.000        0.000        0.000        1.000        1.000        5.000        0.000        0.000        0.000        0.000        0.000      100.000        0.000        0.000        1.478        1.490        2.126
      70.000  -248397.162    27022.906    15425.181    43741.000       79.827  -380688.835    46022.759       25.944       25.716        2.485        2.642        2.490        2.665        2.527        2.579        2.675        2.584        2.661        2.695        2.641        2.597        3.042        2.944        2.475        2.577        0.464        0.000        0.000        0.000        1.000        1.000        3.000        0.000        0.000        0.000        0.000        0.000        0.000        0.000        1.000        0.000        0.000        0.000        0.000        0.000        0.000        0.000        0.000        0.000        0.000        1.000        0.000        0.000        0.000        0.000       13.000        0.000        0.000        0.000        0.000        0.000      100.000        0.000        0.000        1.642        1.630        2.268
      80.000  -248758.028    27040.164    15447.710    43953.515       79.420  -380329.202    45050.364       25.941       25.760        2.503        2.641        2.489        2.665        2.513        2.620        2.747        2.578        2.624        2.708        2.643        2.613        2.978        2.906        2.448        2.573        0.492        0.000        0.000        0.000        1.000        1.000        2.000        0.000        0.000        0.000        0.000        0.000        0.000        0.000        2.000        0.000        0.000        0.000        0.000        0.000        0.000        0.000        0.000        0.000        0.000        0.000        1.000        0.000        0.000        0.000       10.000        0.000        0.000        0.000        0.000        0.000      100.000        0.000        0.000        1.642        1.653        2.170
      90.000  -247845.865    26074.936    15170.944    44013.653       81.754  -379546.119    46358.967       26.025       25.918        2.510        2.626        2.490        2.673        2.474        2.614        2.656        2.541        2.644        2.679        2.655        2.609        3.065        2.879        2.451        2.522        0.503        0.000        0.000        0.000        1.000        1.000        5.000        0.000        0.000        0.000        0.000        0.000        0.000        0.000        1.000        0.000        0.000        0.000        0.000        0.000        0.000        0.000        0.000        0.000        0.000        0.000        0.000        0.000        0.000        1.000        7.000        0.000        0.000        0.000        0.000        0.000      100.000        0.000        0.000        1.503        1.504        2.195
     100.000  -247833.519    26052.191    15855.952    43980.515       76.671  -380218.525    46419.676       25.750       25.800        2.470        2.635        2.480        2.656        2.586        2.599        2.685        2.561        2.610        2.680        2.582        2.636        3.074        2.960        2.455        2.541        0.497        0.000        0.000        0.000        0.000        2.000        4.000        0.000        0.000        0.000        0.000        0.000        0.000        0.000        1.000        0.000        0.000        0.000        0.000        0.000        0.000        0.000        0.000        0.000        0.000        1.000        0.000        0.000        1.000        0.000        5.000        0.000        0.000        0.000        0.000        0.000      100.000        0.000        0.000        1.419        1.443        2.233
     110.000  -247767.231    26353.199    15229.202    43774.362       68.098  -378700.723    45508.630       25.863       25.843        2.552        2.625        2.467        2.659        2.567        2.601        2.645        2.580        2.653        2.666        2.598        2.671        3.140        2.959        2.446        2.558        0.472        0.000        0.000        0.000        1.000        1.000        3.000        0.000        0.000        0.000        0.000        0.000        0.000        0.000        2.000        0.000        0.000        0.000        0.000        0.000        0.000        0.000        0.000        0.000        0.000        0.000        0.000        0.000        0.000        0.000       11.000        0.000        0.000        0.000        0.000        0.000      100.000        0.000        0.000        1.360        1.379        2.211
     120.000  -247577.231    26386.419    15342.323    44033.370       82.486  -378923.529    45501.700       25.801       25.681        2.495        2.577        2.492        2.645        2.489        2.612        2.687        2.510        2.615        2.680        2.565        2.585        3.113        2.906        2.457        2.556        0.481        0.000        0.000        0.000        0.000        1.000        5.000        0.000        0.000        0.000        0.000        0.000        0.000        0.000        0.000        0.000        0.000        0.000        0.000        0.000        0.000        0.000        0.000        0.000        0.000        1.000        0.000        0.000        0.000        0.000        8.000        0.000        0.000        0.000        0.000        0.000      100.000        0.000        0.000        1.380        1.362        2.210
     130.000  -247267.204    25740.709    15166.735    44102.096       58.166  -378651.782    46316.871       25.842       25.839        2.533        2.609        2.532        2.648        2.529        2.515        2.676        2.483        2.692        2.700        2.562        2.550        3.022        2.936        2.436        2.515        0.482        0.000        0.000        0.000        0.000        4.000        4.000        0.000        0.000        0.000        0.000        0.000        0.000        0.000        1.000        0.000        0.000        0.000        0.000        0.000        0.000        0.000        0.000        0.000        0.000        0.000        1.000        0.000        0.000        0.000       15.000        0.000        0.000        0.000        0.000        0.000      100.000        0.000        0.000        1.520        1.518        2.373
     140.000  -246793.502    25920.681    15439.553    43775.977       77.797  -376960.333    44952.822       26.022       26.000        2.540        2.636        2.491        2.613        2.575        2.544        2.693        2.489        2.648        2.675        2.596        2.583        3.035        2.947        2.457        2.650        0.475        0.000        0.000        0.000        1.000        2.000        5.000        0.000        0.000        0.000        0.000        0.000        0.000        0.000        2.000        0.000        0.000        0.000        0.000        0.000        0.000        0.000        0.000        0.000        0.000        0.000        2.000        0.000        0.000        2.000        9.000        0.000        0.000        0.000        0.000        0.000      100.000        0.000        0.000        1.872        1.873        2.560
     150.000  -246687.204    25407.614    15080.599    43830.103       76.042  -375183.301    44101.739       26.163       25.879        2.518        2.640        2.501        2.665        2.565        2.540        2.705        2.536        2.579        2.715        2.582        2.531        3.078        2.936        2.468        2.639        0.478        0.000        0.000        0.000        1.000        2.000        5.000        0.000        0.000        0.000        0.000        0.000        0.000        0.000        1.000        0.000        0.000        0.000        0.000        0.000        0.000        0.000        0.000        0.000        0.000        1.000        1.000        0.000        3.000        0.000       10.000        0.000        0.000        0.000        0.000        0.000      100.000        0.000        0.000        1.807        1.802        2.506
     160.000  -246236.647    25325.796    15259.732    44035.078       77.226  -375795.314    44860.835       25.887       25.898        2.469        2.588        2.514        2.678        2.510        2.495        2.701        2.534        2.684        2.689        2.546        2.598        3.034        2.933        2.496        2.585        0.483        0.000        0.000        0.000        1.000        2.000        5.000        0.000        0.000        0.000        0.000        0.000        0.000        0.000        3.000        0.000        0.000        0.000        0.000        0.000        0.000        0.000        0.000        0.000        0.000        0.000        1.000        0.000        2.000        0.000        9.000        0.000        0.000        0.000        0.000        0.000      100.000        0.000        0.000        1.762        1.787        2.393
     170.000  -245802.965    25515.082    15135.703    44067.217       71.045  -375524.020    44932.008       25.846       25.830        2.446        2.621        2.498        2.678        2.501        2.572        2.725        2.579        2.615        2.728        2.557        2.611        3.034        2.970        2.483        2.553        0.499        0.000        0.000        0.000        1.000        2.000        5.000        0.000        0.000        0.000        0.000        0.000        0.000        0.000        0.000        0.000        0.000        0.000        0.000        0.000        0.000        0.000        0.000        0.000        0.000        1.000        3.000        0.000        0.000        0.000        7.000        0.000        0.000        0.000        0.000        0.000      100.000        0.000        0.000        1.614        1.626        2.446
     180.000  -246938.885    24507.661    14848.542    44115.654       58.145  -376749.227    46280.339       25.392       25.750        2.522        2.636        2.529        2.668        2.473        2.602        2.625        2.499        2.557        2.657        2.608        2.604        3.053        2.936        2.466        2.523        0.502        0.000        0.000        0.000        0.000        2.000        5.000        0.000        0.000        0.000        0.000        0.000        0.000        0.000        1.000        0.000        0.000        0.000        0.000        0.000        0.000        0.000        0.000        0.000        0.000        1.000        2.000        0.000        3.000        1.000       11.000        0.000        0.000        0.000        0.000        0.000      100.000        0.000        0.000        1.890        1.910        2.619
     190.000  -246651.904    24733.934    14601.905    43998.886       93.077  -374666.619    44586.913       25.758       25.883        2.491        2.580        2.667        2.681        2.503        2.606        2.717        2.550        2.605        2.712        2.540        2.613        3.009        2.920        2.465        2.592        0.473        0.000        0.000        0.000        1.000        2.000        3.000        0.000        0.000        0.000        0.000        0.000        0.000        0.000        2.000        0.000        0.000        0.000        0.000        0.000        0.000        0.000        0.000        0.000        0.000        1.000        0.000        0.000        2.000        1.000        4.000        0.000        0.000        0.000        0.000        0.000      100.000        0.000        0.000        1.698        1.731        2.378
     200.000  -245684.034    24020.395    15099.232    43802.126       88.610  -374702.792    46008.395       25.773       25.922        2.482        2.618        2.612        2.666        2.443        2.560        2.718        2.606        2.638        2.705        2.579        2.569        3.091        2.944        2.466        2.527        0.495        0.000        0.000        0.000        1.000        2.000        1.000        0.000        0.000        0.000        0.000        0.000        0.000        0.000        2.000        0.000        0.000        0.000        0.000        0.000        0.000        0.000        0.000        0.000        0.000        0.000        0.000        0.000        3.000        1.000        4.000        0.000        0.000        0.000        0.000        0.000      100.000        0.000        0.000        1.639        1.637        2.529
     210.000  -246073.833    25078.955    14665.634    43983.141       66.004  -374119.843    44252.276       25.563       25.810        2.474        2.598        2.646        2.661        2.490        2.557        2.708        2.508        2.604        2.685        2.579        2.576        3.087        2.918        2.420        2.576        0.481        0.000        0.000        0.000        1.000        3.000        4.000        0.000        0.000        0.000        0.000        0.000        0.000        1.000        3.000        0.000        0.000        0.000        0.000        0.000        0.000        0.000        0.000        0.000        0.000        1.000        0.000        0.000        3.000        0.000        8.000        0.000        0.000        0.000        0.000        0.000      100.000        0.000        0.000        1.298        1.299        2.231
     220.000  -246185.018    24667.370    14712.598    43770.983       83.450  -375289.983    45870.564       25.794       26.085        2.553        2.704        2.670        2.630        2.503        2.555        2.698        2.572        2.636        2.725        2.622        2.584        3.065        2.899        2.460        2.582        0.476        0.000        0.000        0.000        0.000        3.000        4.000        0.000        0.000        0.000        0.000        0.000        0.000        0.000        0.000        0.000        0.000        0.000        0.000        0.000        0.000        0.000        0.000        0.000        0.000        1.000        1.000        0.000        2.000        2.000        6.000        0.000        0.000        0.000        0.000        0.000      100.000        0.000        0.000        1.573        1.553        2.400
     230.000  -246190.019    24383.170    14759.049    44001.705       63.922  -375105.500    45707.635       25.749       25.881        2.576        2.646        2.669        2.682        2.503        2.566        2.666        2.581        2.615        2.702        2.536        2.539        3.095        2.890        2.444        2.581        0.504        0.000        0.000        0.000        0.000        3.000        3.000        0.000        0.000        0.000        0.000        0.000        0.000        0.000        3.000        0.000        0.000        0.000        0.000        0.000        0.000        0.000        0.000        0.000        0.000        1.000        0.000        0.000        3.000        1.000        7.000        0.000        0.000        0.000        0.000        0.000      100.000        0.000        0.000        1.711        1.718        2.394
     240.000  -245438.003    24092.162    14977.358    43958.172       73.221  -374030.934    45492.018       25.689       25.784        2.562        2.650        2.666        2.651        2.549        2.585        2.694        2.596        2.642        2.702        2.565        2.591        3.090        2.902        2.468        2.593        0.491        0.000        0.000        0.000        0.000        3.000        3.000        0.000        0.000        0.000        0.000        0.000        0.000        0.000        4.000        0.000        0.000        0.000        0.000        0.000        0.000        0.000        0.000        0.000        0.000        1.000        0.000        0.000        2.000        0.000       10.000        0.000        0.000        0.000        0.000        0.000      100.000        0.000        0.000        1.498        1.483        2.262
     250.000  -246066.873    25681.753    14936.998    43850.522       66.127  -374549.665    43947.392       25.780       26.081        2.569        2.661        2.612        2.639        2.558        2.567        2.660        2.507        2.641        2.680        2.522        2.469        3.039        2.941        2.518        2.593        0.500        0.000        0.000        0.000        1.000        3.000        4.000        0.000        0.000        0.000        0.000        0.000        0.000        0.000        3.000        0.000        0.000        0.000        0.000        0.000        0.000        0.000        0.000        0.000        0.000        2.000        3.000        0.000        2.000        0.000        6.000        0.000        0.000        0.000        0.000        0.000      100.000        0.000        0.000        1.710        1.687        2.465
     260.000  -245936.397    23841.022    14986.785    44087.085       91.304  -374907.176    45964.582       25.633       25.759        2.566        2.637        2.694        2.661        2.505        2.576        2.707        2.588        2.589        2.646        2.590        2.526        3.038        2.961        2.438        2.596        0.482        0.000        0.000        0.000        1.000        3.000        5.000        0.000        0.000        0.000        0.000        0.000        0.000        0.000        2.000        0.000        0.000        0.000        0.000        0.000        1.000        0.000        0.000        0.000        0.000        1.000        4.000        0.000        4.000        2.000        8.000        0.000        0.000        0.000        0.000        0.000      100.000        0.000        0.000        1.545        1.537        2.312
     270.000  -245726.138    25353.547    14995.976    43786.072       52.085  -372860.122    42946.304       25.721       25.879        2.545        2.627        2.666        2.628        2.583        2.543        2.639        2.573        2.605        2.675        2.615        2.481        3.037        2.884        2.434        2.579        0.505        0.000        0.000        0.000        1.000        2.000        2.000        0.000        0.000        0.000        0.000        0.000        0.000        0.000        2.000        0.000        0.000        0.000        0.000        0.000        0.000        0.000        0.000        0.000        0.000        1.000        0.000        0.000        4.000        1.000        5.000        0.000        0.000        0.000        0.000        0.000      100.000        0.000        0.000        1.680        1.695        2.536
     280.000  -245764.181    24502.279    15182.180    43820.134       84.671  -373768.167    44414.722       25.847       25.910        2.548        2.631        2.665        2.663        2.547        2.573        2.713        2.548        2.702        2.669        2.578        2.511        3.084        2.907        2.481        2.616        0.472        0.000        0.000        0.000        1.000        3.000        4.000        0.000        0.000        0.000        0.000        0.000        0.000        0.000        0.000        0.000        0.000        0.000        0.000        0.000        1.000        0.000        0.000        0.000        0.000        1.000        2.000        0.000        3.000        0.000        9.000        0.000        0.000        0.000        0.000        0.000      100.000        0.000        0.000        1.833        1.836        2.655
     290.000  -244591.803    23487.551    15338.128    43854.043       79.725  -371665.308    44314.059       25.636       25.819        2.558        2.597        2.599        2.658        2.532        2.511        2.713        2.599        2.604        2.713        2.573        2.552        3.111        2.904        2.436        2.546        0.464        0.000        0.000        0.000        0.000        3.000        3.000        0.000        0.000        0.000        0.000        0.000        0.000        0.000        3.000        0.000        0.000        0.000        0.000        0.000        0.000        0.000        0.000        0.000        0.000        2.000        0.000        0.000        2.000        0.000        9.000        0.000        0.000        0.000        0.000        0.000      100.000        0.000        0.000        1.753        1.735        2.590
     300.000  -245288.750    23254.848    14703.043    43790.712       58.467  -372110.012    45014.193       25.616       25.744        2.592        2.604        2.637        2.664        2.396        2.544        2.651        2.528        2.613        2.671        2.495        2.522        3.042        2.883        2.483        2.597        0.506        0.000        0.000        0.000        1.000        3.000        5.000        0.000        0.000        0.000        0.000        0.000        0.000        1.000        2.000        0.000        0.000        0.000        0.000        0.000        0.000        0.000        0.000        0.000        0.000        1.000        1.000        0.000        2.000        1.000       12.000        0.000        0.000        0.000        0.000        0.000      100.000        0.000        0.000        1.807        1.796        2.537
     310.000  -245621.110    24938.437    14760.604    43751.173       82.281  -372889.486    43735.881       25.920       26.195        2.549        2.661        2.675        2.678        2.554        2.540        2.658        2.545        2.634        2.604        2.550        2.493        3.069        2.951        2.468        2.581        0.484        0.000        0.000        0.000        1.000        3.000        3.000        0.000        0.000        0.000        0.000        0.000        0.000        0.000        3.000        0.000        0.000        0.000        0.000        0.000        0.000        0.000        0.000        0.000        0.000        1.000        2.000        0.000        3.000        1.000       10.000        0.000        0.000        0.000        0.000        0.000      100.000        0.000        0.000        2.111        2.118        2.792
     320.000  -244803.273    23692.252    14792.473    43935.498       70.950  -372295.245    45000.798       25.647       25.847        2.566        2.694        2.612        2.697        2.514        2.534        2.694        2.511        2.622        2.700        2.623        2.519        3.086        2.903        2.461        2.585        0.470        0.000        0.000        0.000        1.000        1.000        2.000        0.000        0.000        0.000        0.000        0.000        0.000        1.000        3.000        0.000        0.000        0.000        0.000        0.000        0.000        0.000        0.000        0.000        0.000        1.000        0.000        0.000        3.000        1.000        8.000        0.000        0.000        0.000        0.000        0.000      100.000        0.000        0.000        1.768        1.749        2.459
     330.000  -245990.571    24026.117    14535.329    44118.941       64.456  -374096.866    45361.452       25.596       25.860        2.577        2.568        2.623        2.644        2.504        2.562        2.658        2.532        2.592        2.667        2.592        2.547        3.042        2.925        2.440        2.587        0.524        0.000        0.000        0.000        1.000        2.000        2.000        0.000        0.000        0.000        0.000        0.000        0.000        0.000        1.000        0.000        0.000        0.000        0.000        0.000        0.000        0.000        0.000        0.000        0.000        1.000        0.000        0.000        3.000        1.000       11.000        0.000        0.000        0.000        0.000        0.000      100.000        0.000        0.000        1.579        1.567        2.317
     340.000  -245252.061    23811.312    14898.622    43870.147       72.990  -373097.257    45192.124       25.824       25.971        2.511        2.628        2.631        2.627        2.556        2.532        2.682        2.544        2.633        2.658        2.606        2.543        3.082        2.919        2.443        2.570        0.499        0.000        0.000        0.000        1.000        3.000        2.000        0.000        0.000        0.000        0.000        0.000        0.000        0.000        2.000        0.000        0.000        0.000        0.000        0.000        0.000        0.000        0.000        0.000        0.000        1.000        3.000        0.000        2.000        0.000       10.000        0.000        0.000        0.000        0.000        0.000      100.000        0.000        0.000        1.982        1.992        2.510
     350.000  -245080.995    23757.115    14873.434    43781.265       75.336  -372747.639    45179.493       25.929       26.080        2.542        2.591        2.595        2.600        2.510        2.570        2.717        2.556        2.576        2.679        2.578        2.491        3.053        2.894        2.478        2.655        0.510        0.000        0.000        0.000        1.000        3.000        4.000        0.000        0.000        0.000        0.000        0.000        0.000        0.000        2.000        0.000        0.000        0.000        0.000        0.000        0.000        0.000        0.000        0.000        0.000        1.000        1.000        0.000        4.000        1.000       11.000        0.000        0.000        0.000        0.000        0.000      100.000        0.000        0.000        2.238        2.244        2.702
     360.000  -245460.794    24142.432    14638.334    43779.388       69.723  -371982.269    43891.596       25.900       26.076        2.536        2.643        2.623        2.624        2.528        2.553        2.689        2.600        2.626        2.657        2.507        2.506        2.997        2.882        2.446        2.561        0.487        0.000        0.000        0.000        1.000        3.000        1.000        0.000        0.000        0.000        0.000        0.000        0.000        0.000        2.000        0.000        0.000        0.000        0.000        0.000        0.000        0.000        0.000        0.000        0.000        0.000        4.000        0.000        3.000        0.000        9.000        0.000        0.000        0.000        0.000        0.000      100.000        0.000        0.000        2.303        2.327        2.763
     370.000  -245658.986    24927.105    14627.622    43738.651       63.506  -373164.066    44148.196       26.046       26.077        2.502        2.603        2.677        2.603        2.512        2.562        2.701        2.604        2.619        2.644        2.569        2.495        3.090        2.870        2.477        2.571        0.478        0.000        0.000        0.000        1.000        2.000        4.000        0.000        0.000        0.000        0.000        0.000        0.000        0.000        0.000        0.000        0.000        0.000        0.000        0.000        0.000        0.000        0.000        0.000        0.000        1.000        0.000        0.000        1.000        0.000        7.000        0.000        0.000        0.000        0.000        0.000      100.000        0.000        0.000        2.071        2.062        2.632
     380.000  -245690.341    24097.555    14722.775    43850.869       63.163  -372772.603    44347.900       25.632       25.687        2.503        2.575        2.644        2.614        2.445        2.549        2.693        2.571        2.591        2.683        2.560        2.536        3.010        2.841        2.475        2.521        0.503        0.000        0.000        0.000        1.000        3.000        3.000        0.000        0.000        0.000        0.000        0.000        0.000        0.000        1.000        0.000        0.000        0.000        0.000        0.000        0.000        0.000        0.000        0.000        0.000        2.000        2.000        0.000        2.000        0.000        9.000        0.000        0.000        0.000        0.000        0.000      100.000        0.000        0.000        2.123        2.139        2.644
     390.000  -245122.673    24437.108    14647.150    43800.884       72.442  -372885.582    44805.325       25.763       25.883        2.498        2.610        2.674        2.622        2.392        2.543        2.692        2.557        2.574        2.711        2.621        2.564        3.084        2.885        2.441        2.586        0.487        0.000        0.000        0.000        1.000        3.000        3.000        0.000        0.000        0.000        0.000        0.000        0.000        0.000        1.000        0.000        0.000        0.000        0.000        0.000        0.000        0.000        0.000        0.000        0.000        1.000        3.000        0.000        3.000        1.000        6.000        0.000        0.000        0.000        0.000        0.000      100.000        0.000        0.000        2.311        2.290        2.899
     400.000  -244992.299    24290.699    14424.187    43893.293       82.821  -371270.944    43587.644       25.682       25.650        2.510        2.601        2.672        2.620        2.428        2.507        2.679        2.513        2.601        2.675        2.619        2.515        3.067        2.924        2.500        2.542        0.495        0.000        0.000        0.000        1.000        2.000        2.000        0.000        0.000        0.000        0.000        0.000        0.000        0.000        2.000        0.000        0.000        0.000        0.000        0.000        1.000        0.000        0.000        0.000        0.000        0.000        0.000        0.000        3.000        2.000       12.000        0.000        0.000        0.000        0.000        0.000      100.000        0.000        0.000        2.186        2.193        2.870
     410.000  -244802.329    25257.479    14542.039    43773.919       87.532  -371104.097    42640.800       25.764       25.854        2.578        2.639        2.663        2.611        2.422        2.573        2.704        2.581        2.651        2.682        2.606        2.549        3.094        2.981        2.456        2.638        0.486        0.000        0.000        0.000        1.000        2.000        2.000        0.000        0.000        0.000        0.000        0.000        0.000        0.000        1.000        0.000        0.000        0.000        0.000        0.000        1.000        0.000        0.000        0.000        0.000        2.000        0.000        0.000        5.000        1.000        8.000        0.000        0.000        0.000        0.000        0.000      100.000        0.000        0.000        1.935        1.919        2.781
     420.000  -245593.938    24185.294    14922.662    43716.560       85.204  -373837.767    45334.109       25.637       25.839        2.572        2.633        2.611        2.686        2.423        2.561        2.731        2.596        2.667        2.713        2.588        2.519        3.102        2.953        2.477        2.617        0.487        0.000        0.000        0.000        0.000        2.000        4.000        0.000        0.000        0.000        0.000        0.000        0.000        0.000        2.000        0.000        0.000        0.000        0.000        0.000        0.000        0.000        0.000        0.000        0.000        2.000        1.000        0.000        4.000        3.000        7.000        0.000        0.000        0.000        0.000        0.000      100.000        0.000        0.000        2.204        2.198        2.888
     430.000  -245150.656    24076.081    14511.957    43599.340       78.009  -371571.357    44155.314       25.559       25.822        2.530        2.589        2.623        2.686        2.401        2.643        2.615        2.575        2.587        2.687        2.631        2.553        3.072        2.862        2.483        2.593        0.475        0.000        0.000        0.000        0.000        1.000        5.000        0.000        0.000        0.000        0.000        0.000        0.000        0.000        2.000        0.000        0.000        0.000        0.000        0.000        0.000        0.000        0.000        0.000        0.000        2.000        0.000        0.000        3.000        3.000        6.000        0.000        0.000        0.000        0.000        0.000      100.000        0.000        0.000        2.297        2.333        2.959
     440.000  -245183.027    24684.694    14652.945    43600.623       80.072  -371154.146    42952.785       25.620       25.955        2.557        2.599        2.596        2.678        2.414        2.571        2.696        2.561        2.651        2.702        2.572        2.534        3.137        2.933        2.436        2.534        0.498        0.000        0.000        0.000        0.000        2.000        3.000        0.000        0.000        0.000        0.000        0.000        0.000        0.000        1.000        0.000        0.000        0.000        0.000        0.000        0.000        0.000        0.000        0.000        0.000        2.000        0.000        0.000        3.000        1.000        6.000        0.000        0.000        0.000        0.000        0.000      100.000        0.000        0.000        2.321        2.330        2.964
     450.000  -245010.377    24423.122    14879.570    43582.524       85.242  -372394.501    44413.666       25.985       26.203        2.513        2.563        2.594        2.651        2.451        2.555        2.676        2.550        2.616        2.664        2.630        2.500        3.057        2.927        2.445        2.562        0.471        0.000        0.000        0.000        0.000        2.000        2.000        0.000        0.000        0.000        0.000        0.000        0.000        0.000        1.000        0.000        0.000        0.000        0.000        0.000        0.000        0.000        0.000        0.000        0.000        1.000        1.000        0.000        2.000        1.000       10.000        0.000        0.000        0.000        0.000        0.000      100.000        0.000        0.000        2.302        2.305        2.989
     460.000  -244935.549    25340.930    14552.338    43686.667       84.540  -371960.180    43360.156       25.786       25.904        2.603        2.639        2.686        2.625        2.418        2.542        2.655        2.585        2.646        2.700        2.608        2.491        3.074        2.947        2.471        2.607        0.504        0.000        0.000        0.000        0.000        2.000        3.000        0.000        0.000        0.000        0.000        0.000        0.000        0.000        1.000        0.000        0.000        0.000        0.000        0.000        0.000        0.000        0.000        0.000        0.000        1.000        1.000        0.000        3.000        3.000       10.000        0.000        0.000        0.000        0.000        0.000      100.000        0.000        0.000        2.504        2.521        3.209
     470.000  -244729.077    25047.286    14859.517    43693.965       83.328  -371394.353    42981.181       25.837       25.950        2.561        2.636        2.675        2.658        2.414        2.539        2.673        2.560        2.574        2.692        2.599        2.475        3.024        2.952        2.436        2.491        0.491        0.000        0.000        0.000        0.000        2.000        2.000        0.000        0.000        0.000        0.000        0.000        0.000        0.000        0.000        0.000        0.000        0.000        0.000        0.000        0.000        0.000        0.000        0.000        0.000        1.000        1.000        0.000        2.000        1.000       13.000        0.000        0.000        0.000        0.000        0.000      100.000        0.000        0.000        2.262        2.288        3.013
     480.000  -245098.309    24465.074    14463.991    43495.107       72.553  -371749.100    44154.066       26.229       26.154        2.564        2.641        2.692        2.632        2.366        2.563        2.679        2.577        2.618        2.669        2.546        2.537        3.002        2.903        2.481        2.631        0.479        0.000        0.000        0.000        0.000        2.000        4.000        0.000        0.000        0.000        0.000        0.000        0.000        0.000        0.000        0.000        0.000        0.000        0.000        0.000        0.000        0.000        0.000        0.000        0.000        0.000        1.000        0.000        3.000        0.000       12.000        0.000        0.000        0.000        0.000        0.000      100.000        0.000        0.000        2.033        2.058        2.797
     490.000  -244829.162    24249.680    14106.757    43655.699       82.532  -370822.600    43898.770       25.719       25.867        2.579        2.632        2.633        2.638        2.447        2.533        2.680        2.583        2.623        2.676        2.587        2.538        3.102        2.936        2.461        2.463        0.505        0.000        0.000        0.000        0.000        2.000        3.000        0.000        0.000        0.000        0.000        0.000        0.000        0.000        0.000        0.000        0.000        0.000        0.000        0.000        0.000        0.000        0.000        0.000        0.000        1.000        0.000        0.000        2.000        1.000        5.000        0.000        0.000        0.000        0.000        0.000      100.000        0.000        0.000        1.722        1.737        2.745
     500.000  -244820.369    23451.496    14793.902    43578.993       84.434  -372235.619    45506.425       26.003       25.911        2.579        2.646        2.659        2.619        2.415        2.489        2.685        2.564        2.612        2.705        2.559        2.516        3.114        2.905        2.506        2.572        0.482        0.000        0.000        0.000        0.000        2.000        4.000        0.000        0.000        0.000        0.000        0.000        0.000        0.000        2.000        0.000        0.000        0.000        0.000        0.000        0.000        0.000        0.000        0.000        0.000        1.000        2.000        0.000        3.000        2.000       11.000        0.000        0.000        0.000        0.000        0.000      100.000        0.000        0.000        1.801        1.829        2.684
     510.000  -245376.581    24438.135    14466.834    43682.107       64.387  -372779.367    44751.323       25.960       25.890        2.549        2.601        2.680        2.619        2.406        2.562        2.720        2.574        2.746        2.671        2.603        2.472        3.105        2.924        2.424        2.565        0.467        0.000        0.000        0.000        0.000        2.000        4.000        0.000        0.000        0.000        0.000        0.000        0.000        0.000        1.000        0.000        0.000        0.000        0.000        0.000        0.000        0.000        0.000        0.000        0.000        1.000        0.000        0.000        0.000        2.000       11.000        0.000        0.000        0.000        0.000        0.000      100.000        0.000        0.000        1.893        1.895        2.775
     520.000  -244812.949    24205.650    14628.565    43623.495       75.116  -372579.679    45233.905       25.750       25.655        2.633        2.624        2.616        2.647        2.418        2.558        2.718        2.586        2.639        2.718        2.575        2.512        3.017        2.957        2.470        2.543        0.485        0.000        0.000        0.000        0.000        2.000        2.000        0.000        0.000        0.000        0.000        0.000        0.000        0.000        1.000        0.000        0.000        0.000        0.000        0.000        0.000        0.000        0.000        0.000        0.000        0.000        1.000        0.000        2.000        0.000       12.000        0.000        0.000        0.000        0.000        0.000      100.000        0.000        0.000        2.083        2.075        3.004
     530.000  -245045.858    24054.929    14374.162    43895.839       83.236  -372606.627    45152.603       25.946       25.652        2.600        2.656        2.638        2.615        2.377        2.585        2.686        2.535        2.604        2.689        2.582        2.552        3.145        2.959        2.435        2.558        0.486        0.000        0.000        0.000        0.000        2.000        2.000        0.000        0.000        0.000        0.000        0.000        0.000        0.000        1.000        0.000        0.000        0.000        0.000        0.000        0.000        0.000        0.000        0.000        0.000        1.000        1.000        0.000        0.000        3.000       10.000        0.000        0.000        0.000        0.000        0.000      100.000        0.000        0.000        2.328        2.376        3.113
     540.000  -244129.810    23623.905    14704.863    43537.158       74.112  -370971.788    44901.940       25.964       25.810        2.586        2.594        2.616        2.675        2.412        2.530        2.697        2.585        2.553        2.686        2.613        2.549        3.101        2.950        2.475        2.553        0.475        0.000        0.000        0.000        0.000        2.000        3.000        0.000        0.000        0.000        0.000        0.000        0.000        0.000        2.000        0.000        0.000        0.000        0.000        0.000        0.000        0.000        0.000        0.000        0.000        1.000        0.000        0.000        2.000        1.000       11.000        0.000        0.000        0.000        0.000        0.000      100.000        0.000        0.000        2.303        2.356        3.195
     550.000  -244722.204    24811.290    14548.558    43563.507       61.124  -371029.665    43322.983       25.928       25.832        2.572        2.653        2.568        2.633        2.419        2.549        2.716        2.577        2.672        2.715        2.637        2.536        3.096        2.944        2.451        2.578        0.481        0.000        0.000        0.000        0.000        2.000        3.000        0.000        0.000        0.000        0.000        0.000        0.000        0.000        0.000        0.000        0.000        0.000        0.000        0.000        0.000        0.000        0.000        0.000        0.000        1.000        0.000        0.000        1.000        2.000        6.000        0.000        0.000        0.000        0.000        0.000      100.000        0.000        0.000        2.456        2.475        3.315
     560.000  -245075.301    24659.751    14390.732    43815.978       82.934  -370610.264    42585.567       25.787       25.596        2.542        2.628        2.630        2.596        2.415        2.537        2.696        2.622        2.694        2.677        2.595        2.501        3.054        2.958        2.491        2.555        0.492        0.000        0.000        0.000        0.000        2.000        2.000        0.000        0.000        0.000        0.000        0.000        0.000        0.000        1.000        0.000        0.000        0.000        0.000        0.000        0.000        0.000        0.000        0.000        0.000        1.000        1.000        0.000        1.000        1.000       11.000        0.000        0.000        0.000        0.000        0.000      100.000        0.000        0.000        2.392        2.406        3.228
     570.000  -245307.798    23402.916    14749.931    43736.565       81.641  -371919.119    44640.269       25.643       25.737        2.550        2.637        2.673        2.592        2.404        2.503        2.719        2.552        2.684        2.684        2.600        2.506        3.163        2.950        2.457        2.507        0.504        0.000        0.000        0.000        0.000        2.000        3.000        0.000        0.000        0.000        0.000        0.000        0.000        0.000        0.000        0.000        0.000        0.000        0.000        0.000        0.000        0.000        0.000        0.000        0.000        2.000        2.000        0.000        2.000        0.000       11.000        0.000        0.000        0.000        4.494        0.000       95.506        0.000        0.000        2.682        2.726        3.523
     580.000  -245032.398    23381.673    14506.079    43809.116       75.352  -372011.296    45206.679       25.825       25.809        2.524        2.621        2.599        2.557        2.425        2.537        2.680        2.575        2.699        2.691        2.559        2.469        3.063        2.923        2.397        2.546        0.493        0.000        0.000        0.000        0.000        2.000        3.000        0.000        0.000        0.000        0.000        0.000        0.000        0.000        1.000        0.000        0.000        0.000        0.000        0.000        0.000        0.000        0.000        0.000        0.000        2.000        0.000        0.000        3.000        2.000        7.000        0.000        0.000        0.000        0.000        0.000      100.000        0.000        0.000        2.794        2.831        3.622
     590.000  -245016.001    24042.051    14350.750    43882.222       79.808  -371560.561    44189.730       25.782       25.630        2.603        2.610        2.658        2.598        2.394        2.508        2.711        2.529        2.625        2.686        2.608        2.476        3.134        2.930        2.462        2.577        0.490        0.000        0.000        0.000        0.000        2.000        1.000        0.000        0.000        0.000        0.000        0.000        0.000        0.000        0.000        0.000        0.000        0.000        0.000        0.000        0.000        0.000        0.000        0.000        0.000        1.000        1.000        0.000        1.000        1.000       11.000        0.000        0.000        0.000        0.000        0.000      100.000        0.000        0.000        2.593        2.611        3.520
     600.000  -245101.138    23921.185    14626.784    43684.001       69.173  -370639.821    43237.540       25.700       25.531        2.629        2.640        2.684        2.609        2.443        2.563        2.743        2.564        2.654        2.680        2.598        2.471        3.029        2.863        2.436        2.585        0.481        0.000        0.000        0.000        0.000        1.000        4.000        0.000        0.000        0.000        0.000        0.000        0.000        0.000        2.000        0.000        0.000        0.000        0.000        0.000        0.000        0.000        0.000        0.000        0.000        1.000        0.000        0.000        2.000        2.000        9.000        0.000        0.000        0.000        0.000        0.000      100.000        0.000        0.000        2.752        2.743        3.594
     610.000  -245304.954    23908.083    14530.379    43838.453       79.566  -371412.504    43751.068       25.825       25.621        2.568        2.676        2.672        2.634        2.389        2.527        2.709        2.567        2.668        2.730        2.614        2.516        3.111        2.876        2.476        2.585        0.466        0.000        0.000        0.000        0.000        1.000        3.000        0.000        0.000        0.000        0.000        0.000        0.000        0.000        1.000        0.000        0.000        0.000        0.000        0.000        0.000        0.000        0.000        0.000        0.000        2.000        1.000        0.000        3.000        0.000        8.000        0.000        0.000        0.000        0.000        0.000      100.000        0.000        0.000        2.715        2.756        3.480
     620.000  -244747.644    24104.320    14297.880    43844.699       86.790  -370577.955    43496.622       25.756       25.538        2.558        2.596        2.618        2.613        2.413        2.571        2.720        2.567        2.654        2.663        2.569        2.581        3.103        2.921        2.446        2.598        0.495        0.000        0.000        0.000        0.000        2.000        4.000        0.000        0.000        0.000        0.000        0.000        0.000        0.000        1.000        0.000        0.000        0.000        0.000        0.000        0.000        0.000        0.000        0.000        0.000        1.000        0.000        0.000        3.000        0.000        9.000        0.000        0.000        0.000        0.000        0.000      100.000        0.000        0.000        2.673        2.738        3.538
     630.000  -244264.531    23521.858    14680.583    43705.056       73.511  -369819.232    43573.692       25.427       25.496        2.525        2.607        2.638        2.564        2.423        2.532        2.691        2.602        2.651        2.678        2.527        2.529        3.058        2.915        2.461        2.535        0.501        0.000        0.000        0.000        0.000        2.000        2.000        0.000        0.000        0.000        0.000        0.000        0.000        0.000        1.000        0.000        0.000        0.000        0.000        0.000        0.000        0.000        0.000        0.000        0.000        2.000        1.000        0.000        2.000        0.000       13.000        0.000        0.000        0.000        0.000        0.000      100.000        0.000        0.000        2.222        2.248        3.139
     640.000  -244724.403    24433.229    14815.758    43773.593      104.382  -371279.302    43427.938       25.901       25.940        2.581        2.568        2.674        2.622        2.420        2.591        2.744        2.585        2.725        2.698        2.577        2.547        2.994        2.885        2.501        2.568        0.494        0.000        0.000        0.000        0.000        1.000        4.000        0.000        0.000        0.000        0.000        0.000        0.000        0.000        2.000        0.000        0.000        0.000        0.000        0.000        0.000        0.000        0.000        0.000        0.000        1.000        0.000        0.000        1.000        0.000       11.000        0.000        0.000        0.000        0.000        0.000      100.000        0.000        0.000        2.065        2.084        3.002
     650.000  -244114.560    23764.805    14698.203    43772.757       70.749  -370385.105    43964.030       26.058       26.147        2.545        2.539        2.613        2.610        2.464        2.600        2.716        2.535        2.722        2.714        2.591        2.469        2.992        2.966        2.455        2.513        0.491        0.000        0.000        0.000        1.000        0.000        3.000        0.000        0.000        0.000        0.000        0.000        0.000        0.000        1.000        0.000        0.000        0.000        0.000        0.000        0.000        0.000        0.000        0.000        0.000        2.000        1.000        0.000        3.000        0.000        7.000        0.000        0.000        0.000        0.000        0.000      100.000        0.000        0.000        1.715        1.728        2.801
     660.000  -244939.148    23478.127    14377.391    43734.531       67.921  -371143.392    44546.273       26.212       25.949        2.526        2.595        2.643        2.647        2.428        2.573        2.682        2.553        2.710        2.688        2.529        2.473        3.027        2.899        2.471        2.547        0.486        0.000        0.000        0.000        0.000        1.000        6.000        0.000        0.000        0.000        0.000        0.000        0.000        0.000        0.000        0.000        0.000        0.000        0.000        0.000        0.000        0.000        0.000        0.000        0.000        3.000        0.000        0.000        5.000        1.000       11.000        0.000        0.000        0.000        0.000        0.000      100.000        0.000        0.000        1.981        1.995        3.038
     670.000  -244891.190    24016.360    14598.269    43595.097       90.785  -370502.789    43311.089       25.983       25.947        2.610        2.567        2.696        2.632        2.390        2.579        2.703        2.543        2.665        2.721        2.588        2.512        3.078        2.863        2.465        2.546        0.470        0.000        0.000        0.000        0.000        0.000        4.000        0.000        0.000        0.000        0.000        0.000        0.000        0.000        2.000        0.000        0.000        0.000        0.000        0.000        0.000        0.000        0.000        0.000        0.000        0.000        0.000        0.000        2.000        1.000        4.000        0.000        0.000        0.000        0.000        0.000      100.000        0.000        0.000        2.288        2.313        3.441
     680.000  -244866.777    23442.927    14787.073    43635.875       73.663  -371517.066    44710.750       26.002       25.988        2.627        2.622        2.684        2.631        2.415        2.569        2.687        2.507        2.679        2.678        2.586        2.497        3.051        2.933        2.527        2.569        0.464        0.000        0.000        0.000        1.000        1.000        4.000        0.000        0.000        0.000        0.000        0.000        0.000        0.000        1.000        0.000        0.000        0.000        0.000        0.000        0.000        0.000        0.000        0.000        0.000        2.000        0.000        0.000        2.000        0.000        8.000        0.000        0.000        0.000        0.000        0.000      100.000        0.000        0.000        2.344        2.391        3.332
     690.000  -244394.202    23346.344    14872.873    43869.229       81.254  -370513.910    43950.008       25.913       25.798        2.556        2.546        2.619        2.591        2.444        2.569        2.668        2.527        2.652        2.695        2.619        2.540        3.039        2.950        2.461        2.624        0.485        0.000        0.000        0.000        1.000        1.000        6.000        0.000        0.000        0.000        0.000        0.000        0.000        0.000        0.000        0.000        0.000        0.000        0.000        0.000        0.000        0.000        0.000        0.000        0.000        2.000        0.000        0.000        4.000        1.000        8.000        0.000        0.000        0.000        0.000        0.000      100.000        0.000        0.000        2.228        2.241        3.343
     700.000  -244244.295    25076.849    14281.492    43717.676       59.300  -369507.820    42128.209       26.098       25.976        2.597        2.557        2.643        2.588        2.410        2.584        2.702        2.578        2.610        2.685        2.577        2.507        3.054        2.920        2.429        2.516        0.486        0.000        0.000        0.000        0.000        1.000        6.000        0.000        0.000        0.000        0.000        0.000        0.000        0.000        3.000        0.000        0.000        0.000        0.000        0.000        0.000        0.000        0.000        0.000        0.000        1.000        1.000        0.000        4.000        2.000        8.000        0.000        0.000        0.000        0.000        0.000      100.000        0.000        0.000        1.797        1.809        3.001
     710.000  -245421.098    23308.495    14284.086    43852.470       70.209  -371643.739    44707.380       26.096       26.260        2.577        2.606        2.634        2.587        2.450        2.577        2.719        2.512        2.632        2.708        2.615        2.477        3.038        2.907        2.490        2.518        0.508        0.000        0.000        0.000        1.000        1.000        3.000        0.000        0.000        0.000        0.000        0.000        0.000        0.000        0.000        0.000        0.000        0.000        0.000        0.000        0.000        0.000        0.000        0.000        0.000        1.000        1.000        0.000        1.000        1.000        6.000        0.000        0.000        0.000        0.000        0.000      100.000        0.000        0.000        1.795        1.822        2.955
     720.000  -245104.340    23292.895    14227.417    43822.642       96.733  -371548.390    45004.364       26.190       26.179        2.617        2.567        2.655        2.639        2.399        2.557        2.701        2.583        2.605        2.703        2.559        2.439        3.063        2.825        2.509        2.545        0.494        0.000        0.000        0.000        1.000        1.000        4.000        0.000        0.000        0.000        0.000        0.000        0.000        0.000        0.000        0.000        0.000        0.000        0.000        0.000        0.000        0.000        0.000        0.000        0.000        3.000        0.000        0.000        1.000        2.000        9.000        0.000        0.000        0.000        0.000        0.000      100.000        0.000        0.000        1.605        1.622        2.703
     730.000  -244194.888    24349.301    14603.952    43705.010       88.194  -370222.043    43280.698       26.376       26.500        2.550        2.632        2.691        2.640        2.445        2.594        2.711        2.584        2.641        2.709        2.635        2.506        3.061        2.856        2.468        2.594        0.496        0.000        0.000        0.000        1.000        1.000        5.000        0.000        0.000        0.000        0.000        0.000        0.000        0.000        1.000        0.000        0.000        0.000        0.000        0.000        0.000        0.000        0.000        0.000        0.000        1.000        0.000        0.000        3.000        2.000        9.000        0.000        0.000        0.000        0.000        0.000      100.000        0.000        0.000        1.841        1.859        2.824
     740.000  -244024.095    23542.727    14655.411    43676.984       81.068  -369639.421    43659.136       26.190       26.098        2.532        2.667        2.637        2.622        2.551        2.609        2.741        2.509        2.665        2.721        2.626        2.502        2.996        2.893        2.438        2.521        0.503        0.000        0.000        0.000        1.000        1.000        4.000        0.000        0.000        0.000        0.000        0.000        0.000        0.000        0.000        0.000        0.000        0.000        0.000        0.000        1.000        0.000        0.000        0.000        0.000        2.000        0.000        0.000        2.000        0.000        6.000        0.000        0.000        0.000        0.000        0.000      100.000        0.000        0.000        1.793        1.784        2.813
     750.000  -244557.040    24482.134    14666.602    43677.595       75.693  -369693.149    42234.086       25.905       25.763        2.574        2.663        2.669        2.697        2.418        2.580        2.691        2.570        2.661        2.690        2.598        2.481        3.076        2.915        2.466        2.583        0.496        0.000        0.000        0.000        1.000        0.000        6.000        0.000        0.000        0.000        0.000        0.000        0.000        0.000        0.000        0.000        0.000        0.000        0.000        0.000        0.000        0.000        0.000        0.000        0.000        1.000        0.000        0.000        2.000        1.000        6.000        0.000        0.000        0.000        0.000        0.000      100.000        0.000        0.000        1.731        1.712        2.774
     760.000  -244658.933    23777.414    14469.842    43893.297       72.404  -370588.296    43716.406       25.849       25.891        2.621        2.694        2.697        2.638        2.370        2.594        2.675        2.579        2.652        2.686        2.610        2.445        3.064        2.849        2.469        2.597        0.492        0.000        0.000        0.000        1.000        1.000        5.000        0.000        0.000        0.000        0.000        0.000        0.000        0.000        0.000        0.000        0.000        0.000        0.000        0.000        1.000        0.000        0.000        0.000        0.000        0.000        0.000        0.000        1.000        1.000       10.000        0.000        0.000        0.000        0.000        0.000      100.000        0.000        0.000        1.736        1.697        2.848
     770.000  -244466.485    23788.538    14444.734    43889.597       81.766  -369407.914    42736.795       25.932       25.811        2.618        2.623        2.654        2.608        2.441        2.554        2.670        2.516        2.627        2.683        2.602        2.469        3.024        2.879        2.468        2.536        0.490        0.000        0.000        0.000        1.000        1.000        4.000        0.000        0.000        0.000        0.000        0.000        0.000        0.000        1.000        0.000        0.000        0.000        0.000        0.000        1.000        0.000        0.000        0.000        0.000        2.000        0.000        0.000        1.000        1.000        7.000        0.000        0.000        0.000        0.000        0.000      100.000        0.000        0.000        1.746        1.723        2.811
     780.000  -245634.208    24758.249    14145.294    43681.565       85.997  -372033.192    43727.879       25.810       25.745        2.584        2.642        2.614        2.602        2.469        2.567        2.683        2.574        2.643        2.715        2.586        2.539        3.052        2.891        2.434        2.542        0.498        0.000        0.000        0.000        1.000        1.000        5.000        0.000        0.000        0.000        0.000        0.000        0.000        0.000        0.000        0.000        0.000        0.000        0.000        0.000        1.000        0.000        0.000        0.000        0.000        1.000        0.000        0.000        3.000        1.000        7.000        0.000        0.000        0.000        0.000        0.000      100.000        0.000        0.000        1.829        1.800        2.884
     790.000  -245315.935    23430.921    14523.824    43804.434       82.876  -372302.333    45144.342       25.647       25.688        2.607        2.681        2.565        2.586        2.433        2.586        2.643        2.547        2.711        2.703        2.556        2.475        3.049        2.851        2.434        2.592        0.495        0.000        0.000        0.000        1.000        1.000        5.000        0.000        0.000        0.000        0.000        0.000        0.000        0.000        1.000        0.000        0.000        0.000        0.000        0.000        1.000        0.000        0.000        0.000        0.000        0.000        1.000        0.000        1.000        1.000        9.000        0.000        0.000        0.000        0.000        0.000      100.000        0.000        0.000        1.888        1.884        2.848
     800.000  -244127.671    24449.924    14275.753    43674.135       70.944  -370380.221    43781.792       25.985       26.007        2.584        2.655        2.682        2.632        2.505        2.560        2.684        2.542        2.654        2.698        2.619        2.527        3.062        2.900        2.450        2.616        0.485        0.000        0.000        0.000        1.000        1.000        4.000        0.000        0.000        0.000        0.000        0.000        0.000        0.000        0.000        0.000        0.000        0.000        0.000        0.000        1.000        0.000        0.000        0.000        0.000        1.000        1.000        0.000        4.000        0.000        4.000        0.000        0.000        0.000        0.000        0.000      100.000        0.000        0.000        1.755        1.742        2.846
     810.000  -244458.633    23485.359    14176.510    44009.301       66.796  -371051.812    44855.214       25.822       25.849        2.587        2.623        2.674        2.660        2.525        2.568        2.705        2.597        2.624        2.698        2.593        2.483        3.043        2.916        2.446        2.522        0.472        0.000        0.000        0.000        1.000        1.000        3.000        0.000        0.000        0.000        0.000        0.000        0.000        0.000        0.000        0.000        0.000        0.000        0.000        0.000        1.000        0.000        0.000        0.000        0.000        1.000        1.000        0.000        2.000        0.000        7.000        0.000        0.000        0.000        0.000        0.000      100.000        0.000        0.000        1.773        1.741        2.884
     820.000  -244624.103    22800.022    14560.848    44137.076       74.119  -370537.813    44341.645       25.716       25.746        2.568        2.615        2.567        2.596        2.466        2.578        2.691        2.586        2.654        2.711        2.560        2.480        3.027        2.914        2.410        2.520        0.479        0.000        0.000        0.000        1.000        1.000        4.000        0.000        0.000        0.000        0.000        0.000        0.000        0.000        0.000        0.000        0.000        0.000        0.000        0.000        1.000        0.000        0.000        0.000        0.000        1.000        0.000        0.000        4.000        1.000        6.000        0.000        0.000        0.000        0.000        0.000      100.000        0.000        0.000        1.865        1.838        2.804
     830.000  -244346.466    23329.046    14489.240    43711.235      108.212  -371555.156    45570.957       25.846       25.890        2.580        2.643        2.623        2.609        2.434        2.579        2.669        2.589        2.608        2.645        2.600        2.504        2.901        2.879        2.448        2.538        0.503        0.000        0.000        0.000        1.000        1.000        4.000        0.000        0.000        0.000        0.000        0.000        0.000        0.000        1.000        0.000        0.000        0.000        0.000        0.000        1.000        0.000        0.000        0.000        0.000        0.000        0.000        0.000        3.000        0.000       11.000        0.000        0.000        0.000        0.000        0.000      100.000        0.000        0.000        1.996        1.978        2.927
     840.000  -244509.218    25318.306    14732.423    43576.821       90.100  -371036.680    42809.813       26.094       25.950        2.537        2.598        2.590        2.611        2.439        2.554        2.703        2.610        2.618        2.710        2.622        2.525        2.973        2.928        2.455        2.601        0.467        0.000        0.000        0.000        1.000        0.000        5.000        0.000        0.000        0.000        0.000        0.000        0.000        0.000        0.000        0.000        0.000        0.000        0.000        0.000        1.000        0.000        0.000        0.000        0.000        2.000        2.000        0.000        5.000        1.000        9.000        0.000        0.000        0.000        0.000        0.000      100.000        0.000        0.000        1.971        1.945        2.995
     850.000  -244627.355    24638.769    14592.237    43732.709       86.559  -371012.862    43335.232       25.746       25.831        2.656        2.636        2.587        2.616        2.474        2.609        2.678        2.627        2.639        2.667        2.603        2.528        2.936        2.885        2.453        2.562        0.484        0.000        0.000        0.000        1.000        1.000        4.000        0.000        0.000        0.000        0.000        0.000        0.000        0.000        1.000        0.000        0.000        0.000        0.000        0.000        0.000        0.000        0.000        0.000        0.000        0.000        0.000        0.000        2.000        2.000       11.000        0.000        0.000        0.000        0.000        0.000      100.000        0.000        0.000        1.931        1.897        2.947
     860.000  -244677.754    24160.453    14376.115    43501.239       84.896  -371246.691    44446.233       26.166       26.264        2.631        2.640        2.640        2.590        2.452        2.592        2.725        2.556        2.647        2.702        2.587        2.497        2.964        2.946        2.455        2.579        0.489        0.000        0.000        0.000        1.000        1.000        4.000        0.000        0.000        0.000        0.000        0.000        0.000        0.000        1.000        0.000        0.000        0.000        0.000        0.000        1.000        0.000        0.000        0.000        0.000        1.000        0.000        0.000        2.000        3.000        4.000        0.000        0.000        0.000        0.000        0.000      100.000        0.000        0.000        1.975        1.962        3.038
     870.000  -245197.022    23881.241    14292.068    43934.840       78.576  -371595.459    44211.712       25.793       25.827        2.600        2.616        2.623        2.637        2.501        2.574        2.692        2.561        2.598        2.703        2.606        2.534        2.949        2.912        2.480        2.570        0.479        0.000        0.000        0.000        1.000        1.000        4.000        0.000        0.000        0.000        0.000        0.000        0.000        0.000        1.000        0.000        0.000        0.000        0.000        0.000        0.000        0.000        0.000        0.000        0.000        2.000        0.000        0.000        3.000        1.000       12.000        0.000        0.000        0.000        0.000        0.000      100.000        0.000        0.000        1.777        1.781        2.899
     880.000  -245057.322    24174.148    14533.481    43757.592       65.060  -371667.837    44080.234       25.811       25.836        2.694        2.653        2.688        2.619        2.430        2.610        2.710        2.610        2.604        2.689        2.587        2.483        2.872        2.874        2.527        2.574        0.468        0.000        0.000        0.000        1.000        2.000        2.000        0.000        0.000        0.000        0.000        0.000        0.000        0.000        0.000        0.000        0.000        0.000        0.000        0.000        1.000        0.000        0.000        0.000        0.000        0.000        0.000        0.000        2.000        0.000       12.000        0.000        0.000        0.000        0.000        0.000      100.000        0.000        0.000        1.504        1.515        2.731
     890.000  -244978.843    23413.683    14172.464    43830.209       84.582  -370833.698    44353.917       26.098       26.200        2.648        2.606        2.682        2.579        2.366        2.602        2.706        2.580        2.645        2.703        2.634        2.500        2.931        2.920        2.409        2.630        0.484        0.000        0.000        0.000        1.000        1.000        4.000        0.000        0.000        0.000        0.000        0.000        0.000        0.000        3.000        0.000        0.000        0.000        0.000        0.000        1.000        0.000        0.000        0.000        0.000        0.000        1.000        0.000        2.000        0.000       11.000        0.000        0.000        0.000        0.000        0.000      100.000        0.000        0.000        1.766        1.771        2.837
     900.000  -243720.103    23686.178    14873.301    43873.116       76.850  -371440.402    45210.855       26.028       26.188        2.619        2.602        2.672        2.575        2.402        2.640        2.667        2.584        2.609        2.664        2.601        2.485        2.985        2.922        2.460        2.595        0.486        0.000        0.000        0.000        1.000        0.000        4.000        0.000        0.000        0.000        0.000        0.000        0.000        0.000        1.000        0.000        0.000        0.000        0.000        0.000        1.000        0.000        0.000        0.000        0.000        1.000        0.000        0.000        1.000        0.000        9.000        0.000        0.000        0.000        0.000        0.000      100.000        0.000        0.000        1.699        1.701        3.025
     910.000  -245416.945    23928.889    14539.773    43904.521       61.677  -373116.171    45264.365       26.084       26.323        2.579        2.663        2.653        2.611        2.412        2.609        2.694        2.581        2.607        2.699        2.558        2.521        2.881        2.887        2.445        2.559        0.487        0.000        0.000        0.000        1.000        1.000        2.000        0.000        0.000        0.000        0.000        0.000        0.000        0.000        1.000        0.000        0.000        0.000        0.000        0.000        1.000        0.000        0.000        0.000        0.000        0.000        1.000        0.000        1.000        0.000        7.000        0.000        0.000        0.000        0.000        0.000      100.000        0.000        0.000        1.658        1.663        2.935
     920.000  -245251.546    23349.394    14666.269    43872.557       87.770  -372273.221    45045.685       26.039       26.172        2.502        2.635        2.655        2.603        2.475        2.585        2.648        2.583        2.627        2.693        2.641        2.524        3.019        2.915        2.438        2.535        0.502        0.000        0.000        0.000        1.000        1.000        3.000        0.000        0.000        0.000        0.000        0.000        0.000        0.000        1.000        0.000        0.000        0.000        0.000        0.000        1.000        0.000        0.000        0.000        0.000        2.000        0.000        0.000        3.000        0.000        8.000        0.000        0.000        0.000        0.000        0.000      100.000        0.000        0.000        1.645        1.680        2.973
     930.000  -244724.135    23325.223    14580.137    43833.093       84.476  -371674.884    45127.820       26.040       26.228        2.563        2.658        2.651        2.605        2.404        2.622        2.640        2.561        2.574        2.674        2.559        2.508        2.952        2.917        2.493        2.540        0.480        0.000        0.000        0.000        1.000        0.000        3.000        0.000        0.000        0.000        0.000        0.000        0.000        0.000        2.000        0.000        0.000        0.000        0.000        0.000        1.000        0.000        0.000        0.000        0.000        0.000        0.000        0.000        1.000        0.000        6.000        0.000        0.000        0.000        0.000        0.000      100.000        0.000        0.000        1.820        1.842        3.123
     940.000  -244355.271    24608.548    14627.503    43917.615       84.791  -371009.804    43416.075       25.784       25.886        2.594        2.600        2.691        2.615        2.524        2.573        2.706        2.632        2.639        2.710        2.600        2.527        2.977        2.936        2.446        2.586        0.496        0.000        0.000        0.000        1.000        1.000        2.000        0.000        0.000        0.000        0.000        0.000        0.000        0.000        0.000        0.000        0.000        0.000        0.000        0.000        1.000        0.000        0.000        0.000        0.000        1.000        0.000        0.000        2.000        0.000       10.000        0.000        0.000        0.000        0.000        0.000      100.000        0.000        0.000        1.670        1.687        2.998
     950.000  -244798.336    24973.352    14691.042    43472.582       67.101  -371091.765    43089.352       26.317       26.319        2.515        2.595        2.615        2.629        2.403        2.623        2.686        2.573        2.618        2.691        2.610        2.564        2.941        2.887        2.465        2.546        0.468        0.000        0.000        0.000        1.000        1.000        3.000        0.000        0.000        0.000        0.000        0.000        0.000        0.000        1.000        0.000        0.000        0.000        0.000        0.000        1.000        0.000        0.000        0.000        0.000        2.000        0.000        0.000        3.000        0.000        4.000        0.000        0.000        0.000        0.000        0.000      100.000        0.000        0.000        1.809        1.808        2.988
     960.000  -244683.665    23075.821    14507.818    43952.347       81.148  -371411.687    45110.888       26.105       25.974        2.589        2.639        2.664        2.647        2.452        2.611        2.690        2.549        2.585        2.701        2.592        2.514        2.958        2.853        2.464        2.573        0.493        0.000        0.000        0.000        1.000        1.000        4.000        0.000        0.000        0.000        0.000        0.000        0.000        0.000        2.000        0.000        0.000        0.000        0.000        0.000        0.000        0.000        0.000        0.000        0.000        1.000        1.000        0.000        5.000        0.000       11.000        0.000        0.000        0.000        0.000        0.000      100.000        0.000        0.000        1.663        1.672        2.765
     970.000  -244179.734    23903.299    14191.772    43686.034       87.170  -370034.177    43986.168       26.151       25.957        2.567        2.578        2.663        2.654        2.414        2.598        2.724        2.596        2.614        2.671        2.555        2.555        2.980        2.913        2.469        2.625        0.486        0.000        0.000        0.000        1.000        1.000        2.000        0.000        0.000        0.000        0.000        0.000        0.000        0.000        1.000        0.000        0.000        0.000        0.000        0.000        1.000        0.000        0.000        0.000        0.000        2.000        0.000        0.000        2.000        0.000        9.000        0.000        0.000        0.000        0.000        0.000      100.000        0.000        0.000        1.658        1.663        2.659
     980.000  -244128.832    24993.219    14348.583    43668.240       65.005  -370232.141    43028.262       26.299       26.084        2.557        2.603        2.686        2.610        2.450        2.590        2.645        2.602        2.596        2.667        2.597        2.515        2.958        2.913        2.437        2.611        0.492        0.000        0.000        0.000        1.000        0.000        3.000        0.000        0.000        0.000        0.000        0.000        0.000        0.000        2.000        0.000        0.000        0.000        0.000        0.000        1.000        0.000        0.000        0.000        0.000        0.000        0.000        0.000        4.000        0.000        2.000        0.000        0.000        0.000        0.000        0.000      100.000        0.000        0.000        1.622        1.638        2.614
     990.000  -244548.440    23079.018    14045.478    43729.209       60.374  -369601.119    44138.601       26.321       25.938        2.625        2.629        2.694        2.639        2.535        2.591        2.693        2.550        2.658        2.701        2.558        2.490        2.958        2.870        2.496        2.594        0.506        0.000        0.000        0.000        1.000        1.000        5.000        0.000        0.000        0.000        0.000        0.000        0.000        0.000        3.000        0.000        0.000        0.000        0.000        0.000        0.000        0.000        0.000        0.000        0.000        1.000        2.000        0.000        5.000        0.000        6.000        0.000        0.000        0.000        0.000        0.000      100.000        0.000        0.000        1.942        1.954        2.869
    1000.000  -244846.553    23659.378    14581.241    43799.668       82.924  -370994.596    44024.832       26.184       26.025        2.541        2.566        2.687        2.617        2.495        2.609        2.721        2.574        2.584        2.693        2.609        2.535        2.868        2.904        2.501        2.619        0.487        0.000        0.000        0.000        1.000        1.000        4.000        0.000        0.000        0.000        0.000        0.000        0.000        0.000        2.000        0.000        0.000        0.000        0.000        0.000        0.000        0.000        0.000        0.000        0.000        1.000        0.000        0.000        3.000        0.000        9.000        0.000        0.000        0.000        0.000        0.000      100.000        0.000        0.000        1.749        1.778        2.717
     Average  -246403.106    24376.244    14629.535    43822.602       76.513  -374026.389    44718.388       25.880       25.901        2.555        2.620        2.618        2.634        2.468        2.568        2.692        2.565        2.632        2.688        2.591        2.535        3.039        2.915        2.461        2.570        0.488        0.000        0.000        0.000        0.634        1.574        3.604        0.000        0.000        0.000        0.040        0.000        0.000        0.030        1.277        0.000        0.000        0.000        0.000        0.000        0.248        0.000        0.000        0.000        0.000        1.030        0.673        0.000        2.168        0.752        8.574        0.000        0.000        0.000        0.044        0.000       99.956        0.000        0.000        1.874        1.882        2.730

