____Time[ps] Energy[ kJ/mol ]_____Bond _______Angle ____Dihedral ___Planarity _____Coulomb _________VdW _Your result _Your result _Your result _Your result _Your result _Your result _Your result _Your result _Your result _Your result _Your result _Your result _Your result _Your result _Your result _Your result _Your result _Your result _Your result _Your result _Your result _Your result _Your result _Your result _Your result _Your result _Your result _Your result _Your result _Your result _Your result _Your result _Your result _Your result _Your result _Your result _Your result _Your result _Your result _Your result _Your result _Your result _Your result _Your result _Your result _Your result _Your result _Your result _Your result _Your result _Your result _Your result _Your result _Your result _Your result _Your result _Your result _RMSDs[A]:CA ____Backbone __HeavyAtoms
       0.000  -373178.323     8925.477     5334.176    43123.810       12.002  -502761.473    72187.685       25.534       25.184        2.860        3.023        3.147        3.209        3.250        3.111        2.704        3.050        3.237        3.217        3.160        2.657        2.931        2.865        3.111        3.038        0.489        0.000        0.000        0.000        1.000        1.000        6.000        0.000        0.000        0.000        1.000        0.000        0.000        0.000        1.000        0.000        0.000        0.000        0.000        0.000        0.000        0.000        0.000        0.000        0.000        1.000        0.000        0.000        1.000        0.000        4.000        0.000        0.000        0.000        0.000        0.000      100.000        0.000        0.000        0.486        0.527        0.624
      10.000  -280243.700    32382.894    16527.517    42560.292       93.780  -425244.771    53436.588       26.179       26.045        3.004        2.977        3.118        3.182        3.114        3.012        2.631        2.990        3.248        3.232        3.099        2.704        2.957        2.893        3.048        3.069        0.477        1.000        0.000        0.000        0.000        1.000        4.000        0.000        0.000        0.000        2.000        0.000        0.000        0.000        1.000        0.000        0.000        0.000        0.000        0.000        0.000        0.000        0.000        0.000        0.000        2.000        0.000        0.000        1.000        1.000       12.000        0.000        0.000        0.000        4.494        0.000       95.506        0.000        0.000        1.253        1.277        1.406
      20.000  -280110.465    31416.012    16761.978    42769.960       79.940  -425640.166    54501.811       26.250       26.241        2.948        2.915        3.155        3.184        3.180        3.029        2.684        3.015        3.269        3.220        3.037        2.641        2.905        3.002        3.036        3.030        0.515        0.000        0.000        0.000        1.000        0.000        3.000        0.000        0.000        1.000        1.000        0.000        0.000        0.000        2.000        0.000        0.000        0.000        0.000        0.000        0.000        0.000        0.000        0.000        0.000        0.000        2.000        0.000        1.000        2.000       12.000        0.000        0.000        0.000        4.494        0.000       95.506        0.000        0.000        1.357        1.392        1.535
      30.000  -279411.506    30948.453    16878.691    42887.709       91.476  -424067.028    53849.193       26.285       26.133        2.948        2.872        3.150        3.228        3.095        3.023        2.615        3.014        3.256        3.227        3.078        2.602        2.879        2.977        3.111        3.001        0.481        1.000        0.000        0.000        1.000        1.000        4.000        0.000        0.000        1.000        1.000        0.000        0.000        0.000        0.000        0.000        0.000        0.000        0.000        0.000        0.000        0.000        0.000        0.000        0.000        0.000        1.000        0.000        3.000        1.000        9.000        0.000        0.000        0.000        4.494        0.000       95.506        0.000        0.000        1.512        1.525        1.706
      40.000  -279354.223    31396.925    16860.701    43014.831       79.651  -424136.916    53430.585       26.157       26.045        2.998        2.926        3.217        3.185        3.182        2.996        2.642        2.959        3.240        3.270        3.150        2.625        2.977        2.906        3.089        3.033        0.504        0.000        0.000        0.000        0.000        1.000        3.000        0.000        0.000        1.000        0.000        0.000        0.000        0.000        4.000        0.000        0.000        0.000        0.000        0.000        0.000        0.000        0.000        0.000        0.000        0.000        1.000        0.000        1.000        2.000        9.000        0.000        0.000        0.000        0.000        0.000      100.000        0.000        0.000        1.431        1.466        1.723
      50.000  -278968.112    30601.671    16642.745    43000.042       92.113  -422201.610    52896.928       26.212       26.178        3.038        3.005        3.119        3.161        3.112        3.032        2.683        3.007        3.298        3.284        3.115        2.591        2.906        2.954        3.049        2.974        0.462        1.000        0.000        0.000        0.000        1.000        3.000        0.000        0.000        0.000        0.000        0.000        0.000        0.000        5.000        0.000        0.000        0.000        0.000        0.000        0.000        0.000        0.000        0.000        0.000        0.000        2.000        0.000        4.000        1.000       11.000        0.000        0.000        0.000        4.494        0.000       95.506        0.000        0.000        1.473        1.488        1.766
      60.000  -278844.232    29536.914    16894.446    42941.948       94.624  -422351.719    54039.555       25.848       26.112        2.977        2.947        3.156        3.150        3.073        2.958        2.652        3.047        3.230        3.237        3.152        2.616        2.913        2.963        3.101        3.040        0.476        0.000        0.000        0.000        1.000        1.000        4.000        0.000        0.000        0.000        2.000        0.000        0.000        0.000        3.000        0.000        0.000        0.000        0.000        0.000        0.000        0.000        0.000        0.000        0.000        2.000        0.000        0.000        2.000        2.000        6.000        0.000        0.000        0.000        0.000        0.000      100.000        0.000        0.000        1.397        1.397        1.810
      70.000  -278860.147    28829.038    16762.665    43081.778       81.066  -421206.405    53591.712       25.979       26.030        3.055        2.973        3.157        3.187        3.146        2.990        2.617        3.020        3.274        3.281        3.095        2.632        2.927        2.898        3.102        3.024        0.505        1.000        0.000        0.000        1.000        1.000        2.000        0.000        0.000        0.000        1.000        0.000        0.000        0.000        1.000        0.000        0.000        0.000        0.000        0.000        0.000        0.000        0.000        0.000        0.000        0.000        1.000        0.000        3.000        0.000        4.000        0.000        0.000        0.000        0.000        0.000      100.000        0.000        0.000        1.766        1.773        2.008
      80.000  -277456.118    29842.943    17071.534    42846.494      106.591  -420335.692    53012.013       26.098       26.246        3.055        2.973        3.171        3.178        3.145        2.980        2.609        3.034        3.267        3.294        3.065        2.647        2.995        2.898        3.029        2.977        0.466        1.000        0.000        0.000        1.000        1.000        4.000        0.000        0.000        1.000        0.000        0.000        0.000        0.000        1.000        0.000        0.000        0.000        0.000        0.000        0.000        0.000        0.000        0.000        0.000        0.000        3.000        0.000        2.000        1.000       10.000        0.000        0.000        0.000        4.494        0.000       95.506        0.000        0.000        2.055        2.095        2.257
      90.000  -277948.269    29128.375    17332.645    42936.346       77.402  -419671.783    52248.745       25.870       25.968        3.010        3.018        3.174        3.214        3.153        2.955        2.636        3.003        3.265        3.228        3.122        2.610        2.912        2.886        3.102        2.953        0.482        0.000        0.000        0.000        0.000        1.000        5.000        0.000        0.000        0.000        0.000        0.000        0.000        0.000        1.000        0.000        0.000        0.000        0.000        0.000        0.000        0.000        0.000        0.000        0.000        0.000        0.000        0.000        2.000        1.000        4.000        0.000        0.000        0.000        0.000        0.000      100.000        0.000        0.000        2.189        2.223        2.380
     100.000  -278045.314    29516.654    17098.055    43124.961       83.828  -420697.993    52829.182       25.923       25.935        2.926        3.069        3.174        3.170        3.132        2.938        2.624        2.931        3.246        3.265        3.101        2.668        2.916        2.900        3.077        3.050        0.479        0.000        0.000        0.000        0.000        0.000        3.000        0.000        0.000        0.000        1.000        0.000        0.000        0.000        3.000        0.000        0.000        0.000        0.000        0.000        0.000        0.000        0.000        0.000        0.000        1.000        0.000        0.000        2.000        2.000        4.000        0.000        0.000        0.000        0.000        0.000      100.000        0.000        0.000        2.380        2.379        2.539
     110.000  -277142.183    29499.077    16582.232    42916.256       89.857  -418089.923    51860.318       25.787       26.058        2.988        3.070        3.152        3.199        3.132        3.013        2.619        2.936        3.238        3.170        3.113        2.710        2.940        2.913        3.090        2.971        0.485        0.000        0.000        0.000        0.000        1.000        3.000        0.000        0.000        0.000        0.000        0.000        0.000        0.000        1.000        0.000        0.000        0.000        0.000        0.000        0.000        0.000        0.000        0.000        0.000        1.000        0.000        0.000        1.000        0.000        7.000        0.000        0.000        0.000        0.000        0.000      100.000        0.000        0.000        1.991        2.004        2.243
     120.000  -276836.532    29243.993    16686.159    42987.974       87.172  -418929.489    53087.659       25.754       25.949        2.995        2.923        3.067        3.188        3.129        3.004        2.633        3.046        3.248        3.239        3.039        2.681        2.987        2.937        3.030        3.013        0.477        1.000        0.000        0.000        0.000        0.000        4.000        0.000        0.000        1.000        0.000        0.000        0.000        0.000        2.000        0.000        0.000        0.000        0.000        0.000        0.000        0.000        0.000        0.000        0.000        1.000        2.000        0.000        0.000        2.000        8.000        0.000        0.000        0.000        0.000        0.000      100.000        0.000        0.000        2.090        2.109        2.337
     130.000  -276406.462    29181.155    16938.309    42985.123       80.436  -416973.865    51382.379       25.867       26.093        3.000        3.075        3.076        3.196        3.134        2.964        2.632        2.989        3.297        3.195        3.058        2.608        2.977        2.857        3.034        3.009        0.481        0.000        1.000        0.000        0.000        1.000        4.000        0.000        0.000        1.000        0.000        0.000        0.000        0.000        2.000        0.000        0.000        0.000        0.000        0.000        0.000        0.000        0.000        0.000        0.000        1.000        1.000        0.000        1.000        1.000        6.000        0.000        0.000        0.000        0.000        0.000      100.000        0.000        0.000        1.758        1.758        2.098
     140.000  -277002.764    27997.231    16647.545    42952.860       84.735  -417269.244    52584.109       25.702       26.155        3.006        3.031        3.136        3.222        3.181        3.006        2.609        3.040        3.255        3.220        3.053        2.666        2.950        2.886        3.028        3.013        0.503        1.000        0.000        0.000        0.000        1.000        4.000        0.000        0.000        0.000        0.000        0.000        0.000        0.000        1.000        0.000        0.000        0.000        0.000        0.000        0.000        0.000        0.000        0.000        0.000        1.000        0.000        0.000        1.000        0.000        9.000        0.000        0.000        0.000        0.000        0.000      100.000        0.000        0.000        1.790        1.793        2.158
     150.000  -275850.319    29326.959    16764.330    43105.732      100.326  -416669.527    51521.861       25.664       25.850        2.993        3.085        3.125        3.216        3.187        3.040        2.641        3.011        3.246        3.245        3.103        2.624        3.010        2.939        3.055        3.001        0.479        0.000        0.000        0.000        0.000        1.000        5.000        0.000        0.000        0.000        0.000        0.000        0.000        0.000        1.000        0.000        0.000        0.000        0.000        0.000        0.000        0.000        0.000        0.000        0.000        0.000        1.000        0.000        0.000        1.000       11.000        0.000        0.000        0.000        0.000        0.000      100.000        0.000        0.000        1.699        1.682        2.103
     160.000  -276678.125    29200.175    16978.738    43240.229       87.044  -417985.223    51800.912       25.965       26.110        2.954        3.097        3.136        3.197        3.162        3.005        2.623        3.039        3.226        3.172        3.120        2.656        3.015        2.944        3.111        3.033        0.503        0.000        0.000        0.000        0.000        1.000        5.000        0.000        0.000        0.000        1.000        0.000        0.000        0.000        2.000        0.000        0.000        0.000        0.000        0.000        0.000        0.000        0.000        0.000        0.000        0.000        1.000        0.000        0.000        1.000        8.000        0.000        0.000        0.000        0.000        0.000      100.000        0.000        0.000        1.800        1.802        2.195
     170.000  -276210.023    28537.524    16627.781    42885.080       77.199  -416088.850    51751.244       26.007       26.049        2.966        2.936        3.078        3.250        3.177        3.035        2.621        2.952        3.261        3.295        3.096        2.688        3.017        2.965        3.122        2.954        0.496        1.000        0.000        0.000        0.000        0.000        5.000        0.000        0.000        0.000        0.000        0.000        0.000        0.000        1.000        0.000        0.000        0.000        0.000        0.000        0.000        0.000        0.000        0.000        0.000        0.000        0.000        0.000        2.000        1.000       12.000        0.000        0.000        0.000        0.000        0.000      100.000        0.000        0.000        1.766        1.789        2.120
     180.000  -276149.324    28344.138    16622.155    43052.836       68.711  -415795.306    51558.141       26.011       25.862        3.032        2.929        3.097        3.223        3.151        3.030        2.608        2.879        3.316        3.220        3.100        2.620        2.912        2.949        2.940        2.971        0.480        0.000        0.000        0.000        1.000        1.000        2.000        0.000        0.000        0.000        0.000        0.000        0.000        0.000        1.000        0.000        0.000        0.000        0.000        0.000        0.000        0.000        0.000        0.000        0.000        0.000        1.000        0.000        4.000        1.000        6.000        0.000        0.000        0.000        0.000        0.000      100.000        0.000        0.000        1.948        1.977        2.360
     190.000  -275741.063    28924.859    16472.295    42924.179       96.763  -414311.379    50152.220       26.193       26.206        3.081        3.013        3.156        3.211        3.142        3.037        2.601        2.984        3.280        3.211        3.088        2.694        2.869        2.983        3.012        2.953        0.466        0.000        0.000        0.000        1.000        1.000        2.000        0.000        0.000        1.000        0.000        0.000        0.000        0.000        0.000        0.000        0.000        0.000        0.000        0.000        0.000        0.000        0.000        0.000        0.000        0.000        2.000        0.000        3.000        0.000        8.000        0.000        0.000        0.000        0.000        0.000      100.000        0.000        0.000        2.338        2.343        2.821
     200.000  -274822.380    27735.773    16793.396    43070.550       86.390  -414387.743    51879.254       26.136       26.147        2.938        3.042        3.085        3.214        3.152        3.080        2.662        2.948        3.233        3.216        3.108        2.663        2.941        2.965        3.031        2.894        0.488        0.000        0.000        0.000        1.000        1.000        2.000        0.000        0.000        1.000        0.000        0.000        0.000        0.000        0.000        0.000        0.000        0.000        0.000        0.000        0.000        0.000        0.000        0.000        0.000        1.000        2.000        0.000        3.000        0.000        6.000        0.000        0.000        0.000        0.000        0.000      100.000        0.000        0.000        2.049        2.067        2.589
     210.000  -275396.589    27880.077    16793.290    43111.597       80.577  -415012.937    51750.806       26.236       26.341        3.035        2.832        3.081        3.199        3.143        3.055        2.611        3.059        3.249        3.218        3.073        2.677        2.925        2.977        3.054        2.919        0.487        1.000        0.000        0.000        0.000        1.000        4.000        0.000        0.000        1.000        0.000        0.000        0.000        0.000        0.000        0.000        0.000        0.000        0.000        0.000        0.000        0.000        0.000        0.000        0.000        0.000        3.000        0.000        1.000        4.000        9.000        0.000        0.000        0.000        0.000        0.000      100.000        0.000        0.000        2.178        2.183        2.673
     220.000  -275346.619    27143.735    16898.663    43192.192       95.682  -414347.786    51670.896       25.803       26.046        3.038        2.957        3.126        3.207        3.179        3.027        2.658        2.983        3.236        3.221        3.079        2.673        2.991        2.980        3.024        2.912        0.502        1.000        0.000        0.000        0.000        1.000        3.000        0.000        0.000        0.000        0.000        0.000        1.000        0.000        1.000        0.000        0.000        0.000        0.000        0.000        0.000        0.000        0.000        0.000        0.000        0.000        1.000        0.000        3.000        3.000       11.000        0.000        0.000        0.000        0.000        0.000      100.000        0.000        0.000        1.853        1.851        2.528
     230.000  -275672.853    27900.820    16206.664    43098.112       86.299  -415665.146    52700.396       25.943       25.897        2.956        3.018        3.155        3.188        3.164        3.056        2.640        2.942        3.260        3.223        3.082        2.652        2.883        2.952        3.000        2.960        0.503        1.000        1.000        0.000        0.000        1.000        4.000        0.000        0.000        1.000        0.000        0.000        0.000        0.000        0.000        0.000        0.000        0.000        0.000        0.000        0.000        0.000        0.000        0.000        0.000        1.000        1.000        0.000        1.000        2.000       12.000        0.000        0.000        0.000        0.000        0.000      100.000        0.000        0.000        1.807        1.769        2.528
     240.000  -275220.559    27824.505    16758.799    43106.737       88.302  -415272.344    52273.443       25.961       26.102        2.940        3.143        3.098        3.210        3.090        3.060        2.664        3.054        3.258        3.300        3.117        2.688        2.889        2.913        3.036        2.881        0.489        1.000        1.000        0.000        0.000        1.000        5.000        0.000        0.000        1.000        1.000        0.000        0.000        0.000        0.000        0.000        0.000        0.000        0.000        0.000        0.000        0.000        0.000        0.000        0.000        0.000        2.000        0.000        0.000        2.000        4.000        0.000        0.000        0.000        0.000        0.000      100.000        0.000        0.000        1.914        1.913        2.741
     250.000  -275919.548    28165.104    16539.550    43110.667      101.598  -413688.801    49852.335       26.282       26.434        2.978        3.123        2.997        3.150        3.118        3.097        2.611        3.003        3.293        3.280        3.092        2.632        2.973        2.928        2.999        2.997        0.497        1.000        1.000        0.000        0.000        1.000        5.000        0.000        0.000        0.000        0.000        0.000        0.000        0.000        1.000        0.000        0.000        0.000        0.000        0.000        0.000        0.000        0.000        0.000        0.000        0.000        2.000        0.000        0.000        1.000        8.000        0.000        0.000        0.000        0.000        0.000      100.000        0.000        0.000        2.253        2.262        3.074
     260.000  -274437.007    28369.481    16794.021    42923.746       93.388  -412697.682    50080.038       26.150       26.023        2.975        3.085        3.098        3.201        3.240        3.017        2.616        2.964        3.220        3.286        3.090        2.714        2.969        3.008        2.975        2.935        0.492        0.000        1.000        0.000        0.000        1.000        1.000        0.000        0.000        0.000        1.000        0.000        0.000        0.000        0.000        0.000        0.000        0.000        0.000        0.000        0.000        0.000        0.000        0.000        0.000        0.000        0.000        0.000        0.000        2.000        6.000        0.000        0.000        0.000        0.000        0.000      100.000        0.000        0.000        2.117        2.113        2.998
     270.000  -274895.529    27453.430    16587.411    43000.829      111.111  -414796.962    52748.653       25.929       25.894        2.867        3.162        3.140        3.217        3.173        3.004        2.608        2.894        3.250        3.262        3.088        2.663        2.934        2.974        3.025        2.884        0.487        1.000        1.000        0.000        0.000        1.000        2.000        0.000        0.000        1.000        0.000        0.000        0.000        0.000        1.000        0.000        0.000        0.000        0.000        0.000        0.000        0.000        0.000        0.000        0.000        0.000        1.000        0.000        1.000        0.000        7.000        0.000        0.000        0.000        0.000        0.000      100.000        0.000        0.000        2.057        2.066        3.017
     280.000  -274975.078    28312.198    16731.683    43088.622       87.840  -414461.981    51266.561       25.697       25.886        2.909        3.133        3.064        3.196        3.161        2.974        2.627        2.947        3.230        3.248        3.097        2.682        2.954        2.930        3.023        2.950        0.485        1.000        1.000        0.000        0.000        1.000        4.000        0.000        0.000        0.000        0.000        0.000        0.000        0.000        1.000        0.000        0.000        0.000        0.000        0.000        0.000        0.000        0.000        0.000        0.000        0.000        5.000        0.000        0.000        1.000        8.000        0.000        0.000        0.000        0.000        0.000      100.000        0.000        0.000        2.612        2.600        3.502
     290.000  -274966.691    28274.772    16658.158    43017.261       99.603  -412229.120    49212.636       25.824       25.995        2.806        3.098        3.077        3.240        3.028        3.034        2.636        2.869        3.259        3.247        3.083        2.668        2.953        2.940        3.005        2.913        0.495        0.000        1.000        0.000        0.000        1.000        2.000        0.000        0.000        1.000        0.000        0.000        0.000        0.000        0.000        0.000        0.000        0.000        0.000        0.000        0.000        0.000        0.000        0.000        0.000        0.000        2.000        0.000        1.000        2.000        8.000        0.000        0.000        0.000        0.000        0.000      100.000        0.000        0.000        3.064        3.079        3.706
     300.000  -274671.476    28207.290    16479.691    42850.992       78.664  -412851.850    50563.737       26.218       26.240        2.888        2.963        3.058        3.189        3.098        3.012        2.594        2.955        3.252        3.301        3.035        2.705        2.926        3.003        3.052        2.963        0.487        1.000        1.000        0.000        0.000        1.000        2.000        0.000        0.000        0.000        0.000        0.000        0.000        0.000        0.000        0.000        0.000        0.000        0.000        0.000        0.000        0.000        0.000        0.000        0.000        0.000        1.000        0.000        1.000        0.000        6.000        0.000        0.000        0.000        0.000        0.000      100.000        0.000        0.000        3.151        3.176        3.718
     310.000  -274931.268    27421.262    16655.602    43094.577       92.664  -413447.896    51252.523       25.963       25.844        2.837        3.035        3.111        3.194        3.132        3.008        2.638        3.062        3.236        3.238        3.096        2.698        2.901        2.950        2.992        2.892        0.511        1.000        1.000        0.000        0.000        1.000        3.000        0.000        0.000        1.000        0.000        0.000        0.000        0.000        1.000        0.000        0.000        0.000        0.000        0.000        0.000        0.000        0.000        0.000        0.000        0.000        0.000        0.000        1.000        2.000        7.000        0.000        0.000        0.000        0.000        0.000      100.000        0.000        0.000        3.298        3.351        3.868
     320.000  -274704.711    27717.834    16756.778    42999.419       67.712  -412583.990    50337.537       26.092       25.968        2.970        2.992        3.164        3.219        3.110        2.953        2.672        2.904        3.242        3.282        3.080        2.677        2.978        2.914        3.089        2.902        0.474        1.000        1.000        0.000        0.000        1.000        2.000        0.000        0.000        0.000        0.000        0.000        0.000        0.000        0.000        0.000        0.000        0.000        0.000        0.000        0.000        0.000        0.000        0.000        0.000        0.000        0.000        0.000        0.000        0.000       11.000        0.000        0.000        0.000        0.000        0.000      100.000        0.000        0.000        3.087        3.130        3.765
     330.000  -275344.548    27738.984    16527.596    42938.458       87.235  -413007.643    50370.823       25.936       25.760        2.962        2.938        3.009        3.270        3.085        2.992        2.611        2.886        3.211        3.278        3.010        2.684        2.946        2.922        3.035        2.901        0.515        0.000        1.000        0.000        0.000        1.000        2.000        0.000        0.000        0.000        0.000        0.000        0.000        0.000        0.000        0.000        0.000        0.000        0.000        0.000        0.000        0.000        0.000        0.000        0.000        0.000        0.000        0.000        1.000        0.000        7.000        0.000        0.000        0.000        0.000        0.000      100.000        0.000        0.000        3.223        3.285        3.848
     340.000  -274727.248    28353.359    16280.078    42919.714       94.639  -412728.912    50353.874       25.899       25.747        2.913        2.955        3.083        3.273        3.020        3.008        2.639        3.010        3.272        3.245        3.114        2.659        2.975        2.903        3.035        2.894        0.475        0.000        1.000        0.000        0.000        1.000        3.000        0.000        0.000        0.000        0.000        0.000        0.000        0.000        0.000        0.000        0.000        0.000        0.000        0.000        0.000        0.000        0.000        0.000        0.000        0.000        1.000        0.000        0.000        0.000        8.000        0.000        0.000        0.000        0.000        0.000      100.000        0.000        0.000        3.449        3.540        4.099
     350.000  -273767.406    26813.827    16601.889    43180.034       83.428  -412238.292    51791.707       25.793       25.536        2.901        2.942        3.094        3.229        3.179        3.030        2.614        2.949        3.204        3.289        3.127        2.708        2.972        2.890        3.042        2.945        0.491        1.000        1.000        0.000        0.000        1.000        3.000        0.000        0.000        0.000        0.000        0.000        0.000        0.000        0.000        0.000        0.000        0.000        0.000        0.000        0.000        0.000        0.000        0.000        0.000        0.000        1.000        0.000        0.000        0.000        5.000        0.000        0.000        0.000        0.000        0.000      100.000        0.000        0.000        3.246        3.315        4.171
     360.000  -274072.184    28181.895    16439.732    43296.759       93.834  -411380.634    49296.230       26.060       25.705        2.932        2.956        3.084        3.227        3.077        3.064        2.630        3.035        3.277        3.262        3.201        2.631        2.996        2.929        3.068        2.976        0.462        1.000        1.000        0.000        0.000        1.000        3.000        0.000        0.000        0.000        0.000        0.000        0.000        0.000        1.000        0.000        0.000        0.000        0.000        0.000        0.000        0.000        0.000        0.000        0.000        3.000        1.000        0.000        0.000        1.000        4.000        0.000        0.000        0.000        0.000        0.000      100.000        0.000        0.000        3.007        3.072        4.000
     370.000  -273964.122    27851.081    16439.584    43091.379       87.913  -412151.906    50717.827       26.294       26.155        2.946        2.995        3.093        3.227        3.176        3.037        2.593        3.058        3.264        3.282        3.185        2.611        2.983        2.971        3.043        2.876        0.505        0.000        0.000        0.000        0.000        1.000        3.000        0.000        0.000        0.000        0.000        0.000        0.000        0.000        0.000        0.000        0.000        0.000        0.000        0.000        0.000        0.000        0.000        0.000        0.000        1.000        2.000        0.000        0.000        0.000        4.000        0.000        0.000        0.000        0.000        0.000      100.000        0.000        0.000        3.183        3.209        4.175
     380.000  -275336.429    28401.230    16173.659    43270.066       77.872  -412840.925    49581.670       26.173       26.026        2.935        2.940        3.111        3.252        3.154        3.051        2.618        3.042        3.220        3.229        3.122        2.581        2.991        2.946        3.035        2.849        0.489        0.000        0.000        0.000        0.000        1.000        3.000        0.000        0.000        0.000        0.000        0.000        0.000        0.000        0.000        0.000        0.000        0.000        0.000        0.000        0.000        0.000        0.000        0.000        0.000        0.000        2.000        0.000        0.000        0.000        7.000        0.000        0.000        0.000        0.000        0.000      100.000        0.000        0.000        2.919        2.920        3.939
     390.000  -274129.177    26725.044    16251.465    43134.677       82.917  -413236.331    52913.052       26.242       25.999        2.983        3.014        3.183        3.237        3.149        3.048        2.616        3.048        3.304        3.270        3.119        2.611        2.984        2.954        3.021        2.921        0.492        0.000        0.000        0.000        0.000        1.000        4.000        0.000        0.000        0.000        0.000        0.000        0.000        0.000        0.000        0.000        0.000        0.000        0.000        0.000        0.000        0.000        0.000        0.000        0.000        0.000        2.000        0.000        1.000        0.000        5.000        0.000        0.000        0.000        0.000        0.000      100.000        0.000        0.000        2.474        2.475        3.733
     400.000  -274538.661    27347.866    16363.763    43265.614       86.836  -412290.684    50687.944       26.369       25.836        2.948        3.027        3.088        3.253        3.143        3.063        2.592        2.968        3.245        3.204        3.064        2.648        2.973        2.992        2.973        2.917        0.486        0.000        0.000        0.000        0.000        1.000        2.000        0.000        0.000        0.000        0.000        0.000        0.000        0.000        0.000        0.000        0.000        0.000        0.000        0.000        0.000        0.000        0.000        0.000        0.000        0.000        1.000        0.000        0.000        0.000       11.000        0.000        0.000        0.000        0.000        0.000      100.000        0.000        0.000        2.093        2.090        3.322
     410.000  -274684.850    28160.316    16435.575    43184.129       72.535  -413048.524    50511.120       26.222       26.123        2.933        3.036        3.098        3.225        3.099        3.084        2.591        2.817        3.277        3.263        3.121        2.669        2.988        2.996        2.959        2.918        0.479        0.000        0.000        0.000        0.000        1.000        3.000        0.000        0.000        0.000        0.000        0.000        0.000        0.000        0.000        0.000        0.000        0.000        0.000        0.000        0.000        0.000        0.000        0.000        0.000        3.000        1.000        0.000        0.000        0.000       10.000        0.000        0.000        0.000        0.000        0.000      100.000        0.000        0.000        2.507        2.500        3.716
     420.000  -274826.465    27254.427    15949.498    43046.331      101.345  -411789.798    50611.731       26.404       26.185        2.906        3.087        3.132        3.195        3.143        2.981        2.598        2.963        3.234        3.301        3.102        2.597        2.928        2.977        2.948        2.944        0.485        0.000        0.000        0.000        0.000        1.000        3.000        0.000        0.000        0.000        0.000        0.000        0.000        0.000        1.000        0.000        0.000        0.000        0.000        0.000        0.000        0.000        0.000        0.000        0.000        2.000        1.000        0.000        0.000        0.000        6.000        0.000        0.000        0.000        0.000        0.000      100.000        0.000        0.000        2.620        2.620        4.040
     430.000  -274256.952    28027.483    16137.358    43090.629       94.830  -411535.956    49928.704       26.171       25.904        2.942        2.976        3.045        3.139        3.191        3.056        2.613        3.055        3.215        3.267        3.067        2.568        2.969        3.069        2.997        2.947        0.473        0.000        0.000        0.000        0.000        0.000        3.000        0.000        0.000        0.000        0.000        0.000        0.000        0.000        0.000        0.000        0.000        0.000        0.000        0.000        0.000        0.000        0.000        0.000        0.000        0.000        2.000        0.000        0.000        1.000        7.000        0.000        0.000        0.000        0.000        0.000      100.000        0.000        0.000        2.499        2.508        3.963
     440.000  -273983.554    26971.733    15957.155    43377.192       98.951  -412348.238    51959.653       26.324       26.119        2.967        2.885        3.044        3.237        3.145        3.059        2.593        2.988        3.190        3.249        3.106        2.574        3.017        2.998        2.958        2.902        0.500        0.000        1.000        0.000        0.000        1.000        3.000        0.000        0.000        0.000        0.000        0.000        0.000        0.000        1.000        0.000        0.000        0.000        0.000        0.000        0.000        0.000        0.000        0.000        0.000        3.000        4.000        0.000        0.000        1.000       16.000        0.000        0.000        0.000        0.000        0.000      100.000        0.000        0.000        2.474        2.470        3.931
     450.000  -273914.311    26472.406    16100.246    43030.485      102.250  -410309.587    50689.889       26.566       26.097        2.966        2.929        3.112        3.228        3.189        3.049        2.586        2.927        3.207        3.251        3.150        2.617        2.964        2.989        2.972        2.906        0.500        1.000        1.000        0.000        0.000        1.000        5.000        0.000        0.000        0.000        0.000        0.000        0.000        0.000        0.000        0.000        0.000        0.000        0.000        0.000        0.000        0.000        0.000        0.000        0.000        0.000        2.000        0.000        0.000        2.000        4.000        0.000        0.000        0.000        0.000        0.000      100.000        0.000        0.000        2.492        2.476        4.039
     460.000  -274564.671    28033.197    16275.749    43115.458       98.105  -412089.807    50002.627       26.096       25.896        3.028        3.036        3.071        3.237        3.223        3.088        2.606        3.003        3.172        3.247        3.167        2.653        2.941        3.032        2.945        2.956        0.487        0.000        0.000        0.000        0.000        1.000        3.000        0.000        0.000        0.000        0.000        0.000        0.000        0.000        0.000        0.000        0.000        0.000        0.000        0.000        0.000        0.000        0.000        0.000        0.000        0.000        1.000        0.000        0.000        0.000        8.000        0.000        0.000        0.000        0.000        0.000      100.000        0.000        0.000        2.284        2.256        3.928
     470.000  -274523.945    27466.766    16178.904    43274.115       78.364  -411706.924    50184.829       26.037       25.840        3.000        3.001        3.124        3.207        3.158        3.030        2.597        2.929        3.199        3.245        3.204        2.643        2.949        3.008        2.912        2.978        0.499        0.000        1.000        0.000        0.000        1.000        2.000        0.000        0.000        0.000        0.000        0.000        0.000        0.000        1.000        0.000        0.000        0.000        0.000        0.000        0.000        0.000        0.000        0.000        0.000        1.000        0.000        0.000        0.000        1.000        8.000        0.000        0.000        0.000        0.000        0.000      100.000        0.000        0.000        2.607        2.574        4.328
     480.000  -273202.627    26751.472    16087.192    43146.209       88.824  -409674.037    50397.712       26.123       25.706        2.944        3.078        3.127        3.239        3.120        3.055        2.593        2.963        3.181        3.237        3.196        2.657        3.064        3.000        2.952        3.009        0.473        0.000        1.000        0.000        0.000        1.000        2.000        0.000        0.000        0.000        0.000        0.000        0.000        0.000        1.000        0.000        0.000        0.000        0.000        0.000        0.000        0.000        0.000        0.000        0.000        0.000        0.000        0.000        0.000        1.000        6.000        0.000        0.000        0.000        0.000        0.000      100.000        0.000        0.000        2.549        2.531        4.308
     490.000  -273426.122    27705.670    16425.031    43081.100       95.095  -411030.947    50297.929       26.282       26.040        2.998        3.012        3.105        3.234        3.200        2.971        2.605        2.940        3.204        3.240        3.171        2.611        2.931        2.959        3.015        2.975        0.478        0.000        1.000        0.000        0.000        0.000        2.000        0.000        0.000        0.000        0.000        0.000        0.000        0.000        2.000        0.000        0.000        0.000        0.000        0.000        0.000        0.000        0.000        0.000        0.000        1.000        2.000        0.000        0.000        0.000        7.000        0.000        0.000        0.000        0.000        0.000      100.000        0.000        0.000        2.705        2.680        4.305
     500.000  -274596.239    27690.779    16065.970    43113.932       82.533  -413305.306    51755.853       26.293       26.008        2.967        3.076        3.054        3.201        3.108        2.990        2.605        2.981        3.217        3.174        3.167        2.569        2.956        2.990        2.960        2.926        0.488        0.000        1.000        0.000        0.000        1.000        3.000        0.000        0.000        0.000        0.000        0.000        0.000        0.000        0.000        0.000        0.000        0.000        0.000        0.000        0.000        0.000        0.000        0.000        0.000        2.000        1.000        0.000        0.000        0.000        3.000        0.000        0.000        0.000        0.000        0.000      100.000        0.000        0.000        2.752        2.741        4.191
     510.000  -274413.997    26962.075    16070.819    43211.733       84.357  -412355.026    51612.046       26.211       26.047        2.941        3.083        3.070        3.220        3.150        3.004        2.608        2.934        3.207        3.257        3.132        2.581        2.889        3.042        2.946        2.899        0.478        0.000        1.000        0.000        0.000        0.000        4.000        0.000        0.000        0.000        0.000        0.000        0.000        0.000        1.000        0.000        0.000        0.000        0.000        0.000        0.000        0.000        0.000        0.000        0.000        0.000        1.000        0.000        0.000        2.000        8.000        0.000        0.000        0.000        0.000        0.000      100.000        0.000        0.000        2.911        2.915        4.290
     520.000  -274901.712    27660.216    16004.930    43012.248       93.397  -411934.862    50262.360       26.038       26.139        2.906        2.953        3.000        3.251        3.157        3.038        2.584        2.930        3.225        3.233        3.173        2.626        2.951        3.022        2.921        2.935        0.476        1.000        1.000        0.000        0.000        1.000        4.000        0.000        0.000        0.000        0.000        0.000        0.000        0.000        2.000        0.000        0.000        0.000        0.000        0.000        0.000        0.000        0.000        0.000        0.000        0.000        4.000        0.000        0.000        0.000        4.000        0.000        0.000        0.000        0.000        0.000      100.000        0.000        0.000        2.689        2.690        4.227
     530.000  -274045.267    27097.533    16052.620    43442.227      103.070  -411823.166    51082.449       26.053       26.040        2.893        2.945        3.081        3.228        3.130        2.996        2.590        3.031        3.201        3.232        3.085        2.604        2.943        3.024        3.011        2.901        0.479        0.000        1.000        0.000        0.000        1.000        4.000        0.000        0.000        0.000        0.000        0.000        0.000        0.000        1.000        0.000        0.000        0.000        0.000        0.000        0.000        0.000        0.000        0.000        0.000        0.000        4.000        0.000        1.000        0.000        4.000        0.000        0.000        0.000        0.000        0.000      100.000        0.000        0.000        3.069        3.056        4.516
     540.000  -275668.694    27383.581    16417.058    42938.629       89.875  -414129.192    51631.355       26.311       26.250        2.947        3.076        3.116        3.259        3.183        3.036        2.614        2.904        3.189        3.221        3.132        2.665        2.963        2.976        2.979        2.902        0.464        0.000        1.000        0.000        0.000        0.000        4.000        0.000        0.000        0.000        0.000        0.000        0.000        0.000        1.000        0.000        0.000        0.000        0.000        0.000        0.000        0.000        0.000        0.000        0.000        1.000        3.000        0.000        0.000        1.000        7.000        0.000        0.000        0.000        0.000        0.000      100.000        0.000        0.000        3.381        3.397        4.686
     550.000  -274374.298    26812.184    15778.349    43123.877      106.997  -411479.698    51283.993       26.193       25.855        2.904        3.002        3.045        3.230        3.151        2.942        2.628        2.950        3.193        3.210        3.182        2.649        3.010        2.966        2.973        2.892        0.504        1.000        1.000        0.000        0.000        1.000        5.000        0.000        0.000        0.000        0.000        0.000        0.000        0.000        1.000        0.000        0.000        0.000        0.000        0.000        0.000        0.000        0.000        0.000        0.000        0.000        3.000        0.000        0.000        1.000        2.000        0.000        0.000        0.000        4.494        0.000       95.506        0.000        0.000        2.916        2.904        4.530
     560.000  -274198.694    28584.504    16165.350    43088.105      101.958  -412208.260    50069.650       25.762       25.699        2.888        3.030        3.109        3.186        3.192        3.005        2.655        2.975        3.276        3.268        3.132        2.681        2.954        2.973        2.927        2.861        0.497        0.000        1.000        0.000        0.000        0.000        5.000        0.000        0.000        0.000        0.000        0.000        0.000        0.000        0.000        0.000        0.000        0.000        0.000        0.000        0.000        0.000        0.000        0.000        0.000        0.000        1.000        0.000        0.000        0.000        2.000        0.000        0.000        0.000        0.000        0.000      100.000        0.000        0.000        3.327        3.346        4.810
     570.000  -273855.530    27740.798    15999.525    43118.709       86.500  -410595.578    49794.517       26.012       25.734        2.958        2.946        3.015        3.216        3.195        3.081        2.643        2.883        3.243        3.264        3.188        2.685        2.976        3.012        2.853        2.960        0.479        0.000        1.000        0.000        0.000        1.000        3.000        0.000        0.000        0.000        0.000        0.000        0.000        0.000        1.000        0.000        0.000        0.000        0.000        0.000        0.000        0.000        0.000        0.000        0.000        2.000        0.000        0.000        0.000        0.000        6.000        0.000        0.000        0.000        0.000        0.000      100.000        0.000        0.000        3.307        3.316        4.806
     580.000  -273168.385    26510.297    15972.459    43059.353       92.843  -409691.602    50888.266       26.054       25.740        2.928        2.916        3.060        3.202        3.154        2.990        2.603        2.952        3.242        3.260        3.161        2.590        2.994        3.017        2.953        2.857        0.468        1.000        1.000        0.000        0.000        1.000        3.000        0.000        0.000        0.000        0.000        0.000        0.000        0.000        1.000        0.000        0.000        0.000        0.000        0.000        0.000        0.000        0.000        0.000        0.000        1.000        4.000        0.000        0.000        0.000        7.000        0.000        0.000        0.000        0.000        0.000      100.000        0.000        0.000        3.813        3.815        5.150
     590.000  -273908.519    28058.955    15919.421    43224.534       86.274  -410908.993    49711.291       26.328       26.127        2.871        2.989        3.122        3.197        3.050        3.035        2.612        2.921        3.188        3.246        3.135        2.617        2.975        2.943        3.002        2.976        0.484        1.000        1.000        0.000        0.000        1.000        3.000        0.000        0.000        0.000        0.000        0.000        0.000        0.000        0.000        0.000        0.000        0.000        0.000        0.000        0.000        0.000        0.000        0.000        0.000        0.000        0.000        0.000        0.000        0.000        9.000        0.000        0.000        0.000        0.000        0.000      100.000        0.000        0.000        3.543        3.555        4.896
     600.000  -274354.767    27444.283    15557.067    43251.797       96.777  -411666.098    50961.409       26.023       26.119        2.934        3.066        3.095        3.203        3.190        2.999        2.624        2.945        3.229        3.226        3.186        2.585        2.938        3.042        3.019        2.978        0.510        1.000        1.000        0.000        0.000        1.000        3.000        0.000        0.000        0.000        0.000        0.000        0.000        0.000        2.000        0.000        0.000        0.000        0.000        0.000        0.000        0.000        0.000        0.000        0.000        0.000        0.000        0.000        0.000        0.000        8.000        0.000        0.000        0.000        0.000        0.000      100.000        0.000        0.000        3.277        3.260        4.774
     610.000  -273779.800    26322.258    15778.333    43026.845       80.850  -410960.666    51972.579       26.347       26.110        2.931        2.923        3.017        3.258        3.150        3.013        2.593        3.032        3.207        3.160        3.156        2.664        2.986        2.926        3.027        2.956        0.477        1.000        1.000        0.000        0.000        0.000        4.000        0.000        0.000        0.000        0.000        0.000        0.000        0.000        1.000        0.000        0.000        0.000        0.000        0.000        0.000        0.000        0.000        0.000        0.000        1.000        3.000        0.000        0.000        1.000        9.000        0.000        0.000        0.000        0.000        0.000      100.000        0.000        0.000        3.464        3.464        4.773
     620.000  -273317.522    26867.134    15768.198    42954.839       86.308  -409810.591    50816.590       26.764       26.470        2.795        2.981        3.106        3.256        3.114        2.993        2.528        2.939        3.216        3.223        3.142        2.676        2.997        2.998        2.973        2.923        0.491        0.000        1.000        0.000        0.000        1.000        4.000        0.000        0.000        0.000        0.000        0.000        0.000        0.000        1.000        0.000        0.000        0.000        0.000        0.000        0.000        0.000        0.000        0.000        0.000        2.000        3.000        0.000        0.000        1.000        3.000        0.000        0.000        0.000        0.000        0.000      100.000        0.000        0.000        3.154        3.148        4.738
     630.000  -274817.178    26443.859    16002.751    43048.031       99.674  -412044.645    51633.153       26.282       26.095        2.909        2.944        2.961        3.221        3.136        3.013        2.602        3.016        3.226        3.214        3.192        2.559        2.916        3.024        3.074        2.958        0.483        1.000        1.000        0.000        0.000        1.000        4.000        0.000        0.000        0.000        1.000        0.000        0.000        0.000        1.000        0.000        0.000        0.000        0.000        0.000        0.000        0.000        0.000        0.000        0.000        0.000        0.000        0.000        0.000        1.000        5.000        0.000        0.000        0.000        4.494        0.000       95.506        0.000        0.000        3.021        3.007        4.757
     640.000  -274086.235    27572.724    16005.417    43372.040       87.388  -410821.057    49697.254       25.944       25.852        2.900        2.977        2.994        3.197        3.114        3.018        2.605        2.981        3.254        3.230        3.158        2.618        3.018        2.999        3.018        3.013        0.503        1.000        0.000        0.000        0.000        1.000        3.000        0.000        0.000        0.000        0.000        0.000        0.000        0.000        0.000        0.000        0.000        0.000        0.000        0.000        0.000        0.000        0.000        0.000        0.000        1.000        0.000        0.000        0.000        1.000        6.000        0.000        0.000        0.000        4.494        0.000       95.506        0.000        0.000        2.935        2.925        4.895
     650.000  -274220.820    26501.674    16167.252    43153.160       88.055  -411036.790    50905.830       25.993       25.911        3.016        3.020        3.038        3.255        3.118        3.001        2.614        2.984        3.194        3.238        3.139        2.583        3.023        3.031        3.000        2.984        0.488        0.000        1.000        0.000        0.000        0.000        4.000        0.000        0.000        0.000        0.000        0.000        0.000        0.000        0.000        0.000        0.000        0.000        0.000        0.000        0.000        0.000        0.000        0.000        0.000        1.000        4.000        0.000        0.000        1.000        3.000        0.000        0.000        0.000        0.000        0.000      100.000        0.000        0.000        2.931        2.939        4.909
     660.000  -273975.565    27757.196    15580.652    43034.615      101.906  -408990.282    48540.348       25.998       25.814        3.004        2.969        3.052        3.275        3.183        3.007        2.643        3.010        3.224        3.212        3.206        2.594        2.891        2.914        3.003        2.994        0.500        0.000        1.000        0.000        0.000        1.000        4.000        0.000        0.000        0.000        0.000        0.000        0.000        0.000        1.000        0.000        0.000        0.000        0.000        0.000        0.000        0.000        0.000        0.000        0.000        0.000        0.000        0.000        0.000        0.000        4.000        0.000        0.000        0.000        0.000        0.000      100.000        0.000        0.000        3.032        3.039        4.901
     670.000  -273707.642    25971.940    16362.207    43030.190      116.033  -409747.932    50559.921       25.963       25.956        3.032        2.969        3.035        3.193        3.212        2.983        2.612        2.982        3.238        3.219        3.205        2.641        2.948        2.907        3.037        3.034        0.477        0.000        1.000        0.000        0.000        1.000        2.000        0.000        0.000        0.000        0.000        0.000        0.000        0.000        1.000        0.000        0.000        0.000        0.000        0.000        0.000        0.000        0.000        0.000        0.000        1.000        2.000        0.000        0.000        1.000        6.000        0.000        0.000        0.000        0.000        0.000      100.000        0.000        0.000        2.825        2.838        4.681
     680.000  -273797.689    27506.641    16071.532    43042.765       87.426  -409953.774    49447.721       26.071       25.707        2.972        2.883        3.144        3.237        3.150        2.958        2.638        2.976        3.235        3.281        3.134        2.601        2.941        2.904        2.987        2.928        0.470        0.000        1.000        0.000        0.000        1.000        5.000        0.000        0.000        0.000        0.000        0.000        0.000        0.000        0.000        0.000        0.000        0.000        0.000        0.000        0.000        0.000        0.000        0.000        0.000        0.000        1.000        0.000        0.000        0.000        6.000        0.000        0.000        0.000        0.000        0.000      100.000        0.000        0.000        2.724        2.733        4.451
     690.000  -273553.935    27841.223    16293.154    42986.834      116.574  -410340.034    49548.314       26.485       25.905        2.951        3.056        3.100        3.241        3.214        3.074        2.645        2.988        3.264        3.203        3.139        2.659        2.981        3.031        2.919        2.968        0.455        0.000        0.000        0.000        0.000        1.000        5.000        0.000        0.000        0.000        0.000        0.000        0.000        0.000        1.000        0.000        0.000        0.000        0.000        0.000        0.000        0.000        0.000        0.000        0.000        1.000        2.000        0.000        0.000        1.000        3.000        0.000        0.000        0.000        0.000        0.000      100.000        0.000        0.000        2.496        2.496        4.271
     700.000  -272629.799    27847.214    16136.265    43220.083       91.826  -409824.022    49898.835       26.378       26.067        2.914        2.996        3.050        3.178        3.189        2.969        2.640        3.037        3.219        3.220        3.122        2.637        2.944        2.979        2.937        2.986        0.474        0.000        0.000        0.000        0.000        1.000        5.000        0.000        0.000        0.000        0.000        0.000        0.000        0.000        3.000        0.000        0.000        0.000        0.000        0.000        0.000        0.000        0.000        0.000        0.000        1.000        3.000        0.000        0.000        0.000        5.000        0.000        0.000        0.000        0.000        0.000      100.000        0.000        0.000        2.110        2.110        3.963
     710.000  -274828.215    26753.439    15847.677    43140.044       69.212  -410656.372    50017.786       26.520       25.988        2.969        3.018        3.075        3.224        3.244        2.999        2.635        2.897        3.232        3.255        3.148        2.650        2.995        2.958        2.967        3.029        0.509        0.000        0.000        0.000        0.000        0.000        4.000        0.000        0.000        0.000        0.000        0.000        0.000        0.000        0.000        0.000        0.000        0.000        0.000        0.000        0.000        0.000        0.000        0.000        0.000        1.000        0.000        0.000        0.000        0.000        5.000        0.000        0.000        0.000        0.000        0.000      100.000        0.000        0.000        2.110        2.092        4.149
     720.000  -273571.996    26859.145    16433.382    43200.195      101.650  -410243.856    50077.488       26.294       25.887        2.978        3.037        3.062        3.243        3.119        3.129        2.606        2.935        3.237        3.190        3.200        2.667        2.936        3.051        2.955        2.901        0.479        0.000        1.000        0.000        0.000        1.000        5.000        0.000        0.000        0.000        0.000        0.000        0.000        0.000        0.000        0.000        0.000        0.000        0.000        0.000        0.000        0.000        0.000        0.000        0.000        1.000        2.000        0.000        0.000        1.000        6.000        0.000        0.000        0.000        0.000        0.000      100.000        0.000        0.000        1.984        1.987        3.961
     730.000  -274385.590    26997.413    15927.094    43415.240       83.824  -410629.564    49820.403       26.381       25.943        3.008        3.120        3.072        3.232        3.142        3.030        2.613        2.916        3.234        3.220        3.152        2.737        2.985        2.970        3.002        2.958        0.496        0.000        1.000        0.000        0.000        1.000        5.000        0.000        0.000        0.000        1.000        0.000        0.000        0.000        0.000        0.000        0.000        0.000        0.000        0.000        0.000        0.000        0.000        0.000        0.000        3.000        1.000        0.000        0.000        1.000        4.000        0.000        0.000        0.000        0.000        0.000      100.000        0.000        0.000        2.318        2.284        4.063
     740.000  -274484.008    27471.186    15973.915    43276.967       98.503  -410044.127    48739.548       26.167       25.718        2.999        3.032        3.066        3.213        3.234        2.999        2.575        2.918        3.219        3.265        3.196        2.608        2.958        3.004        3.031        2.911        0.468        1.000        1.000        0.000        0.000        1.000        2.000        0.000        0.000        0.000        0.000        0.000        0.000        0.000        1.000        0.000        0.000        0.000        0.000        0.000        0.000        0.000        0.000        0.000        0.000        0.000        2.000        0.000        0.000        0.000        5.000        0.000        0.000        0.000        0.000        0.000      100.000        0.000        0.000        2.027        2.016        3.981
     750.000  -273453.658    27196.449    16037.106    43133.640      105.374  -410845.649    50919.422       26.455       26.073        3.017        2.893        3.034        3.189        3.162        3.042        2.647        2.952        3.247        3.211        3.170        2.639        3.014        2.990        2.963        2.972        0.502        1.000        0.000        0.000        0.000        1.000        4.000        0.000        0.000        0.000        0.000        0.000        0.000        0.000        0.000        0.000        0.000        0.000        0.000        0.000        0.000        0.000        0.000        0.000        0.000        0.000        1.000        0.000        0.000        1.000        3.000        0.000        0.000        0.000        4.494        0.000       95.506        0.000        0.000        2.133        2.129        3.914
     760.000  -273142.348    26624.596    16186.185    42906.751       95.121  -410680.058    51725.057       26.589       26.248        3.111        2.929        3.052        3.271        3.182        2.995        2.679        2.996        3.199        3.306        3.198        2.653        2.921        2.966        3.028        2.966        0.469        1.000        1.000        0.000        0.000        0.000        4.000        0.000        0.000        0.000        0.000        0.000        0.000        0.000        0.000        0.000        0.000        0.000        0.000        0.000        0.000        0.000        0.000        0.000        0.000        0.000        1.000        0.000        0.000        0.000        4.000        0.000        0.000        0.000        0.000        0.000      100.000        0.000        0.000        2.316        2.289        3.973
     770.000  -273567.602    26993.583    16275.382    43111.054       82.256  -410602.691    50572.814       26.607       26.206        2.989        2.923        3.045        3.229        3.168        2.986        2.706        3.039        3.202        3.242        3.143        2.685        2.878        3.037        3.003        2.899        0.514        1.000        0.000        0.000        0.000        0.000        3.000        0.000        0.000        0.000        0.000        0.000        0.000        0.000        0.000        0.000        0.000        0.000        0.000        0.000        0.000        0.000        0.000        0.000        0.000        0.000        1.000        0.000        0.000        1.000        1.000        0.000        0.000        0.000        0.000        0.000      100.000        0.000        0.000        2.422        2.421        4.019
     780.000  -274140.479    26866.400    15829.336    43353.212      106.819  -411174.140    50877.894       26.154       25.958        3.043        3.010        3.063        3.172        3.144        3.032        2.652        3.006        3.245        3.250        3.194        2.680        2.986        2.955        3.038        2.923        0.463        1.000        1.000        0.000        0.000        1.000        4.000        0.000        0.000        0.000        0.000        0.000        0.000        0.000        1.000        0.000        0.000        0.000        0.000        0.000        0.000        0.000        0.000        0.000        0.000        0.000        2.000        0.000        0.000        1.000        5.000        0.000        0.000        0.000        0.000        0.000      100.000        0.000        0.000        2.066        2.046        4.023
     790.000  -272871.758    26488.136    16101.307    43249.784       96.494  -410101.943    51294.465       26.469       26.065        2.971        2.997        3.052        3.206        3.112        3.102        2.639        2.972        3.208        3.265        3.146        2.688        2.915        2.952        2.973        2.833        0.493        1.000        0.000        0.000        0.000        1.000        5.000        0.000        0.000        0.000        0.000        0.000        0.000        0.000        2.000        0.000        0.000        0.000        0.000        0.000        0.000        0.000        0.000        0.000        0.000        0.000        4.000        0.000        0.000        0.000        7.000        0.000        0.000        0.000        0.000        0.000      100.000        0.000        0.000        2.108        2.095        3.999
     800.000  -273324.384    25958.008    15999.926    43221.826       87.290  -411233.294    52641.861       26.313       25.987        2.958        3.015        3.037        3.179        3.190        3.043        2.668        3.011        3.157        3.259        3.090        2.716        2.918        2.972        3.031        3.006        0.491        1.000        0.000        0.000        0.000        1.000        4.000        0.000        0.000        0.000        0.000        0.000        0.000        0.000        1.000        0.000        0.000        0.000        0.000        0.000        0.000        0.000        0.000        0.000        0.000        1.000        2.000        0.000        0.000        0.000        3.000        0.000        0.000        0.000        0.000        0.000      100.000        0.000        0.000        2.096        2.065        3.969
     810.000  -273397.785    26627.217    16038.171    43124.818       87.257  -410214.322    50939.074       26.234       25.867        3.058        3.007        3.043        3.230        3.147        3.021        2.633        2.938        3.187        3.256        3.149        2.663        2.941        2.934        3.062        2.959        0.485        1.000        1.000        0.000        0.000        1.000        4.000        0.000        0.000        0.000        0.000        0.000        0.000        0.000        2.000        0.000        0.000        0.000        0.000        0.000        0.000        0.000        0.000        0.000        0.000        0.000        1.000        0.000        0.000        0.000        4.000        0.000        0.000        0.000        0.000        0.000      100.000        0.000        0.000        2.368        2.360        4.004
     820.000  -273867.529    27155.120    16220.297    43207.294       97.421  -411737.305    51189.645       26.480       25.633        3.081        3.021        3.027        3.211        3.190        3.019        2.686        2.877        3.205        3.276        3.139        2.617        2.879        2.993        2.945        2.951        0.484        1.000        1.000        0.000        0.000        1.000        4.000        0.000        0.000        0.000        0.000        0.000        0.000        0.000        1.000        0.000        0.000        0.000        0.000        0.000        0.000        0.000        0.000        0.000        0.000        0.000        2.000        0.000        0.000        0.000        3.000        0.000        0.000        0.000        4.494        0.000       95.506        0.000        0.000        2.853        2.856        4.308
     830.000  -273898.960    26176.165    16260.384    43244.564      105.578  -411405.807    51720.157       26.325       25.812        2.997        3.022        3.047        3.172        3.137        3.018        2.652        2.916        3.211        3.205        3.106        2.612        2.937        2.987        2.987        2.902        0.489        1.000        0.000        0.000        0.000        0.000        4.000        0.000        0.000        0.000        1.000        0.000        0.000        0.000        1.000        0.000        0.000        0.000        0.000        0.000        0.000        0.000        0.000        0.000        0.000        1.000        2.000        0.000        0.000        0.000        7.000        0.000        0.000        0.000        0.000        0.000      100.000        0.000        0.000        2.864        2.872        4.300
     840.000  -274031.403    28417.735    15819.814    43302.902       70.093  -409976.673    48334.725       26.133       25.811        3.030        3.031        3.067        3.245        3.130        3.014        2.651        2.866        3.244        3.206        3.152        2.638        2.917        2.922        2.973        2.922        0.483        1.000        0.000        0.000        0.000        1.000        4.000        0.000        0.000        0.000        0.000        0.000        0.000        0.000        0.000        0.000        0.000        0.000        0.000        0.000        0.000        0.000        0.000        0.000        0.000        0.000        1.000        0.000        0.000        1.000        5.000        0.000        0.000        0.000        0.000        0.000      100.000        0.000        0.000        2.640        2.656        4.319
     850.000  -273475.910    26855.777    16197.532    43224.543       85.288  -410687.387    50848.338       26.299       26.109        3.015        3.056        3.044        3.264        3.172        3.017        2.655        2.824        3.238        3.275        3.139        2.635        2.899        2.903        3.019        2.922        0.487        1.000        1.000        0.000        0.000        0.000        4.000        0.000        0.000        0.000        0.000        0.000        0.000        0.000        0.000        0.000        0.000        0.000        0.000        0.000        0.000        0.000        0.000        0.000        0.000        0.000        2.000        0.000        0.000        0.000        4.000        0.000        0.000        0.000        0.000        0.000      100.000        0.000        0.000        2.572        2.554        4.445
     860.000  -273860.962    27214.882    16438.503    43031.790      101.507  -410890.850    50243.206       26.089       25.967        3.023        3.052        3.014        3.167        3.111        3.061        2.671        2.937        3.178        3.247        3.136        2.647        2.999        2.982        2.946        2.934        0.496        1.000        1.000        0.000        0.000        1.000        2.000        0.000        0.000        0.000        0.000        0.000        0.000        0.000        1.000        0.000        0.000        0.000        0.000        0.000        0.000        0.000        0.000        0.000        0.000        1.000        2.000        0.000        0.000        0.000       12.000        0.000        0.000        0.000        0.000        0.000      100.000        0.000        0.000        2.563        2.536        4.495
     870.000  -273099.394    27029.461    16223.748    43311.472       78.385  -410032.148    50289.687       26.233       25.866        3.003        3.027        3.061        3.178        3.147        3.018        2.675        2.921        3.191        3.219        3.128        2.631        2.940        2.943        3.000        2.948        0.490        1.000        1.000        0.000        0.000        1.000        4.000        0.000        0.000        0.000        0.000        0.000        0.000        0.000        2.000        0.000        0.000        0.000        0.000        0.000        0.000        0.000        0.000        0.000        0.000        1.000        1.000        0.000        1.000        0.000        2.000        0.000        0.000        0.000        0.000        0.000      100.000        0.000        0.000        2.613        2.612        4.247
     880.000  -274335.485    27013.418    16311.226    43097.819       96.852  -410961.120    50106.320       26.426       26.081        2.920        2.975        3.073        3.213        3.207        3.042        2.678        2.835        3.223        3.254        3.181        2.644        2.978        2.992        3.023        2.969        0.476        0.000        1.000        0.000        0.000        1.000        2.000        0.000        0.000        0.000        0.000        0.000        0.000        0.000        0.000        0.000        0.000        0.000        0.000        0.000        0.000        0.000        0.000        0.000        0.000        1.000        1.000        0.000        0.000        0.000        8.000        0.000        0.000        0.000        0.000        0.000      100.000        0.000        0.000        2.390        2.371        4.131
     890.000  -274139.217    26561.415    16054.628    43466.750       88.743  -411692.519    51381.766       26.149       25.909        2.939        3.063        3.020        3.222        3.162        3.049        2.640        2.920        3.173        3.208        3.122        2.657        3.002        2.940        2.985        2.990        0.493        0.000        1.000        0.000        0.000        1.000        3.000        0.000        0.000        0.000        0.000        0.000        0.000        0.000        1.000        0.000        0.000        0.000        0.000        0.000        0.000        0.000        0.000        0.000        0.000        0.000        3.000        0.000        0.000        0.000        3.000        0.000        0.000        0.000        0.000        0.000      100.000        0.000        0.000        2.485        2.520        4.123
     900.000  -273611.690    25939.734    16094.553    43304.882       77.040  -409882.830    50854.930       26.260       25.589        2.969        2.976        3.014        3.209        3.067        2.960        2.681        2.958        3.164        3.273        3.134        2.616        3.014        2.969        3.029        2.912        0.485        0.000        1.000        0.000        0.000        1.000        3.000        0.000        0.000        1.000        0.000        0.000        0.000        0.000        1.000        0.000        0.000        0.000        0.000        0.000        0.000        0.000        0.000        0.000        0.000        0.000        4.000        0.000        0.000        0.000        2.000        0.000        0.000        0.000        0.000        0.000      100.000        0.000        0.000        2.757        2.770        4.296
     910.000  -273084.230    26940.453    16176.201    43309.009       89.767  -408505.291    48905.631       25.978       25.887        2.953        3.044        3.065        3.247        3.095        3.039        2.680        3.004        3.158        3.290        3.110        2.676        2.897        2.998        3.012        2.916        0.472        1.000        1.000        0.000        0.000        1.000        2.000        0.000        0.000        0.000        3.000        0.000        0.000        0.000        0.000        0.000        0.000        0.000        0.000        0.000        0.000        0.000        0.000        0.000        0.000        0.000        2.000        0.000        0.000        0.000        6.000        0.000        0.000        0.000        0.000        0.000      100.000        0.000        0.000        2.766        2.774        4.524
     920.000  -273289.258    28738.983    16047.257    43214.886       89.592  -411245.114    49865.139       26.446       26.176        2.985        2.988        3.084        3.196        3.085        2.978        2.672        3.005        3.214        3.279        3.136        2.630        2.953        3.028        2.994        2.976        0.481        0.000        1.000        0.000        0.000        1.000        2.000        0.000        0.000        0.000        0.000        0.000        0.000        0.000        1.000        0.000        0.000        0.000        0.000        0.000        0.000        0.000        0.000        0.000        0.000        0.000        2.000        0.000        0.000        1.000        7.000        0.000        0.000        0.000        0.000        0.000      100.000        0.000        0.000        2.657        2.652        4.357
     930.000  -273249.979    26584.054    15900.809    43164.974       99.722  -409577.699    50578.161       26.301       26.014        3.032        3.016        3.051        3.226        3.147        3.048        2.664        2.985        3.266        3.296        3.149        2.709        2.869        2.943        3.028        3.014        0.503        0.000        0.000        0.000        0.000        1.000        3.000        0.000        0.000        0.000        0.000        0.000        0.000        0.000        0.000        0.000        0.000        0.000        0.000        0.000        0.000        0.000        0.000        0.000        0.000        0.000        0.000        0.000        0.000        1.000        4.000        0.000        0.000        0.000        0.000        0.000      100.000        0.000        0.000        2.304        2.288        4.200
     940.000  -273676.046    25728.372    16189.540    43461.642      108.817  -410149.418    50985.001       26.316       25.869        3.032        2.970        3.053        3.222        3.102        2.987        2.647        3.010        3.208        3.243        3.149        2.649        2.936        3.013        3.015        2.949        0.473        1.000        1.000        0.000        0.000        1.000        3.000        0.000        0.000        0.000        0.000        0.000        0.000        0.000        2.000        0.000        0.000        0.000        0.000        0.000        0.000        0.000        0.000        0.000        0.000        0.000        1.000        0.000        0.000        1.000        4.000        0.000        0.000        0.000        0.000        0.000      100.000        0.000        0.000        2.248        2.230        4.248
     950.000  -273657.806    27438.255    15904.408    43130.002       82.267  -408881.104    48668.366       26.376       25.997        2.980        3.041        3.069        3.237        3.093        3.056        2.597        2.978        3.220        3.249        3.172        2.713        2.971        2.983        2.980        2.986        0.474        1.000        0.000        0.000        0.000        1.000        3.000        0.000        0.000        0.000        0.000        0.000        0.000        0.000        0.000        0.000        0.000        0.000        0.000        0.000        0.000        0.000        0.000        0.000        0.000        0.000        2.000        0.000        0.000        1.000        3.000        0.000        0.000        0.000        0.000        0.000      100.000        0.000        0.000        2.412        2.380        4.312
     960.000  -273616.129    26607.596    16063.499    43234.768      117.176  -410136.429    50497.262       26.304       25.842        3.046        3.037        3.066        3.206        3.231        3.054        2.644        3.003        3.259        3.215        3.156        2.647        2.965        2.923        2.968        3.025        0.475        1.000        1.000        0.000        0.000        0.000        2.000        0.000        0.000        1.000        0.000        0.000        0.000        0.000        1.000        0.000        0.000        0.000        0.000        0.000        0.000        0.000        0.000        0.000        0.000        0.000        2.000        0.000        0.000        1.000        5.000        0.000        0.000        0.000        0.000        0.000      100.000        0.000        0.000        2.422        2.381        4.465
     970.000  -273893.529    27971.300    15994.995    42916.308      100.536  -409505.881    48629.212       26.271       26.066        3.041        3.067        3.069        3.231        3.219        3.040        2.618        3.012        3.207        3.244        3.162        2.680        2.941        2.974        3.006        3.007        0.492        1.000        1.000        0.000        0.000        0.000        3.000        0.000        0.000        0.000        0.000        0.000        0.000        0.000        0.000        0.000        0.000        0.000        0.000        0.000        0.000        0.000        0.000        0.000        0.000        0.000        1.000        0.000        0.000        1.000        5.000        0.000        0.000        0.000        0.000        0.000      100.000        0.000        0.000        2.414        2.374        4.483
     980.000  -273087.260    26810.790    16122.164    42961.960       90.409  -409425.570    50352.987       26.636       26.166        2.940        3.047        3.108        3.209        3.154        3.099        2.670        2.935        3.220        3.248        3.141        2.656        2.956        2.986        2.969        3.072        0.466        1.000        1.000        0.000        0.000        1.000        2.000        0.000        0.000        0.000        1.000        0.000        0.000        0.000        1.000        0.000        0.000        0.000        0.000        0.000        0.000        0.000        0.000        0.000        0.000        0.000        1.000        0.000        0.000        0.000        4.000        0.000        0.000        0.000        0.000        0.000      100.000        0.000        0.000        2.850        2.795        4.750
     990.000  -273577.235    26591.287    16241.437    42910.223       87.863  -409357.262    49949.216       26.472       26.343        2.948        3.137        3.070        3.192        3.218        3.069        2.679        2.941        3.213        3.206        3.075        2.708        2.989        3.007        3.002        3.032        0.498        1.000        0.000        0.000        0.000        2.000        3.000        0.000        0.000        0.000        0.000        0.000        0.000        0.000        1.000        0.000        0.000        0.000        0.000        0.000        0.000        0.000        0.000        0.000        0.000        1.000        3.000        0.000        0.000        0.000        1.000        0.000        0.000        0.000        0.000        0.000      100.000        0.000        0.000        2.935        2.878        4.901
    1000.000  -273832.457    27958.888    16232.167    42986.249       81.950  -410286.840    49195.129       26.144       26.026        2.975        3.048        3.055        3.160        3.166        3.054        2.668        2.942        3.178        3.175        3.138        2.721        2.982        2.913        3.009        2.979        0.516        1.000        1.000        0.000        0.000        0.000        3.000        0.000        0.000        0.000        1.000        0.000        0.000        0.000        1.000        0.000        0.000        0.000        0.000        0.000        0.000        0.000        0.000        0.000        0.000        0.000        2.000        0.000        0.000        0.000        7.000        0.000        0.000        0.000        0.000        0.000      100.000        0.000        0.000        2.678        2.642        4.580
     Average  -275796.885    27570.196    16208.662    43104.121       90.128  -413957.154    51187.162       26.157       25.987        2.968        3.006        3.085        3.214        3.150        3.023        2.631        2.969        3.231        3.243        3.128        2.648        2.954        2.964        3.010        2.956        0.487        0.505        0.574        0.000        0.089        0.822        3.406        0.000        0.000        0.158        0.198        0.000        0.010        0.000        0.842        0.000        0.000        0.000        0.000        0.000        0.000        0.000        0.000        0.000        0.000        0.505        1.495        0.000        0.495        0.683        6.287        0.000        0.000        0.000        0.445        0.000       99.555        0.000        0.000        2.468        2.470        3.698

