____Time[ps] Energy[ kJ/mol ]_____Bond _______Angle ____Dihedral ___Planarity _____Coulomb _________VdW _Your result _Your result _Your result _Your result _Your result _Your result _Your result _Your result _Your result _Your result _Your result _Your result _Your result _Your result _Your result _Your result _Your result _Your result _Your result _Your result _Your result _Your result _Your result _Your result _Your result _Your result _Your result _Your result _Your result _Your result _Your result _Your result _Your result _Your result _Your result _Your result _Your result _Your result _Your result _Your result _Your result _Your result _Your result _Your result _Your result _Your result _Your result _Your result _Your result _Your result _Your result _Your result _Your result _Your result _Your result _Your result _Your result _RMSDs[A]:CA ____Backbone __HeavyAtoms
       0.000  -353190.001     7251.632     4993.109    43709.472       12.599  -477717.813    68561.000       25.480       25.382        2.816        3.024        3.145        3.251        3.245        2.998        3.246        3.041        3.150        3.274        3.047        3.184        2.518        2.541        2.533        2.524        0.488        1.000        0.000        1.000        2.000        0.000        3.000        1.000        0.000        2.000        0.000        1.000        0.000        0.000        1.000        1.000        0.000        0.000        0.000        0.000        0.000        0.000        0.000        0.000        0.000        3.000        0.000        1.000        3.000        2.000        5.000        0.000        0.000        0.000        0.000        0.000      100.000        0.000        0.000        0.447        0.487        0.559
      10.000  -265642.243    30324.655    15886.638    43843.691       80.937  -407871.434    52093.270       26.173       25.740        2.910        3.053        3.095        3.267        3.247        3.036        3.256        3.032        3.149        3.254        3.057        3.191        2.509        2.486        2.645        2.509        0.469        2.000        1.000        0.000        2.000        1.000        3.000        1.000        0.000        0.000        1.000        2.000        1.000        0.000        0.000        0.000        0.000        0.000        0.000        0.000        0.000        0.000        0.000        0.000        0.000        2.000        1.000        3.000        1.000        1.000        5.000        0.000        0.000        0.000        0.000        0.000      100.000        0.000        0.000        1.079        1.122        1.286
      20.000  -266549.270    29530.965    16313.766    43746.709       84.727  -407803.396    51577.959       26.216       25.844        2.892        3.050        3.138        3.228        3.280        2.963        3.217        3.002        3.121        3.183        3.113        3.116        2.543        2.528        2.604        2.518        0.513        1.000        1.000        0.000        2.000        0.000        3.000        1.000        0.000        1.000        0.000        0.000        1.000        0.000        4.000        1.000        0.000        0.000        0.000        0.000        0.000        0.000        0.000        0.000        0.000        3.000        2.000        0.000        1.000        1.000        8.000        0.000        0.000        0.000        0.000        0.000      100.000        0.000        0.000        1.346        1.394        1.470
      30.000  -264989.036    29139.803    16493.844    43736.461       89.022  -406341.966    51893.800       26.275       25.977        2.918        3.065        3.134        3.255        3.211        3.044        3.218        3.015        3.193        3.250        3.117        3.027        2.546        2.498        2.615        2.522        0.496        2.000        1.000        0.000        2.000        0.000        4.000        1.000        0.000        1.000        0.000        1.000        2.000        0.000        1.000        1.000        0.000        0.000        0.000        0.000        0.000        0.000        0.000        0.000        0.000        4.000        1.000        1.000        3.000        0.000        6.000        1.000        0.000        0.000        4.494        0.000       95.506        0.000        0.000        1.383        1.404        1.518
      40.000  -265762.153    29665.798    16485.388    43595.379       90.542  -406107.864    50508.605       26.057       25.813        2.868        3.091        3.190        3.252        3.238        3.040        3.161        3.019        3.193        3.192        3.150        3.065        2.542        2.484        2.548        2.535        0.500        2.000        1.000        0.000        2.000        0.000        3.000        1.000        0.000        1.000        0.000        0.000        1.000        0.000        0.000        0.000        0.000        0.000        0.000        0.000        0.000        0.000        0.000        0.000        0.000        3.000        3.000        2.000        1.000        0.000        4.000        0.000        0.000        0.000        0.000        0.000      100.000        0.000        0.000        1.410        1.430        1.655
      50.000  -265426.644    29237.723    16413.572    43556.164       76.238  -404756.140    50045.800       26.088       25.934        2.912        3.066        3.148        3.240        3.240        3.011        3.160        3.045        3.160        3.224        3.174        3.080        2.537        2.560        2.611        2.493        0.472        2.000        1.000        0.000        2.000        1.000        3.000        1.000        0.000        1.000        0.000        0.000        0.000        0.000        0.000        0.000        0.000        0.000        0.000        0.000        0.000        0.000        0.000        0.000        0.000        3.000        2.000        1.000        3.000        1.000        7.000        2.000        0.000        0.000        0.000        0.000      100.000        0.000        0.000        1.364        1.375        1.638
      60.000  -264825.175    29118.064    16431.021    43530.659       76.570  -404333.075    50351.587       26.246       26.120        3.002        3.051        3.101        3.271        3.238        3.011        3.175        3.078        3.203        3.219        3.201        3.076        2.495        2.534        2.651        2.477        0.509        2.000        1.000        0.000        2.000        0.000        1.000        0.000        0.000        0.000        0.000        0.000        0.000        0.000        0.000        1.000        0.000        0.000        0.000        0.000        0.000        0.000        0.000        0.000        0.000        2.000        2.000        1.000        1.000        1.000        2.000        1.000        0.000        0.000        0.000        0.000      100.000        0.000        0.000        1.537        1.547        1.739
      70.000  -264121.573    29373.771    16302.373    43591.112       66.100  -403374.578    49919.649       26.242       26.109        2.897        3.147        3.109        3.247        3.234        2.940        3.175        3.030        3.158        3.215        3.176        3.053        2.520        2.491        2.635        2.502        0.490        2.000        1.000        0.000        2.000        0.000        1.000        0.000        0.000        1.000        0.000        0.000        2.000        0.000        2.000        0.000        0.000        0.000        0.000        0.000        0.000        0.000        0.000        0.000        0.000        1.000        2.000        0.000        3.000        0.000        5.000        0.000        0.000        0.000        0.000        0.000      100.000        0.000        0.000        1.785        1.771        2.030
      80.000  -264877.291    29795.514    16083.312    43643.383       72.071  -403743.993    49272.422       26.081       26.026        2.928        3.015        3.206        3.284        3.309        2.972        3.170        2.966        3.168        3.265        3.175        3.098        2.569        2.526        2.619        2.478        0.480        2.000        0.000        0.000        2.000        1.000        1.000        0.000        0.000        1.000        0.000        0.000        2.000        0.000        0.000        2.000        0.000        0.000        0.000        0.000        0.000        0.000        0.000        0.000        0.000        1.000        5.000        1.000        2.000        1.000        6.000        0.000        0.000        0.000        0.000        0.000      100.000        0.000        0.000        1.716        1.713        1.921
      90.000  -264288.950    28797.506    15963.699    43662.724       82.509  -404551.349    51755.960       26.074       26.252        2.881        3.095        3.170        3.286        3.278        3.048        3.147        2.921        3.177        3.179        3.237        3.090        2.466        2.500        2.621        2.501        0.472        2.000        1.000        0.000        2.000        1.000        1.000        1.000        0.000        0.000        0.000        1.000        1.000        1.000        0.000        2.000        0.000        0.000        0.000        0.000        0.000        0.000        0.000        0.000        0.000        4.000        1.000        2.000        1.000        0.000        4.000        0.000        0.000        0.000        0.000        0.000      100.000        0.000        0.000        1.720        1.708        1.953
     100.000  -263608.054    28144.998    16229.243    43421.314       78.387  -401785.919    50303.922       25.843       26.143        2.901        3.129        3.173        3.217        3.246        3.018        3.121        3.037        3.173        3.221        3.179        3.153        2.526        2.555        2.640        2.521        0.476        2.000        0.000        1.000        2.000        2.000        1.000        1.000        0.000        1.000        0.000        0.000        1.000        0.000        1.000        2.000        0.000        0.000        0.000        0.000        0.000        0.000        0.000        0.000        0.000        3.000        2.000        0.000        2.000        1.000        9.000        0.000        0.000        0.000        0.000        0.000      100.000        0.000        0.000        1.876        1.864        2.092
     110.000  -262693.471    27244.340    16231.618    43463.727       79.741  -400683.023    50970.125       25.828       26.070        2.905        3.088        3.140        3.266        3.272        2.990        3.195        3.034        3.135        3.206        3.165        3.109        2.533        2.513        2.692        2.512        0.500        2.000        1.000        0.000        2.000        0.000        2.000        1.000        0.000        0.000        0.000        0.000        0.000        0.000        1.000        1.000        0.000        0.000        0.000        0.000        0.000        0.000        0.000        0.000        0.000        2.000        3.000        0.000        3.000        1.000        7.000        0.000        0.000        0.000        0.000        0.000      100.000        0.000        0.000        1.883        1.876        2.135
     120.000  -263527.899    27118.793    16184.779    43567.818       60.230  -401789.206    51329.688       25.767       26.284        2.890        3.058        3.121        3.275        3.271        3.013        3.182        3.077        3.199        3.206        3.112        3.080        2.488        2.507        2.659        2.514        0.442        2.000        1.000        0.000        2.000        1.000        2.000        1.000        0.000        2.000        0.000        0.000        0.000        0.000        1.000        3.000        0.000        0.000        0.000        0.000        0.000        0.000        0.000        0.000        0.000        3.000        2.000        1.000        2.000        0.000        8.000        0.000        0.000        0.000        0.000        0.000      100.000        0.000        0.000        2.139        2.138        2.396
     130.000  -263425.624    28174.953    16320.813    43462.352       77.952  -400986.081    49524.387       26.014       26.083        2.850        3.058        3.176        3.204        3.253        2.996        3.211        3.087        3.239        3.274        3.168        3.083        2.527        2.491        2.612        2.534        0.493        2.000        0.000        1.000        1.000        1.000        2.000        0.000        0.000        3.000        0.000        0.000        1.000        1.000        1.000        0.000        0.000        0.000        0.000        0.000        0.000        0.000        0.000        0.000        0.000        4.000        3.000        0.000        0.000        1.000        6.000        0.000        0.000        0.000        0.000        0.000      100.000        0.000        0.000        2.098        2.094        2.315
     140.000  -263484.916    27754.103    16454.842    43414.347       95.028  -399704.070    48500.834       25.717       25.988        2.912        3.051        3.074        3.219        3.234        3.052        3.152        3.025        3.231        3.269        3.167        3.111        2.514        2.520        2.638        2.538        0.490        2.000        1.000        0.000        1.000        1.000        2.000        0.000        0.000        2.000        0.000        0.000        0.000        0.000        1.000        1.000        0.000        0.000        0.000        0.000        0.000        0.000        0.000        0.000        0.000        2.000        3.000        2.000        0.000        1.000       13.000        0.000        0.000        0.000        0.000        0.000      100.000        0.000        0.000        2.071        2.066        2.392
     150.000  -262775.292    27384.379    16367.555    43711.664       94.685  -399331.291    48997.717       25.636       25.824        2.924        3.035        3.080        3.262        3.242        3.044        3.178        3.028        3.182        3.276        3.162        3.070        2.492        2.551        2.678        2.561        0.502        1.000        0.000        0.000        1.000        1.000        2.000        0.000        0.000        2.000        0.000        1.000        0.000        0.000        2.000        0.000        0.000        0.000        0.000        0.000        0.000        0.000        0.000        0.000        0.000        2.000        2.000        2.000        0.000        0.000        6.000        0.000        0.000        0.000        0.000        0.000      100.000        0.000        0.000        1.975        1.980        2.351
     160.000  -262892.802    27575.351    15849.275    43725.347       79.078  -398621.850    48499.997       25.619       25.885        2.892        3.146        3.197        3.245        3.274        2.955        3.198        2.990        3.185        3.242        3.099        3.040        2.555        2.574        2.642        2.475        0.492        2.000        0.000        1.000        1.000        1.000        2.000        0.000        0.000        0.000        0.000        0.000        0.000        0.000        0.000        0.000        0.000        0.000        0.000        0.000        0.000        0.000        0.000        0.000        0.000        2.000        0.000        0.000        1.000        0.000        7.000        0.000        0.000        0.000        0.000        0.000      100.000        0.000        0.000        2.097        2.109        2.435
     170.000  -262175.317    26677.784    16014.038    43734.621       81.223  -399270.930    50587.947       25.761       26.054        2.916        3.094        3.159        3.263        3.263        2.973        3.173        3.030        3.249        3.211        3.173        3.122        2.558        2.471        2.644        2.485        0.497        2.000        0.000        1.000        1.000        2.000        3.000        0.000        0.000        0.000        0.000        0.000        2.000        0.000        1.000        0.000        0.000        0.000        0.000        0.000        0.000        0.000        0.000        0.000        0.000        2.000        3.000        0.000        0.000        0.000        9.000        0.000        0.000        0.000        0.000        0.000      100.000        0.000        0.000        2.223        2.231        2.461
     180.000  -262561.955    27947.917    15899.182    43772.999       79.387  -399026.194    48764.753       25.777       25.853        2.861        3.066        3.204        3.265        3.274        3.022        3.203        2.977        3.270        3.282        3.144        3.090        2.473        2.533        2.637        2.526        0.486        2.000        0.000        1.000        1.000        0.000        3.000        0.000        0.000        2.000        0.000        0.000        1.000        2.000        1.000        2.000        0.000        0.000        0.000        0.000        0.000        0.000        0.000        0.000        0.000        2.000        0.000        0.000        1.000        0.000        5.000        0.000        0.000        0.000        0.000        0.000      100.000        0.000        0.000        1.996        2.014        2.289
     190.000  -262929.545    27126.520    16158.324    43948.426      104.870  -397997.660    47729.974       25.717       25.843        2.896        3.076        3.114        3.195        3.245        2.999        3.177        2.953        3.226        3.301        3.188        3.086        2.618        2.585        2.665        2.462        0.489        2.000        0.000        1.000        1.000        1.000        3.000        1.000        0.000        0.000        0.000        0.000        1.000        0.000        2.000        0.000        0.000        0.000        0.000        0.000        0.000        0.000        0.000        0.000        0.000        0.000        1.000        3.000        1.000        1.000        6.000        0.000        0.000        0.000        0.000        0.000      100.000        0.000        0.000        2.000        2.017        2.278
     200.000  -261578.269    27426.764    16288.421    43589.235       95.417  -397495.380    48517.274       25.619       25.568        2.869        3.108        3.120        3.246        3.216        3.021        3.147        3.003        3.205        3.270        3.212        3.039        2.536        2.558        2.654        2.529        0.460        2.000        0.000        1.000        0.000        2.000        1.000        0.000        0.000        1.000        0.000        2.000        2.000        0.000        1.000        1.000        0.000        0.000        0.000        0.000        0.000        0.000        0.000        0.000        0.000        2.000        2.000        2.000        2.000        1.000        5.000        0.000        0.000        0.000        0.000        0.000      100.000        0.000        0.000        1.861        1.885        2.191
     210.000  -262138.396    27134.247    15683.920    43661.177       86.368  -397526.061    48821.955       25.692       25.534        2.960        3.087        3.135        3.259        3.232        3.023        3.167        2.906        3.249        3.261        3.113        3.103        2.530        2.559        2.664        2.504        0.486        2.000        0.000        0.000        1.000        2.000        2.000        1.000        0.000        1.000        0.000        0.000        1.000        0.000        0.000        1.000        0.000        0.000        0.000        0.000        0.000        0.000        0.000        0.000        0.000        3.000        4.000        0.000        0.000        2.000        1.000        0.000        0.000        0.000        0.000        0.000      100.000        0.000        0.000        1.742        1.780        2.065
     220.000  -262270.938    27205.544    15831.137    43582.425       86.722  -397842.774    48866.006       25.890       25.666        2.880        3.025        3.192        3.218        3.288        3.010        3.162        2.935        3.250        3.219        3.145        3.077        2.530        2.526        2.660        2.534        0.492        1.000        0.000        0.000        1.000        2.000        3.000        1.000        0.000        1.000        0.000        0.000        1.000        0.000        2.000        1.000        0.000        0.000        0.000        0.000        0.000        0.000        0.000        0.000        0.000        0.000        3.000        2.000        0.000        0.000        3.000        0.000        0.000        0.000        0.000        0.000      100.000        0.000        0.000        1.980        2.005        2.198
     230.000  -261028.714    25933.344    16113.240    43801.751       82.602  -396628.556    49668.904       25.665       25.604        2.906        3.037        3.064        3.232        3.257        2.994        3.169        2.991        3.169        3.239        3.133        3.066        2.525        2.513        2.652        2.537        0.462        2.000        0.000        1.000        1.000        1.000        1.000        1.000        0.000        0.000        0.000        0.000        1.000        0.000        1.000        1.000        0.000        0.000        0.000        0.000        0.000        0.000        0.000        0.000        0.000        2.000        4.000        1.000        0.000        0.000        6.000        0.000        0.000        0.000        0.000        0.000      100.000        0.000        0.000        1.618        1.675        1.952
     240.000  -261617.587    26432.943    16126.460    43639.347       80.598  -396512.941    48616.005       25.836       25.717        2.915        3.096        3.176        3.302        3.258        2.972        3.160        2.961        3.257        3.244        3.146        3.122        2.519        2.456        2.613        2.468        0.486        2.000        0.000        1.000        1.000        1.000        2.000        1.000        0.000        0.000        0.000        0.000        0.000        0.000        0.000        2.000        0.000        0.000        0.000        0.000        0.000        0.000        0.000        0.000        0.000        1.000        2.000        0.000        0.000        0.000        3.000        0.000        0.000        0.000        0.000        0.000      100.000        0.000        0.000        1.652        1.694        2.028
     250.000  -261490.689    26232.504    15963.069    43516.061       89.188  -396526.680    49235.169       25.938       25.739        2.964        2.936        3.161        3.269        3.289        3.000        3.202        3.067        3.251        3.233        3.120        3.064        2.533        2.510        2.672        2.513        0.475        2.000        0.000        1.000        1.000        2.000        2.000        1.000        0.000        2.000        0.000        1.000        0.000        0.000        0.000        0.000        0.000        0.000        0.000        0.000        0.000        0.000        0.000        0.000        0.000        0.000        1.000        0.000        0.000        0.000        2.000        0.000        0.000        0.000        0.000        0.000      100.000        0.000        0.000        1.538        1.577        2.048
     260.000  -261290.042    27109.961    15673.620    43531.247       82.240  -395934.405    48247.295       25.800       25.821        2.910        3.009        3.193        3.244        3.258        2.994        3.165        3.052        3.196        3.257        3.208        3.176        2.498        2.514        2.627        2.525        0.506        2.000        0.000        1.000        1.000        2.000        3.000        1.000        0.000        1.000        0.000        0.000        1.000        0.000        1.000        0.000        0.000        0.000        0.000        0.000        0.000        0.000        0.000        0.000        0.000        1.000        2.000        0.000        0.000        0.000        5.000        1.000        0.000        0.000        0.000        0.000      100.000        0.000        0.000        1.447        1.473        2.029
     270.000  -261086.369    27023.953    15823.411    43728.483       88.665  -395756.875    48005.993       25.973       26.075        2.941        3.046        3.195        3.272        3.285        2.928        3.252        2.939        3.185        3.232        3.171        3.047        2.528        2.526        2.591        2.480        0.488        2.000        0.000        1.000        1.000        1.000        3.000        1.000        0.000        0.000        0.000        0.000        2.000        1.000        2.000        0.000        0.000        0.000        0.000        0.000        0.000        0.000        0.000        0.000        0.000        0.000        1.000        1.000        0.000        0.000        4.000        1.000        0.000        0.000        0.000        0.000      100.000        0.000        0.000        1.617        1.613        2.224
     280.000  -260243.007    25438.715    15865.013    43800.502       91.137  -394865.117    49426.743       25.869       25.861        2.963        3.057        3.181        3.239        3.306        3.008        3.190        2.990        3.192        3.279        3.166        3.115        2.511        2.568        2.656        2.515        0.482        2.000        0.000        1.000        1.000        1.000        2.000        0.000        0.000        0.000        0.000        1.000        2.000        0.000        0.000        1.000        0.000        0.000        0.000        0.000        0.000        0.000        0.000        0.000        0.000        1.000        2.000        1.000        0.000        0.000        4.000        0.000        0.000        0.000        0.000        0.000      100.000        0.000        0.000        1.696        1.712        2.250
     290.000  -260733.759    26157.580    16093.144    43778.788       87.488  -394701.331    47850.572       26.116       26.123        2.904        3.024        3.187        3.292        3.236        2.953        3.189        2.909        3.235        3.321        3.158        3.091        2.495        2.547        2.683        2.625        0.476        2.000        0.000        1.000        1.000        1.000        1.000        1.000        0.000        1.000        0.000        0.000        1.000        0.000        1.000        0.000        0.000        0.000        0.000        0.000        0.000        0.000        0.000        0.000        0.000        1.000        0.000        3.000        0.000        0.000        7.000        0.000        0.000        0.000        0.000        0.000      100.000        0.000        0.000        1.612        1.622        2.340
     300.000  -260909.174    26751.343    15988.586    43596.275       80.544  -396279.742    48953.819       26.133       26.012        2.852        3.046        3.214        3.221        3.301        3.039        3.254        2.989        3.221        3.294        3.159        3.047        2.516        2.556        2.710        2.510        0.486        2.000        0.000        1.000        1.000        1.000        1.000        0.000        0.000        0.000        0.000        2.000        1.000        0.000        1.000        1.000        0.000        0.000        0.000        0.000        0.000        0.000        0.000        0.000        0.000        1.000        2.000        1.000        0.000        0.000        4.000        1.000        0.000        0.000        0.000        0.000      100.000        0.000        0.000        1.697        1.700        2.433
     310.000  -260721.184    27197.620    15986.000    43850.376       77.479  -394410.070    46577.411       26.016       25.867        2.913        3.028        3.047        3.251        3.249        3.011        3.266        3.071        3.216        3.292        3.177        3.080        2.533        2.543        2.659        2.549        0.486        2.000        0.000        1.000        1.000        1.000        1.000        0.000        0.000        0.000        0.000        0.000        2.000        0.000        0.000        0.000        0.000        0.000        0.000        0.000        0.000        0.000        0.000        0.000        0.000        3.000        0.000        0.000        0.000        0.000        5.000        0.000        0.000        0.000        0.000        0.000      100.000        0.000        0.000        1.743        1.780        2.337
     320.000  -260664.050    27027.932    15766.941    43599.924       76.544  -394950.273    47814.883       26.182       26.071        2.928        2.976        3.160        3.280        3.285        3.024        3.235        2.993        3.284        3.305        3.152        3.112        2.527        2.524        2.605        2.499        0.484        2.000        0.000        1.000        1.000        1.000        1.000        0.000        0.000        0.000        0.000        0.000        1.000        1.000        1.000        0.000        0.000        0.000        0.000        0.000        0.000        0.000        0.000        0.000        0.000        1.000        0.000        0.000        2.000        0.000        6.000        2.000        0.000        0.000        0.000        0.000      100.000        0.000        0.000        1.881        1.907        2.329
     330.000  -261328.352    27427.847    15573.715    43523.323       70.919  -395535.393    47611.237       26.157       26.118        2.925        2.940        3.121        3.278        3.230        2.957        3.274        2.994        3.200        3.296        3.246        3.134        2.550        2.575        2.628        2.490        0.475        1.000        0.000        1.000        1.000        1.000        2.000        0.000        0.000        1.000        0.000        0.000        2.000        0.000        1.000        0.000        0.000        0.000        0.000        0.000        0.000        0.000        0.000        0.000        0.000        2.000        1.000        1.000        0.000        1.000        5.000        1.000        0.000        0.000        0.000        0.000      100.000        0.000        0.000        1.969        2.001        2.321
     340.000  -260351.042    27329.308    15523.957    43716.301      104.890  -394583.815    47558.317       26.190       25.839        2.886        2.966        3.143        3.255        3.280        3.040        3.272        3.064        3.225        3.245        3.231        3.111        2.543        2.579        2.652        2.580        0.490        2.000        0.000        1.000        1.000        1.000        1.000        0.000        0.000        0.000        0.000        0.000        1.000        0.000        1.000        2.000        0.000        0.000        0.000        0.000        0.000        0.000        0.000        0.000        0.000        1.000        0.000        0.000        0.000        0.000        5.000        0.000        0.000        0.000        0.000        0.000      100.000        0.000        0.000        1.834        1.873        2.339
     350.000  -260471.531    26575.212    15602.163    43590.370       83.954  -394948.490    48625.260       26.254       26.177        2.958        3.015        3.163        3.233        3.173        3.054        3.245        3.064        3.272        3.269        3.177        3.101        2.496        2.554        2.660        2.560        0.507        2.000        0.000        1.000        1.000        1.000        1.000        0.000        0.000        0.000        0.000        1.000        0.000        0.000        0.000        1.000        0.000        0.000        0.000        0.000        0.000        0.000        0.000        0.000        0.000        2.000        0.000        0.000        0.000        1.000        6.000        0.000        0.000        0.000        0.000        0.000      100.000        0.000        0.000        1.870        1.900        2.374
     360.000  -260748.767    26159.898    15631.407    43719.952       86.779  -394148.957    47802.153       25.654       26.089        2.902        3.041        3.109        3.281        3.223        3.014        3.247        3.026        3.185        3.273        3.143        3.064        2.494        2.580        2.657        2.491        0.489        2.000        0.000        1.000        1.000        1.000        2.000        0.000        0.000        0.000        0.000        2.000        0.000        0.000        1.000        0.000        0.000        0.000        0.000        0.000        0.000        0.000        0.000        0.000        0.000        4.000        0.000        1.000        3.000        0.000        9.000        1.000        0.000        0.000        0.000        0.000      100.000        0.000        0.000        1.596        1.605        2.316
     370.000  -260733.313    25780.355    15758.394    43475.631      100.774  -393563.956    47715.489       26.092       26.139        2.929        2.984        3.114        3.263        3.276        2.922        3.308        3.041        3.234        3.267        3.133        3.174        2.576        2.592        2.644        2.509        0.482        2.000        0.000        1.000        1.000        1.000        1.000        0.000        0.000        0.000        0.000        0.000        0.000        0.000        2.000        0.000        0.000        0.000        0.000        0.000        0.000        0.000        0.000        0.000        0.000        1.000        2.000        0.000        3.000        0.000        5.000        1.000        0.000        0.000        0.000        0.000      100.000        0.000        0.000        1.738        1.736        2.501
     380.000  -260651.301    25174.159    16091.075    44042.823       94.231  -395816.046    49762.457       25.975       25.843        2.929        3.155        3.061        3.227        3.209        2.950        3.252        3.102        3.162        3.203        3.178        3.085        2.519        2.489        2.657        2.465        0.488        2.000        0.000        1.000        2.000        1.000        1.000        0.000        0.000        0.000        0.000        0.000        0.000        0.000        0.000        1.000        0.000        0.000        0.000        0.000        0.000        0.000        0.000        0.000        0.000        3.000        0.000        2.000        2.000        0.000        7.000        1.000        0.000        0.000        0.000        0.000      100.000        0.000        0.000        1.672        1.683        2.521
     390.000  -260446.081    26156.407    15711.545    44175.806       76.155  -394714.275    48148.281       25.728       25.843        2.972        3.166        3.087        3.271        3.264        3.005        3.247        3.097        3.191        3.207        3.114        3.093        2.505        2.477        2.652        2.530        0.489        2.000        0.000        1.000        1.000        1.000        1.000        0.000        0.000        0.000        0.000        1.000        0.000        0.000        2.000        0.000        0.000        0.000        0.000        0.000        0.000        0.000        0.000        0.000        0.000        1.000        0.000        1.000        1.000        0.000        4.000        2.000        0.000        0.000        0.000        0.000      100.000        0.000        0.000        1.502        1.512        2.392
     400.000  -260545.182    26704.304    15628.916    43750.805       99.803  -394261.840    47532.831       26.277       25.992        2.961        3.127        3.126        3.250        3.289        2.954        3.276        3.137        3.183        3.210        3.158        3.117        2.495        2.472        2.631        2.483        0.483        2.000        0.000        1.000        1.000        1.000        1.000        0.000        0.000        0.000        1.000        0.000        0.000        0.000        1.000        1.000        0.000        0.000        0.000        0.000        0.000        0.000        0.000        0.000        0.000        0.000        0.000        0.000        1.000        0.000        3.000        0.000        0.000        0.000        0.000        0.000      100.000        0.000        0.000        1.899        1.919        2.698
     410.000  -259939.255    26556.123    15492.985    43610.573       78.780  -393156.515    47478.800       26.107       26.151        2.927        3.110        3.238        3.287        3.260        2.997        3.273        3.021        3.219        3.224        3.118        3.143        2.514        2.485        2.650        2.585        0.498        2.000        0.000        1.000        1.000        1.000        1.000        0.000        0.000        0.000        0.000        0.000        0.000        0.000        0.000        1.000        0.000        0.000        0.000        0.000        0.000        0.000        0.000        0.000        0.000        2.000        0.000        1.000        1.000        0.000        9.000        0.000        0.000        0.000        0.000        0.000      100.000        0.000        0.000        2.249        2.283        2.948
     420.000  -260183.784    26867.773    15566.721    43608.364       89.851  -393716.490    47399.997       25.892       25.843        2.915        3.137        3.128        3.278        3.249        3.069        3.273        3.034        3.182        3.201        3.139        3.130        2.580        2.496        2.630        2.560        0.492        1.000        0.000        1.000        1.000        1.000        1.000        0.000        0.000        1.000        0.000        0.000        0.000        0.000        1.000        1.000        0.000        0.000        0.000        0.000        0.000        0.000        0.000        0.000        0.000        1.000        3.000        1.000        2.000        0.000        4.000        1.000        0.000        0.000        0.000        0.000      100.000        0.000        0.000        2.112        2.127        2.930
     430.000  -261033.476    25992.012    15500.835    43655.885      101.074  -393775.900    47492.618       26.114       25.987        2.894        3.130        3.101        3.269        3.242        3.020        3.238        3.036        3.168        3.244        3.183        3.148        2.461        2.518        2.618        2.475        0.482        2.000        0.000        1.000        1.000        1.000        1.000        0.000        0.000        0.000        0.000        0.000        0.000        0.000        0.000        2.000        0.000        0.000        0.000        0.000        0.000        0.000        0.000        0.000        0.000        0.000        1.000        0.000        2.000        0.000        3.000        1.000        0.000        0.000        0.000        0.000      100.000        0.000        0.000        2.046        2.040        2.995
     440.000  -260053.936    25773.927    15679.669    43623.680       97.415  -393583.596    48354.969       25.765       25.868        3.007        3.143        3.099        3.231        3.222        3.060        3.272        2.941        3.205        3.213        3.165        3.187        2.531        2.510        2.602        2.555        0.504        1.000        0.000        1.000        1.000        1.000        1.000        0.000        0.000        0.000        0.000        1.000        0.000        0.000        3.000        0.000        0.000        0.000        0.000        0.000        0.000        0.000        0.000        0.000        0.000        0.000        1.000        1.000        1.000        0.000        3.000        1.000        0.000        0.000        0.000        0.000      100.000        0.000        0.000        1.938        1.927        2.885
     450.000  -260053.333    26113.132    15535.602    43728.455       65.419  -393391.377    47895.436       26.065       25.903        2.878        3.126        3.183        3.224        3.252        3.005        3.274        3.064        3.197        3.201        3.157        3.051        2.494        2.469        2.610        2.515        0.500        1.000        0.000        1.000        1.000        1.000        1.000        0.000        0.000        0.000        0.000        0.000        0.000        0.000        1.000        1.000        0.000        0.000        0.000        0.000        0.000        0.000        0.000        0.000        0.000        3.000        1.000        2.000        1.000        0.000        9.000        0.000        0.000        0.000        0.000        0.000      100.000        0.000        0.000        1.916        1.896        2.985
     460.000  -260295.159    25883.910    15410.253    43851.211       66.473  -394239.015    48732.009       25.848       25.859        2.921        3.136        3.128        3.149        3.259        2.964        3.252        3.056        3.196        3.193        3.171        3.096        2.478        2.479        2.685        2.525        0.471        1.000        0.000        1.000        1.000        1.000        1.000        0.000        0.000        0.000        0.000        0.000        0.000        1.000        1.000        0.000        0.000        0.000        0.000        0.000        0.000        0.000        0.000        0.000        0.000        5.000        0.000        0.000        2.000        0.000        4.000        0.000        0.000        0.000        0.000        0.000      100.000        0.000        0.000        1.790        1.784        2.938
     470.000  -259746.021    25553.340    15524.796    43816.165       81.117  -392665.218    47943.779       26.010       25.854        2.949        3.144        3.188        3.174        3.234        3.014        3.316        3.051        3.178        3.253        3.160        3.002        2.527        2.497        2.645        2.477        0.498        1.000        0.000        1.000        1.000        1.000        1.000        0.000        0.000        0.000        0.000        0.000        0.000        0.000        1.000        0.000        0.000        0.000        0.000        0.000        0.000        0.000        0.000        0.000        0.000        2.000        1.000        4.000        1.000        1.000        2.000        1.000        0.000        0.000        0.000        0.000      100.000        0.000        0.000        2.187        2.185        3.376
     480.000  -261183.858    26345.084    15408.409    43606.635       93.428  -394043.759    47406.346       26.157       25.883        2.957        3.129        3.071        3.230        3.264        3.012        3.281        3.002        3.115        3.305        3.096        3.073        2.557        2.491        2.644        2.557        0.501        1.000        0.000        1.000        1.000        1.000        1.000        0.000        0.000        1.000        0.000        0.000        0.000        0.000        2.000        0.000        0.000        0.000        0.000        0.000        0.000        0.000        0.000        0.000        0.000        3.000        0.000        0.000        1.000        0.000        3.000        0.000        0.000        0.000        0.000        0.000      100.000        0.000        0.000        2.241        2.202        3.398
     490.000  -260591.682    25933.890    15276.581    43867.415       89.702  -392699.694    46940.424       25.962       26.039        2.884        3.090        3.086        3.253        3.270        3.014        3.229        3.018        3.183        3.188        3.139        3.121        2.519        2.544        2.628        2.477        0.493        1.000        0.000        1.000        1.000        1.000        1.000        0.000        0.000        0.000        0.000        0.000        0.000        0.000        0.000        1.000        0.000        0.000        0.000        0.000        0.000        0.000        0.000        0.000        0.000        1.000        1.000        3.000        0.000        0.000        3.000        1.000        0.000        0.000        0.000        0.000      100.000        0.000        0.000        2.228        2.251        3.294
     500.000  -259681.514    26062.020    15361.741    43597.151       70.764  -392019.642    47246.453       25.892       26.137        2.946        3.139        3.138        3.319        3.322        3.037        3.313        3.022        3.201        3.237        3.189        3.107        2.530        2.551        2.640        2.497        0.488        2.000        0.000        1.000        1.000        1.000        1.000        0.000        0.000        0.000        0.000        0.000        0.000        0.000        1.000        1.000        0.000        0.000        0.000        0.000        0.000        0.000        0.000        0.000        0.000        3.000        1.000        1.000        0.000        1.000        3.000        0.000        0.000        0.000        0.000        0.000      100.000        0.000        0.000        2.097        2.086        3.261
     510.000  -260172.290    25448.637    15409.310    43722.927       82.866  -391772.801    46936.771       26.166       26.206        2.920        3.039        3.060        3.230        3.310        3.039        3.201        3.031        3.239        3.201        3.135        3.110        2.510        2.495        2.621        2.569        0.475        2.000        0.000        1.000        1.000        1.000        1.000        0.000        0.000        0.000        0.000        1.000        0.000        0.000        0.000        0.000        0.000        0.000        0.000        0.000        0.000        0.000        0.000        0.000        0.000        2.000        1.000        1.000        0.000        1.000        3.000        1.000        0.000        0.000        0.000        0.000      100.000        0.000        0.000        1.865        1.848        3.314
     520.000  -260568.149    26773.446    15522.924    43634.451       87.473  -393776.836    47190.392       26.054       26.321        2.931        3.085        3.012        3.255        3.278        3.083        3.244        3.059        3.149        3.227        3.145        3.073        2.515        2.513        2.601        2.474        0.500        2.000        0.000        1.000        1.000        1.000        1.000        0.000        0.000        0.000        0.000        1.000        0.000        0.000        1.000        0.000        0.000        0.000        0.000        0.000        0.000        0.000        0.000        0.000        0.000        0.000        0.000        1.000        0.000        0.000        3.000        1.000        0.000        0.000        0.000        0.000      100.000        0.000        0.000        2.149        2.122        3.519
     530.000  -260547.298    26198.073    15750.674    43783.442       84.500  -394457.333    48093.346       26.258       26.163        2.919        3.024        3.085        3.240        3.286        3.012        3.237        3.086        3.191        3.235        3.154        3.079        2.528        2.507        2.661        2.503        0.481        2.000        0.000        0.000        1.000        1.000        1.000        0.000        0.000        0.000        1.000        0.000        0.000        0.000        1.000        0.000        0.000        0.000        0.000        0.000        0.000        0.000        0.000        0.000        0.000        5.000        0.000        0.000        0.000        0.000        3.000        0.000        0.000        0.000        0.000        0.000      100.000        0.000        0.000        2.437        2.409        3.534
     540.000  -260749.841    27173.089    15264.941    43906.101       83.804  -394494.844    47317.068       25.977       25.971        2.961        3.071        3.119        3.217        3.195        3.044        3.252        3.029        3.176        3.260        3.096        3.081        2.545        2.470        2.591        2.524        0.498        1.000        0.000        1.000        1.000        1.000        1.000        0.000        0.000        0.000        0.000        0.000        0.000        0.000        0.000        1.000        0.000        0.000        0.000        0.000        0.000        0.000        0.000        0.000        0.000        1.000        1.000        0.000        1.000        0.000        4.000        1.000        0.000        0.000        0.000        0.000      100.000        0.000        0.000        2.037        2.018        3.226
     550.000  -260181.130    27196.533    15490.731    44043.804       94.074  -394070.167    47063.895       26.037       25.844        2.868        3.029        3.137        3.248        3.253        3.006        3.240        3.023        3.117        3.261        3.161        3.065        2.481        2.524        2.639        2.490        0.495        2.000        0.000        1.000        1.000        1.000        1.000        0.000        0.000        0.000        0.000        1.000        0.000        0.000        2.000        1.000        0.000        0.000        0.000        0.000        0.000        0.000        0.000        0.000        0.000        2.000        0.000        0.000        1.000        1.000        5.000        0.000        0.000        0.000        0.000        0.000      100.000        0.000        0.000        1.967        1.933        3.263
     560.000  -261891.991    26678.306    15308.692    43699.506       99.013  -394971.464    47293.956       26.064       25.956        2.952        3.016        3.169        3.307        3.302        3.042        3.264        3.023        3.170        3.261        3.192        3.127        2.507        2.544        2.629        2.542        0.477        2.000        0.000        1.000        1.000        1.000        1.000        0.000        0.000        1.000        0.000        0.000        0.000        0.000        0.000        1.000        0.000        0.000        0.000        0.000        0.000        0.000        0.000        0.000        0.000        3.000        0.000        0.000        2.000        1.000        1.000        0.000        0.000        0.000        0.000        0.000      100.000        0.000        0.000        1.994        1.982        3.410
     570.000  -260470.284    25389.566    15261.169    43806.197       73.890  -394437.817    49436.711       25.860       26.081        2.929        3.089        3.165        3.285        3.283        3.036        3.261        2.995        3.107        3.231        3.130        3.105        2.531        2.521        2.648        2.641        0.477        2.000        0.000        1.000        1.000        1.000        1.000        0.000        0.000        0.000        0.000        1.000        0.000        0.000        1.000        0.000        0.000        0.000        0.000        0.000        0.000        0.000        0.000        0.000        0.000        0.000        0.000        2.000        0.000        0.000        3.000        1.000        0.000        0.000        0.000        0.000      100.000        0.000        0.000        1.944        1.928        3.487
     580.000  -259962.682    25395.793    15400.593    43871.533       84.463  -392634.186    47919.123       26.044       25.884        2.897        3.130        3.189        3.246        3.277        2.964        3.257        3.070        3.186        3.209        3.130        3.125        2.525        2.543        2.669        2.584        0.490        2.000        0.000        1.000        1.000        1.000        1.000        0.000        0.000        0.000        0.000        0.000        0.000        0.000        0.000        0.000        0.000        0.000        0.000        0.000        0.000        0.000        0.000        0.000        0.000        1.000        1.000        0.000        2.000        1.000        6.000        0.000        0.000        0.000        0.000        0.000      100.000        0.000        0.000        1.819        1.802        3.367
     590.000  -260336.674    26051.974    15545.869    43754.540       80.484  -394127.896    48358.355       25.982       25.960        2.975        3.150        3.077        3.293        3.247        2.980        3.269        3.023        3.216        3.203        3.154        3.109        2.510        2.515        2.622        2.600        0.492        2.000        0.000        1.000        1.000        1.000        1.000        0.000        0.000        1.000        0.000        0.000        0.000        0.000        1.000        1.000        0.000        0.000        0.000        0.000        0.000        0.000        0.000        0.000        0.000        1.000        2.000        1.000        1.000        0.000        6.000        0.000        0.000        0.000        0.000        0.000      100.000        0.000        0.000        1.703        1.703        3.089
     600.000  -260272.366    26925.281    15455.028    43775.136       85.900  -392800.567    46286.856       26.094       26.237        3.037        3.047        3.078        3.269        3.184        3.064        3.239        3.019        3.078        3.201        3.162        3.077        2.562        2.535        2.604        2.626        0.514        2.000        0.000        1.000        1.000        1.000        1.000        0.000        0.000        0.000        0.000        0.000        0.000        1.000        2.000        0.000        0.000        0.000        0.000        0.000        0.000        0.000        0.000        0.000        0.000        0.000        0.000        0.000        0.000        0.000        4.000        0.000        0.000        0.000        4.494        0.000       95.506        0.000        0.000        2.085        2.089        3.320
     610.000  -260574.032    26370.055    15320.017    43701.906      113.428  -392373.341    46293.903       25.819       26.111        3.016        3.065        2.999        3.268        3.286        3.009        3.253        3.055        3.227        3.292        3.143        3.159        2.501        2.541        2.591        2.596        0.506        2.000        0.000        0.000        1.000        1.000        1.000        0.000        0.000        1.000        0.000        1.000        0.000        0.000        0.000        0.000        0.000        0.000        0.000        0.000        0.000        0.000        0.000        0.000        0.000        1.000        0.000        0.000        0.000        0.000        5.000        0.000        0.000        0.000        0.000        0.000      100.000        0.000        0.000        2.049        2.054        3.537
     620.000  -259971.036    25740.241    15925.494    43944.672      114.718  -393855.739    48159.578       25.935       26.148        3.109        3.050        2.908        3.259        3.244        3.020        3.261        3.037        3.165        3.195        3.167        3.121        2.463        2.423        2.592        2.639        0.473        1.000        0.000        1.000        1.000        1.000        1.000        0.000        0.000        0.000        0.000        0.000        0.000        0.000        2.000        1.000        0.000        0.000        0.000        0.000        0.000        0.000        0.000        0.000        0.000        0.000        0.000        0.000        0.000        0.000        3.000        0.000        0.000        0.000        0.000        0.000      100.000        0.000        0.000        1.837        1.827        3.332
     630.000  -259947.709    25653.387    15564.182    44195.690       89.583  -394120.828    48670.276       25.722       25.805        3.061        3.139        3.176        3.244        3.255        2.976        3.249        3.070        3.207        3.206        3.181        3.111        2.462        2.449        2.660        2.583        0.488        2.000        0.000        1.000        1.000        1.000        1.000        0.000        0.000        0.000        0.000        0.000        0.000        0.000        0.000        1.000        0.000        0.000        0.000        0.000        0.000        0.000        0.000        0.000        0.000        3.000        0.000        1.000        0.000        0.000        7.000        0.000        0.000        0.000        0.000        0.000      100.000        0.000        0.000        1.729        1.719        3.326
     640.000  -260168.856    26000.187    15415.978    43978.837       85.915  -393442.189    47792.418       25.869       25.877        3.091        3.058        3.123        3.292        3.215        3.014        3.233        3.019        3.185        3.297        3.144        3.092        2.465        2.544        2.586        2.609        0.491        2.000        0.000        1.000        1.000        0.000        2.000        0.000        0.000        1.000        0.000        1.000        0.000        0.000        0.000        1.000        0.000        0.000        0.000        0.000        0.000        0.000        0.000        0.000        0.000        1.000        0.000        1.000        0.000        0.000        4.000        1.000        0.000        0.000        0.000        0.000      100.000        0.000        0.000        1.728        1.719        3.155
     650.000  -260726.201    26620.416    15662.058    43543.306      117.345  -392293.927    45624.601       26.059       26.329        3.091        3.011        3.159        3.264        3.243        3.049        3.256        3.008        3.148        3.261        3.140        3.168        2.474        2.505        2.663        2.576        0.497        2.000        0.000        1.000        1.000        1.000        1.000        0.000        0.000        1.000        0.000        0.000        1.000        0.000        0.000        1.000        0.000        0.000        0.000        0.000        0.000        0.000        0.000        0.000        0.000        1.000        1.000        0.000        1.000        0.000        6.000        0.000        0.000        0.000        0.000        0.000      100.000        0.000        0.000        2.139        2.133        3.386
     660.000  -260978.640    25035.477    15251.502    43865.115      110.944  -394425.445    49183.768       25.550       26.172        3.116        3.027        3.161        3.218        3.178        3.028        3.178        3.049        3.019        3.253        3.098        3.105        2.511        2.559        2.606        2.607        0.489        2.000        0.000        1.000        1.000        1.000        2.000        0.000        0.000        0.000        0.000        0.000        0.000        0.000        0.000        0.000        0.000        0.000        0.000        0.000        0.000        0.000        0.000        0.000        0.000        3.000        0.000        0.000        0.000        1.000        5.000        0.000        0.000        0.000        0.000        0.000      100.000        0.000        0.000        2.085        2.094        3.366
     670.000  -260642.834    26958.927    15446.685    44032.953       98.148  -392723.324    45543.776       25.727       26.215        3.093        3.044        3.109        3.240        3.228        3.056        3.263        3.056        3.176        3.205        3.160        3.125        2.507        2.508        2.585        2.614        0.474        2.000        0.000        1.000        1.000        1.000        2.000        0.000        0.000        1.000        0.000        0.000        0.000        0.000        1.000        0.000        0.000        0.000        0.000        0.000        0.000        0.000        0.000        0.000        0.000        2.000        1.000        0.000        0.000        0.000        6.000        0.000        0.000        0.000        0.000        0.000      100.000        0.000        0.000        2.203        2.225        3.400
     680.000  -260560.202    26096.866    15531.523    43849.330       78.547  -394511.995    48395.527       25.704       26.284        3.086        2.872        3.161        3.160        3.263        3.003        3.240        3.076        3.106        3.211        3.158        3.042        2.482        2.521        2.588        2.661        0.500        0.000        0.000        1.000        1.000        1.000        1.000        0.000        0.000        1.000        0.000        0.000        0.000        0.000        1.000        0.000        0.000        0.000        0.000        0.000        0.000        0.000        0.000        0.000        0.000        1.000        1.000        1.000        0.000        0.000       10.000        0.000        0.000        0.000        0.000        0.000      100.000        0.000        0.000        2.292        2.323        3.457
     690.000  -259788.970    25051.316    15624.372    44135.165      104.814  -393061.052    48356.415       25.588       26.072        3.077        3.046        3.077        3.234        3.248        2.991        3.231        3.070        3.186        3.201        3.116        3.103        2.521        2.508        2.610        2.537        0.497        2.000        0.000        1.000        1.000        1.000        2.000        0.000        0.000        1.000        0.000        0.000        0.000        0.000        1.000        0.000        0.000        0.000        0.000        0.000        0.000        0.000        0.000        0.000        0.000        1.000        1.000        1.000        0.000        0.000        5.000        0.000        0.000        0.000        0.000        0.000      100.000        0.000        0.000        2.319        2.316        3.731
     700.000  -259824.527    25539.822    15505.239    43808.948       95.576  -393526.833    48752.721       25.844       26.514        3.063        3.003        3.126        3.264        3.256        3.065        3.216        2.998        3.183        3.244        3.164        3.055        2.520        2.471        2.627        2.508        0.483        2.000        0.000        1.000        1.000        1.000        2.000        0.000        0.000        1.000        1.000        0.000        0.000        0.000        0.000        0.000        0.000        0.000        0.000        0.000        0.000        0.000        0.000        0.000        0.000        2.000        2.000        3.000        0.000        0.000        6.000        1.000        0.000        0.000        0.000        0.000      100.000        0.000        0.000        2.174        2.160        3.666
     710.000  -259382.405    25788.785    15742.537    43907.106       98.237  -391953.296    47034.226       26.308       26.438        3.081        2.895        3.161        3.284        3.196        2.979        3.227        3.035        3.184        3.218        3.145        3.104        2.549        2.492        2.639        2.528        0.506        2.000        0.000        1.000        1.000        1.000        1.000        0.000        0.000        0.000        0.000        1.000        0.000        0.000        1.000        1.000        0.000        0.000        0.000        0.000        0.000        0.000        0.000        0.000        0.000        2.000        2.000        1.000        0.000        0.000        7.000        1.000        0.000        0.000        0.000        0.000      100.000        0.000        0.000        2.717        2.718        4.115
     720.000  -260233.061    25176.313    15446.025    43967.692       94.763  -393374.255    48456.401       26.055       26.144        3.064        3.017        3.120        3.246        3.199        3.033        3.230        3.088        3.113        3.244        3.116        2.997        2.556        2.533        2.609        2.512        0.470        1.000        0.000        1.000        1.000        1.000        1.000        0.000        0.000        1.000        1.000        0.000        0.000        0.000        1.000        1.000        0.000        0.000        0.000        0.000        0.000        0.000        0.000        0.000        0.000        4.000        0.000        0.000        1.000        1.000        7.000        0.000        0.000        0.000        0.000        0.000      100.000        0.000        0.000        2.856        2.855        4.350
     730.000  -260013.712    25545.901    15766.273    43979.524       96.541  -393754.775    48352.824       25.961       26.066        3.053        2.942        3.126        3.273        3.188        3.053        3.205        2.993        3.176        3.185        3.173        2.993        2.556        2.495        2.589        2.647        0.495        2.000        0.000        1.000        1.000        1.000        1.000        0.000        0.000        0.000        1.000        0.000        0.000        0.000        0.000        0.000        0.000        0.000        0.000        0.000        0.000        0.000        0.000        0.000        0.000        2.000        3.000        0.000        1.000        0.000        5.000        0.000        0.000        0.000        0.000        0.000      100.000        0.000        0.000        2.790        2.778        4.391
     740.000  -260727.190    24969.290    15665.756    44092.710       90.055  -395217.267    49672.266       26.124       25.936        3.087        2.923        3.160        3.246        3.252        3.058        3.195        3.036        3.149        3.217        3.062        3.094        2.557        2.501        2.602        2.491        0.493        1.000        0.000        1.000        1.000        1.000        2.000        0.000        0.000        1.000        0.000        0.000        0.000        0.000        0.000        0.000        0.000        0.000        0.000        0.000        0.000        0.000        0.000        0.000        0.000        1.000        0.000        0.000        1.000        0.000        1.000        0.000        0.000        0.000        0.000        0.000      100.000        0.000        0.000        2.812        2.789        4.307
     750.000  -260313.884    24904.450    15143.201    44168.377       77.834  -393212.748    48605.001       26.430       25.926        3.074        2.967        3.144        3.312        3.218        2.976        3.195        3.044        3.256        3.219        3.060        3.090        2.536        2.476        2.629        2.531        0.473        1.000        0.000        1.000        1.000        0.000        2.000        0.000        0.000        0.000        1.000        0.000        0.000        0.000        0.000        2.000        0.000        0.000        0.000        0.000        0.000        0.000        0.000        0.000        0.000        5.000        0.000        0.000        0.000        0.000        3.000        1.000        0.000        0.000        0.000        0.000      100.000        0.000        0.000        2.529        2.509        4.250
     760.000  -260084.501    25684.632    15574.181    43986.827       87.528  -393106.943    47689.274       26.271       26.043        3.063        2.969        3.140        3.228        3.203        3.063        3.256        2.969        3.246        3.228        3.112        3.068        2.505        2.547        2.656        2.528        0.497        1.000        0.000        1.000        1.000        1.000        1.000        0.000        0.000        0.000        0.000        0.000        0.000        0.000        1.000        1.000        0.000        0.000        0.000        0.000        0.000        0.000        0.000        0.000        0.000        3.000        0.000        0.000        1.000        0.000        4.000        0.000        0.000        0.000        0.000        0.000      100.000        0.000        0.000        2.865        2.873        4.717
     770.000  -260552.529    25630.691    15652.433    44077.375      103.041  -394294.417    48278.348       26.338       26.034        3.086        2.997        3.140        3.234        3.261        2.990        3.226        3.004        3.236        3.216        3.061        3.077        2.545        2.501        2.584        2.552        0.476        1.000        0.000        1.000        1.000        1.000        1.000        0.000        0.000        0.000        1.000        0.000        0.000        0.000        0.000        1.000        0.000        0.000        0.000        0.000        0.000        0.000        0.000        0.000        0.000        2.000        0.000        1.000        0.000        0.000        5.000        1.000        0.000        0.000        0.000        0.000      100.000        0.000        0.000        3.052        3.065        4.780
     780.000  -259835.341    25344.207    15568.521    44106.096       82.304  -392632.148    47695.679       26.071       25.824        3.110        3.097        3.129        3.257        3.242        3.086        3.251        3.037        3.195        3.260        3.063        3.123        2.567        2.515        2.587        2.577        0.492        1.000        0.000        1.000        1.000        1.000        1.000        0.000        0.000        1.000        1.000        0.000        0.000        0.000        1.000        0.000        0.000        0.000        0.000        0.000        0.000        0.000        0.000        0.000        0.000        0.000        0.000        0.000        0.000        0.000        6.000        1.000        0.000        0.000        0.000        0.000      100.000        0.000        0.000        2.386        2.397        4.396
     790.000  -260120.218    25488.887    15461.040    43839.475      103.393  -392303.903    47290.891       26.191       26.521        3.115        3.050        3.148        3.263        3.220        3.013        3.187        3.056        3.171        3.241        3.027        3.181        2.524        2.509        2.637        2.582        0.494        2.000        0.000        1.000        1.000        1.000        1.000        0.000        0.000        0.000        0.000        0.000        0.000        0.000        2.000        0.000        0.000        0.000        0.000        0.000        0.000        0.000        0.000        0.000        0.000        3.000        0.000        0.000        0.000        0.000        4.000        0.000        0.000        0.000        0.000        0.000      100.000        0.000        0.000        2.424        2.444        4.407
     800.000  -260155.634    25791.928    15653.292    43932.987       79.295  -392562.518    46949.382       25.969       26.536        2.910        3.054        3.179        3.219        3.262        3.020        3.204        3.023        3.171        3.218        3.115        3.086        2.566        2.547        2.631        2.535        0.466        1.000        0.000        1.000        1.000        1.000        1.000        0.000        0.000        1.000        0.000        0.000        0.000        0.000        3.000        0.000        0.000        0.000        0.000        0.000        0.000        0.000        0.000        0.000        0.000        2.000        1.000        0.000        0.000        0.000        2.000        0.000        0.000        0.000        0.000        0.000      100.000        0.000        0.000        2.293        2.312        4.267
     810.000  -259287.914    26124.088    15515.963    43815.448       84.781  -391970.580    47142.385       25.919       26.610        2.831        3.013        3.158        3.270        3.253        3.015        3.245        3.066        3.135        3.193        3.033        3.104        2.551        2.469        2.619        2.568        0.502        0.000        0.000        1.000        1.000        1.000        1.000        0.000        0.000        0.000        0.000        0.000        0.000        0.000        1.000        1.000        0.000        0.000        0.000        0.000        0.000        0.000        0.000        0.000        0.000        1.000        0.000        0.000        0.000        0.000        6.000        0.000        0.000        0.000        0.000        0.000      100.000        0.000        0.000        2.076        2.093        4.102
     820.000  -260584.895    24799.318    15397.683    44061.831       86.862  -393781.481    48850.893       25.963       26.331        2.905        3.093        3.190        3.283        3.237        2.948        3.220        2.982        3.143        3.213        3.104        3.109        2.502        2.523        2.585        2.535        0.479        2.000        0.000        1.000        1.000        1.000        1.000        0.000        0.000        1.000        0.000        0.000        0.000        0.000        1.000        0.000        0.000        0.000        0.000        0.000        0.000        0.000        0.000        0.000        0.000        2.000        1.000        0.000        0.000        0.000        3.000        0.000        0.000        0.000        4.494        0.000       95.506        0.000        0.000        1.931        1.952        4.026
     830.000  -260416.391    25570.905    15802.051    43837.901       67.365  -393795.057    48100.444       26.288       26.268        2.938        3.049        3.125        3.285        3.233        3.063        3.238        3.022        3.144        3.249        3.128        3.111        2.561        2.518        2.600        2.568        0.488        1.000        0.000        1.000        1.000        1.000        1.000        0.000        0.000        0.000        0.000        0.000        0.000        0.000        0.000        0.000        0.000        0.000        0.000        0.000        0.000        0.000        0.000        0.000        0.000        0.000        1.000        1.000        1.000        0.000        3.000        0.000        0.000        0.000        0.000        0.000      100.000        0.000        0.000        1.929        1.953        4.015
     840.000  -259390.312    24938.010    15511.097    43835.592      101.327  -392154.049    48377.711       25.968       26.193        2.868        3.076        3.115        3.284        3.230        2.981        3.266        3.084        3.146        3.251        3.096        3.017        2.510        2.560        2.659        2.566        0.470        0.000        0.000        1.000        1.000        1.000        1.000        0.000        0.000        0.000        2.000        0.000        0.000        0.000        1.000        0.000        0.000        0.000        0.000        0.000        0.000        0.000        0.000        0.000        0.000        3.000        0.000        0.000        0.000        1.000        5.000        0.000        0.000        0.000        0.000        0.000      100.000        0.000        0.000        1.927        1.948        4.173
     850.000  -260187.142    25864.441    15497.986    43833.955       90.770  -393502.395    48028.101       26.107       26.471        3.095        2.986        3.182        3.279        3.248        3.013        3.308        3.073        3.116        3.205        3.102        3.146        2.567        2.496        2.579        2.598        0.481        2.000        0.000        0.000        1.000        1.000        1.000        0.000        0.000        0.000        2.000        0.000        0.000        0.000        1.000        1.000        0.000        0.000        0.000        0.000        0.000        0.000        0.000        0.000        0.000        3.000        0.000        0.000        0.000        0.000        4.000        1.000        0.000        0.000        0.000        0.000      100.000        0.000        0.000        2.111        2.138        4.495
     860.000  -260036.554    26154.448    15744.266    43776.113      108.465  -392423.978    46604.133       25.911       26.409        3.100        3.104        3.102        3.229        3.241        2.957        3.237        3.064        3.179        3.192        3.136        3.123        2.526        2.543        2.590        2.515        0.491        0.000        0.000        0.000        1.000        0.000        1.000        0.000        0.000        0.000        1.000        1.000        0.000        0.000        1.000        0.000        0.000        0.000        0.000        0.000        0.000        0.000        0.000        0.000        0.000        4.000        0.000        0.000        1.000        0.000        5.000        0.000        0.000        0.000        0.000        0.000      100.000        0.000        0.000        2.160        2.160        4.579
     870.000  -259830.730    25426.762    15758.609    43875.490       96.867  -392617.187    47628.729       26.152       26.573        3.060        3.127        3.096        3.258        3.192        3.036        3.300        3.071        3.115        3.157        3.078        3.079        2.488        2.553        2.623        2.505        0.493        2.000        0.000        1.000        1.000        1.000        1.000        0.000        0.000        0.000        1.000        0.000        0.000        0.000        0.000        0.000        0.000        0.000        0.000        0.000        0.000        0.000        0.000        0.000        0.000        1.000        0.000        0.000        0.000        1.000        6.000        0.000        0.000        0.000        0.000        0.000      100.000        0.000        0.000        2.124        2.150        4.567
     880.000  -259230.272    25200.260    15459.285    43921.632       63.453  -392452.923    48578.020       25.738       26.382        3.108        3.239        3.107        3.294        3.284        2.999        3.295        2.995        3.208        3.250        3.088        3.078        2.524        2.469        2.584        2.518        0.495        1.000        0.000        1.000        1.000        1.000        1.000        0.000        0.000        1.000        0.000        0.000        0.000        0.000        0.000        0.000        0.000        0.000        0.000        0.000        0.000        0.000        0.000        0.000        0.000        1.000        3.000        2.000        0.000        0.000        5.000        0.000        0.000        0.000        0.000        0.000      100.000        0.000        0.000        1.876        1.896        4.434
     890.000  -260160.594    25647.660    15184.568    43992.277       82.554  -393128.818    48061.165       26.162       26.269        3.061        3.204        3.088        3.224        3.244        3.005        3.296        3.005        3.160        3.241        3.126        3.108        2.536        2.451        2.606        2.525        0.500        1.000        0.000        1.000        1.000        1.000        1.000        0.000        0.000        1.000        0.000        0.000        0.000        0.000        1.000        0.000        0.000        0.000        0.000        0.000        0.000        0.000        0.000        0.000        0.000        2.000        0.000        0.000        0.000        0.000        6.000        0.000        0.000        0.000        0.000        0.000      100.000        0.000        0.000        1.904        1.912        4.341
     900.000  -259662.876    26165.063    15552.510    43876.697       86.900  -391974.550    46630.504       25.981       26.313        3.112        3.262        3.074        3.280        3.259        3.020        3.294        3.092        3.177        3.250        3.134        3.088        2.501        2.493        2.585        2.511        0.507        1.000        0.000        1.000        1.000        1.000        1.000        0.000        0.000        0.000        0.000        0.000        0.000        0.000        0.000        1.000        0.000        0.000        0.000        0.000        0.000        0.000        0.000        0.000        0.000        0.000        0.000        1.000        0.000        0.000        5.000        1.000        0.000        0.000        0.000        0.000      100.000        0.000        0.000        1.701        1.702        4.253
     910.000  -259839.159    26576.858    15443.115    44011.347      112.131  -391741.749    45759.139       25.991       26.291        3.051        3.288        3.150        3.283        3.260        3.053        3.273        3.097        3.179        3.199        3.114        3.040        2.570        2.492        2.669        2.546        0.464        1.000        0.000        1.000        1.000        1.000        1.000        0.000        0.000        0.000        0.000        0.000        0.000        0.000        2.000        1.000        0.000        0.000        0.000        0.000        0.000        0.000        0.000        0.000        0.000        2.000        0.000        1.000        0.000        0.000        6.000        0.000        0.000        0.000        0.000        0.000      100.000        0.000        0.000        1.782        1.778        4.295
     920.000  -260355.299    26668.546    15477.187    43809.984      100.475  -393475.253    47063.762       26.129       26.250        3.107        3.239        3.145        3.229        3.283        3.058        3.276        3.091        3.159        3.214        3.146        3.084        2.512        2.512        2.637        2.497        0.500        1.000        0.000        0.000        1.000        2.000        1.000        0.000        0.000        0.000        0.000        2.000        0.000        0.000        1.000        0.000        0.000        0.000        0.000        0.000        0.000        0.000        0.000        0.000        0.000        0.000        0.000        0.000        1.000        0.000        5.000        0.000        0.000        0.000        0.000        0.000      100.000        0.000        0.000        2.006        1.984        4.595
     930.000  -259336.702    26670.992    15486.147    43694.145       72.064  -391342.877    46082.826       25.843       25.761        3.101        3.215        3.088        3.265        3.282        3.053        3.224        3.067        3.138        3.216        3.111        3.170        2.538        2.496        2.657        2.603        0.485        0.000        0.000        1.000        1.000        1.000        1.000        0.000        0.000        1.000        0.000        1.000        0.000        0.000        1.000        0.000        0.000        0.000        0.000        0.000        0.000        0.000        0.000        0.000        0.000        1.000        0.000        0.000        0.000        0.000        3.000        0.000        0.000        0.000        0.000        0.000      100.000        0.000        0.000        2.133        2.139        4.734
     940.000  -260097.432    25651.850    15658.180    43872.197      100.949  -393076.364    47695.756       25.857       26.141        3.091        3.261        3.122        3.235        3.245        3.012        3.228        3.005        3.127        3.203        3.119        3.093        2.557        2.527        2.681        2.557        0.490        2.000        0.000        0.000        1.000        1.000        1.000        0.000        0.000        1.000        0.000        0.000        0.000        0.000        0.000        0.000        0.000        0.000        0.000        0.000        0.000        0.000        0.000        0.000        0.000        2.000        1.000        1.000        0.000        0.000        2.000        1.000        0.000        0.000        0.000        0.000      100.000        0.000        0.000        2.370        2.381        4.972
     950.000  -260951.891    24915.938    15480.803    43865.248       79.768  -394438.991    49145.344       26.025       25.971        3.138        3.246        3.173        3.228        3.250        3.007        3.236        3.082        3.133        3.266        3.140        3.051        2.528        2.559        2.659        2.509        0.493        1.000        0.000        1.000        1.000        1.000        1.000        0.000        0.000        1.000        0.000        0.000        0.000        0.000        1.000        0.000        0.000        0.000        0.000        0.000        0.000        0.000        0.000        0.000        0.000        2.000        0.000        0.000        0.000        0.000        4.000        0.000        0.000        0.000        0.000        0.000      100.000        0.000        0.000        2.261        2.271        4.842
     960.000  -260090.900    26515.536    15796.799    43778.296       88.456  -393080.812    46810.824       26.026       26.070        3.050        3.273        3.161        3.285        3.250        3.029        3.307        3.075        3.210        3.235        3.156        3.060        2.522        2.581        2.645        2.577        0.489        0.000        0.000        1.000        1.000        1.000        1.000        0.000        0.000        1.000        0.000        0.000        0.000        0.000        0.000        0.000        0.000        0.000        0.000        0.000        0.000        0.000        0.000        0.000        0.000        2.000        0.000        0.000        0.000        0.000        3.000        1.000        0.000        0.000        0.000        0.000      100.000        0.000        0.000        1.992        2.020        4.628
     970.000  -260611.217    26416.116    15953.138    43653.841       89.859  -394230.235    47506.065       26.265       25.816        3.103        3.232        3.160        3.246        3.282        3.049        3.264        2.991        3.185        3.241        3.076        3.034        2.538        2.528        2.670        2.620        0.488        1.000        0.000        1.000        1.000        0.000        2.000        0.000        0.000        0.000        0.000        0.000        0.000        1.000        1.000        0.000        0.000        0.000        0.000        0.000        0.000        0.000        0.000        0.000        0.000        2.000        1.000        0.000        0.000        0.000        3.000        1.000        0.000        0.000        4.494        0.000       95.506        0.000        0.000        2.169        2.209        4.848
     980.000  -260182.194    25993.861    15220.961    43674.941       77.481  -393664.232    48514.793       27.028       25.728        3.113        3.220        3.085        3.266        3.299        3.021        3.245        3.105        3.144        3.230        3.068        3.063        2.473        2.554        2.632        2.592        0.489        2.000        0.000        1.000        1.000        1.000        2.000        0.000        0.000        0.000        0.000        0.000        0.000        0.000        0.000        0.000        0.000        0.000        0.000        0.000        0.000        0.000        0.000        0.000        0.000        2.000        1.000        1.000        1.000        0.000        2.000        1.000        0.000        0.000        0.000        0.000      100.000        0.000        0.000        2.441        2.474        5.153
     990.000  -259930.807    26064.251    15503.704    43710.734       88.720  -393616.480    48318.263       26.269       25.836        2.946        3.213        3.159        3.293        3.280        3.064        3.207        3.126        3.179        3.213        3.121        3.089        2.513        2.547        2.682        2.576        0.489        1.000        0.000        0.000        1.000        1.000        2.000        0.000        0.000        0.000        0.000        2.000        0.000        0.000        1.000        0.000        0.000        0.000        0.000        0.000        0.000        0.000        0.000        0.000        0.000        2.000        2.000        0.000        0.000        0.000        2.000        0.000        0.000        0.000        0.000        0.000      100.000        0.000        0.000        2.333        2.363        5.208
    1000.000  -260632.592    26646.462    15170.926    43747.590       95.791  -393220.801    46927.440       26.505       25.544        7.752        3.235        3.138        3.230        3.291        3.030        3.244        3.090        3.198        3.200        3.112        3.037        2.472        2.559        2.620        2.535        0.478        2.000        0.000        1.000        1.000        1.000        1.000        0.000        0.000        1.000        0.000        2.000        0.000        0.000        1.000        0.000        0.000        0.000        0.000        0.000        0.000        0.000        0.000        0.000        0.000        0.000        0.000        0.000        0.000        0.000        4.000        0.000        0.000        0.000        0.000        0.000      100.000        0.000        0.000        2.672        2.715        5.601
     Average  -262021.060    26351.283    15608.944    43774.569       86.851  -396337.343    48494.637       25.997       26.033        3.020        3.080        3.132        3.254        3.252        3.013        3.231        3.032        3.183        3.235        3.139        3.094        2.522        2.519        2.631        2.538        0.488        1.584        0.109        0.782        1.129        0.960        1.465        0.188        0.000        0.505        0.149        0.317        0.347        0.089        0.822        0.545        0.000        0.000        0.000        0.000        0.000        0.000        0.000        0.000        0.000        1.822        0.990        0.693        0.693        0.267        4.861        0.356        0.000        0.000        0.178        0.000       99.822        0.000        0.000        1.983        1.992        3.183

