____Time[ps] Energy[ kJ/mol ]_____Bond _______Angle ____Dihedral ___Planarity _____Coulomb _________VdW _Your result _Your result _Your result _Your result _Your result _Your result _Your result _Your result _Your result _Your result _Your result _Your result _Your result _Your result _Your result _Your result _Your result _Your result _Your result _Your result _Your result _Your result _Your result _Your result _Your result _Your result _Your result _Your result _Your result _Your result _Your result _Your result _Your result _Your result _Your result _Your result _Your result _Your result _Your result _Your result _Your result _Your result _Your result _Your result _Your result _Your result _Your result _Your result _Your result _Your result _Your result _Your result _Your result _Your result _Your result _Your result _Your result _RMSDs[A]:CA ____Backbone __HeavyAtoms
       0.000  -333091.076     9344.673     4823.838    43686.257       13.867  -456195.153    65235.442       25.439       25.277        3.016        3.006        3.130        3.197        3.163        3.068        2.688        2.548        2.634        2.617        2.553        2.541        3.016        3.011        3.146        2.892        0.488        1.000        0.000        1.000        0.000        1.000        5.000        0.000        0.000        0.000        0.000        0.000        0.000        0.000        2.000        0.000        0.000        0.000        0.000        0.000        0.000        0.000        0.000        0.000        0.000        1.000        0.000        0.000        1.000        1.000       10.000        0.000        0.000        0.000        0.000        0.000      100.000        0.000        0.000        0.471        0.503        0.684
      10.000  -249660.871    29621.531    14832.423    43551.287       71.093  -385217.031    47479.825       26.026       25.854        2.969        3.017        3.163        3.226        3.200        3.047        2.706        2.530        2.661        2.696        2.520        2.500        3.050        2.972        3.158        2.952        0.486        2.000        0.000        1.000        0.000        0.000        4.000        0.000        0.000        1.000        0.000        0.000        0.000        0.000        1.000        1.000        0.000        0.000        0.000        0.000        0.000        0.000        0.000        0.000        0.000        2.000        0.000        1.000        1.000        0.000        5.000        0.000        0.000        0.000        0.000        0.000      100.000        0.000        0.000        1.079        1.095        1.284
      20.000  -249424.725    28432.074    15248.833    43561.507       98.920  -383604.472    46838.413       26.178       25.980        3.085        3.013        3.127        3.235        3.161        3.064        2.698        2.492        2.649        2.620        2.661        2.550        3.060        2.960        3.057        2.900        0.509        0.000        0.000        1.000        0.000        1.000        6.000        0.000        0.000        1.000        1.000        0.000        0.000        0.000        0.000        0.000        0.000        0.000        0.000        0.000        0.000        0.000        0.000        0.000        0.000        1.000        1.000        1.000        0.000        2.000        6.000        1.000        0.000        0.000        0.000        0.000      100.000        0.000        0.000        1.231        1.243        1.488
      30.000  -249575.500    26650.632    15622.974    43331.127       76.544  -383612.343    48355.565       26.299       26.195        3.062        3.024        3.160        3.152        3.183        3.003        2.665        2.549        2.635        2.601        2.649        2.564        3.063        3.019        3.110        2.908        0.484        1.000        0.000        1.000        0.000        0.000        6.000        0.000        0.000        2.000        1.000        0.000        0.000        0.000        1.000        1.000        0.000        0.000        0.000        0.000        0.000        0.000        0.000        0.000        0.000        1.000        0.000        1.000        1.000        0.000        6.000        1.000        0.000        0.000        0.000        0.000      100.000        0.000        0.000        1.429        1.430        1.694
      40.000  -248533.428    27492.248    15282.006    43285.113       87.006  -383542.575    48862.775       26.059       25.932        2.996        2.982        3.163        3.189        3.167        3.093        2.690        2.543        2.628        2.571        2.638        2.527        3.103        3.053        3.097        2.925        0.495        1.000        0.000        1.000        0.000        0.000        5.000        0.000        0.000        0.000        0.000        0.000        0.000        0.000        1.000        1.000        0.000        0.000        0.000        0.000        0.000        0.000        0.000        0.000        0.000        3.000        1.000        1.000        2.000        0.000        5.000        0.000        0.000        0.000        0.000        0.000      100.000        0.000        0.000        1.175        1.226        1.622
      50.000  -248348.699    26664.117    15585.601    43339.105       86.422  -381775.763    47751.818       25.998       25.946        3.092        2.999        3.236        3.226        3.172        3.071        2.643        2.568        2.590        2.628        2.681        2.550        3.102        3.064        3.116        2.997        0.477        0.000        0.000        1.000        0.000        2.000        4.000        0.000        0.000        0.000        0.000        0.000        0.000        0.000        1.000        0.000        0.000        0.000        0.000        0.000        0.000        0.000        0.000        0.000        0.000        2.000        1.000        1.000        1.000        0.000        5.000        0.000        0.000        0.000        0.000        0.000      100.000        0.000        0.000        1.239        1.258        1.775
      60.000  -247503.860    27565.857    15473.167    43329.390       76.245  -380549.396    46600.876       26.207       26.173        3.155        3.081        3.127        3.160        3.129        3.037        2.681        2.520        2.635        2.575        2.709        2.542        3.092        3.007        3.212        2.998        0.469        1.000        0.000        1.000        0.000        2.000        1.000        0.000        0.000        0.000        0.000        0.000        0.000        0.000        0.000        1.000        0.000        0.000        0.000        0.000        0.000        0.000        0.000        0.000        0.000        0.000        1.000        1.000        0.000        1.000       10.000        0.000        0.000        0.000        0.000        0.000      100.000        0.000        0.000        1.295        1.339        1.796
      70.000  -247745.596    28012.351    15297.956    43416.620       62.714  -380469.252    45934.014       25.889       26.188        3.098        3.081        3.122        3.213        3.174        3.104        2.672        2.537        2.689        2.678        2.726        2.566        3.100        3.049        3.182        2.893        0.474        1.000        0.000        1.000        0.000        1.000        1.000        0.000        0.000        2.000        0.000        0.000        0.000        0.000        0.000        1.000        0.000        0.000        0.000        0.000        0.000        0.000        0.000        0.000        0.000        3.000        1.000        1.000        1.000        0.000       13.000        1.000        0.000        0.000        0.000        0.000      100.000        0.000        0.000        1.227        1.258        1.727
      80.000  -247620.237    26221.939    15163.805    43391.015       76.974  -379649.273    47175.303       25.950       26.259        2.995        3.002        3.110        3.209        3.210        3.080        2.673        2.565        2.687        2.645        2.659        2.476        3.066        2.992        3.179        2.806        0.494        0.000        0.000        1.000        0.000        0.000        1.000        0.000        0.000        0.000        0.000        0.000        0.000        0.000        0.000        0.000        0.000        0.000        0.000        0.000        0.000        0.000        0.000        0.000        0.000        2.000        1.000        1.000        1.000        1.000       14.000        0.000        0.000        0.000        0.000        0.000      100.000        0.000        0.000        1.374        1.377        1.923
      90.000  -247270.663    25624.180    15550.362    43381.632       81.968  -379233.224    47324.420       25.935       26.402        3.015        3.084        3.136        3.168        3.218        3.151        2.658        2.589        2.669        2.635        2.681        2.527        3.151        2.974        3.207        2.911        0.501        0.000        0.000        1.000        0.000        1.000        2.000        0.000        0.000        0.000        0.000        0.000        0.000        0.000        0.000        0.000        0.000        0.000        0.000        0.000        0.000        0.000        0.000        0.000        0.000        3.000        0.000        1.000        3.000        1.000       14.000        0.000        0.000        0.000        0.000        0.000      100.000        0.000        0.000        1.451        1.473        1.994
     100.000  -246566.036    25652.092    15249.625    43396.824       73.695  -378170.019    47231.747       25.854       26.313        3.056        3.075        3.144        3.154        3.208        3.049        2.642        2.517        2.671        2.603        2.728        2.481        3.059        2.986        3.219        2.857        0.478        1.000        0.000        1.000        0.000        0.000        2.000        0.000        0.000        1.000        0.000        0.000        0.000        0.000        0.000        1.000        0.000        0.000        0.000        0.000        0.000        0.000        0.000        0.000        0.000        4.000        0.000        0.000        1.000        2.000       13.000        0.000        0.000        0.000        0.000        0.000      100.000        0.000        0.000        1.318        1.337        2.018
     110.000  -246731.770    27183.630    15376.897    43374.179       99.624  -377740.123    44974.022       26.033       26.241        3.075        3.051        3.184        3.261        3.221        3.079        2.698        2.566        2.573        2.590        2.711        2.549        3.061        3.005        3.190        2.913        0.467        1.000        0.000        1.000        0.000        0.000        4.000        0.000        0.000        1.000        0.000        0.000        0.000        0.000        0.000        0.000        0.000        0.000        0.000        0.000        0.000        0.000        0.000        0.000        0.000        2.000        0.000        1.000        0.000        0.000       15.000        1.000        0.000        0.000        0.000        0.000      100.000        0.000        0.000        1.341        1.369        2.075
     120.000  -245468.935    26093.719    15039.150    43465.854       81.489  -376281.433    46132.286       25.862       25.998        3.076        3.118        3.192        3.254        3.195        3.097        2.688        2.513        2.625        2.631        2.703        2.511        3.112        3.060        3.172        2.874        0.493        1.000        0.000        1.000        0.000        0.000        3.000        0.000        0.000        1.000        0.000        0.000        0.000        0.000        0.000        2.000        0.000        0.000        0.000        0.000        0.000        0.000        0.000        0.000        0.000        2.000        0.000        2.000        2.000        2.000        6.000        0.000        0.000        0.000        0.000        0.000      100.000        0.000        0.000        1.380        1.377        2.249
     130.000  -246768.775    26407.297    14816.928    43531.911       79.162  -377133.410    45529.337       25.967       26.025        3.089        3.030        3.197        3.236        3.224        2.984        2.663        2.561        2.610        2.638        2.694        2.520        3.104        3.003        3.260        2.994        0.494        1.000        0.000        1.000        0.000        0.000        1.000        0.000        0.000        0.000        0.000        0.000        0.000        0.000        0.000        1.000        0.000        0.000        0.000        0.000        0.000        0.000        0.000        0.000        0.000        1.000        1.000        1.000        0.000        1.000       12.000        1.000        0.000        0.000        0.000        0.000      100.000        0.000        0.000        1.425        1.428        2.322
     140.000  -246081.085    26886.346    15197.564    43427.394       90.642  -376274.638    44591.607       25.823       25.966        3.094        3.072        3.139        3.233        3.178        3.091        2.672        2.591        2.598        2.629        2.712        2.550        3.164        3.047        3.210        2.963        0.483        1.000        0.000        1.000        0.000        0.000        2.000        0.000        0.000        1.000        0.000        0.000        0.000        0.000        0.000        1.000        0.000        0.000        0.000        0.000        0.000        0.000        0.000        0.000        0.000        1.000        2.000        0.000        0.000        1.000       13.000        1.000        0.000        0.000        4.494        0.000       95.506        0.000        0.000        1.316        1.325        2.088
     150.000  -246659.671    25885.601    14954.337    43558.190       89.200  -377599.690    46452.691       25.888       25.996        3.044        3.024        3.215        3.190        3.194        2.997        2.660        2.574        2.674        2.620        2.680        2.481        3.088        3.021        3.175        3.006        0.474        1.000        0.000        0.000        0.000        0.000        3.000        0.000        0.000        1.000        0.000        0.000        0.000        0.000        0.000        0.000        0.000        0.000        0.000        0.000        0.000        0.000        0.000        0.000        0.000        2.000        0.000        1.000        1.000        2.000       12.000        0.000        0.000        0.000        0.000        0.000      100.000        0.000        0.000        1.442        1.470        2.199
     160.000  -244753.156    25476.726    15059.267    43742.649       92.016  -372633.209    43509.395       25.764       25.775        3.124        2.918        3.179        3.181        3.138        3.013        2.614        2.462        2.668        2.652        2.662        2.569        3.145        3.034        3.169        3.027        0.474        1.000        0.000        1.000        0.000        0.000        3.000        0.000        0.000        1.000        0.000        0.000        0.000        0.000        0.000        1.000        0.000        0.000        0.000        0.000        0.000        0.000        0.000        0.000        0.000        1.000        0.000        0.000        2.000        2.000        8.000        2.000        0.000        0.000        0.000        0.000      100.000        0.000        0.000        1.712        1.740        2.395
     170.000  -245619.767    24985.806    14794.406    43686.244       77.076  -373783.900    44620.601       26.077       25.875        3.182        2.938        3.147        3.238        3.172        3.004        2.633        2.546        2.664        2.628        2.669        2.506        3.119        3.049        3.109        2.950        0.480        1.000        0.000        1.000        0.000        0.000        2.000        0.000        0.000        0.000        0.000        0.000        0.000        0.000        0.000        0.000        0.000        0.000        0.000        0.000        0.000        0.000        0.000        0.000        0.000        1.000        3.000        0.000        1.000        0.000       10.000        0.000        0.000        0.000        0.000        0.000      100.000        0.000        0.000        2.016        2.057        2.551
     180.000  -245717.950    25266.184    14760.152    43281.576       77.020  -375013.421    45910.539       25.842       26.013        3.118        2.974        3.229        3.229        3.218        2.979        2.684        2.546        2.693        2.697        2.664        2.504        3.159        2.997        3.158        2.938        0.467        1.000        0.000        1.000        0.000        0.000        2.000        0.000        0.000        1.000        0.000        0.000        0.000        0.000        1.000        0.000        0.000        0.000        0.000        0.000        0.000        0.000        0.000        0.000        0.000        2.000        2.000        0.000        0.000        0.000       12.000        1.000        0.000        0.000        0.000        0.000      100.000        0.000        0.000        1.994        2.054        2.453
     190.000  -245144.777    25988.886    14973.171    43430.579       91.097  -373172.490    43543.981       25.557       25.797        3.034        3.025        3.082        3.278        3.221        3.063        2.671        2.563        2.658        2.687        2.656        2.536        3.109        3.048        3.221        2.936        0.490        1.000        0.000        1.000        0.000        0.000        2.000        0.000        0.000        0.000        0.000        0.000        0.000        0.000        0.000        0.000        0.000        0.000        0.000        0.000        0.000        0.000        0.000        0.000        0.000        1.000        1.000        1.000        0.000        1.000        8.000        0.000        0.000        0.000        0.000        0.000      100.000        0.000        0.000        1.856        1.898        2.419
     200.000  -245144.341    26075.721    14754.895    43238.739       78.232  -372598.776    43306.848       25.768       25.980        3.054        2.914        3.188        3.239        3.228        2.976        2.721        2.533        2.665        2.681        2.608        2.534        3.112        2.980        3.197        2.968        0.480        1.000        0.000        1.000        0.000        0.000        2.000        0.000        0.000        1.000        0.000        0.000        0.000        0.000        0.000        1.000        0.000        0.000        0.000        0.000        0.000        0.000        0.000        0.000        0.000        4.000        1.000        0.000        0.000        2.000       11.000        1.000        0.000        0.000        0.000        0.000      100.000        0.000        0.000        2.053        2.085        2.659
     210.000  -244619.774    24593.941    14729.888    43523.329       65.664  -373293.924    45761.328       25.675       25.839        3.076        2.983        3.224        3.255        3.186        3.072        2.701        2.572        2.674        2.650        2.607        2.512        3.106        2.997        3.225        2.896        0.486        1.000        0.000        1.000        0.000        1.000        1.000        0.000        0.000        1.000        0.000        0.000        0.000        0.000        1.000        0.000        0.000        0.000        0.000        0.000        0.000        0.000        0.000        0.000        0.000        4.000        0.000        0.000        0.000        1.000       12.000        2.000        0.000        0.000        0.000        0.000      100.000        0.000        0.000        2.436        2.482        2.969
     220.000  -244897.310    25509.982    14975.167    43514.728      107.015  -373535.693    44531.492       25.488       25.724        3.036        2.918        3.205        3.225        3.161        3.065        2.675        2.528        2.685        2.645        2.673        2.545        3.093        3.072        3.160        2.946        0.485        1.000        0.000        1.000        0.000        0.000        2.000        0.000        0.000        0.000        0.000        0.000        0.000        0.000        1.000        0.000        0.000        0.000        0.000        0.000        0.000        0.000        0.000        0.000        0.000        2.000        0.000        0.000        1.000        0.000        9.000        1.000        0.000        0.000        0.000        0.000      100.000        0.000        0.000        2.231        2.238        2.827
     230.000  -244346.831    25074.037    14667.938    43534.594       72.562  -372036.288    44340.326       25.264       25.551        3.125        2.893        3.077        3.244        3.167        3.069        2.636        2.523        2.672        2.702        2.652        2.519        3.117        3.000        3.120        2.961        0.501        1.000        0.000        1.000        0.000        1.000        2.000        0.000        0.000        0.000        0.000        0.000        0.000        0.000        1.000        1.000        0.000        0.000        0.000        0.000        0.000        0.000        0.000        0.000        0.000        1.000        2.000        2.000        0.000        1.000       11.000        1.000        0.000        0.000        0.000        0.000      100.000        0.000        0.000        2.481        2.510        2.978
     240.000  -244535.300    25029.094    14822.217    43396.836       66.538  -371828.054    43978.068       25.913       25.818        3.024        2.968        3.172        3.281        3.238        3.118        2.679        2.573        2.634        2.620        2.601        2.490        3.133        3.036        3.080        2.957        0.469        1.000        0.000        1.000        0.000        0.000        2.000        0.000        0.000        1.000        0.000        0.000        0.000        0.000        0.000        1.000        0.000        0.000        0.000        0.000        0.000        0.000        0.000        0.000        0.000        0.000        1.000        0.000        0.000        1.000        7.000        1.000        0.000        0.000        0.000        0.000      100.000        0.000        0.000        2.539        2.568        2.951
     250.000  -245466.825    25129.362    14940.977    43431.116       91.422  -374073.564    45013.861       26.175       26.065        2.997        2.972        3.169        3.290        3.168        3.091        2.690        2.550        2.684        2.613        2.652        2.503        3.077        2.981        3.066        2.946        0.489        1.000        0.000        1.000        0.000        0.000        2.000        0.000        0.000        1.000        0.000        0.000        0.000        0.000        0.000        1.000        0.000        0.000        0.000        0.000        0.000        0.000        0.000        0.000        0.000        1.000        1.000        0.000        0.000        0.000        8.000        1.000        0.000        0.000        0.000        0.000      100.000        0.000        0.000        1.959        1.986        2.538
     260.000  -244797.425    24484.912    14671.564    43755.925       88.901  -374064.318    46265.591       25.585       25.669        3.063        2.992        3.137        3.254        3.176        3.060        2.648        2.588        2.663        2.611        2.658        2.517        3.029        2.973        3.125        2.983        0.503        1.000        0.000        1.000        0.000        0.000        3.000        0.000        0.000        0.000        0.000        0.000        0.000        0.000        1.000        1.000        0.000        0.000        0.000        0.000        0.000        0.000        0.000        0.000        0.000        0.000        0.000        0.000        0.000        2.000        7.000        1.000        0.000        0.000        0.000        0.000      100.000        0.000        0.000        2.161        2.186        2.759
     270.000  -244395.730    25516.170    14719.246    43575.074       93.368  -371810.896    43511.308       25.867       25.756        3.019        2.841        3.193        3.240        3.171        3.003        2.671        2.492        2.671        2.553        2.638        2.405        3.125        3.052        3.194        3.026        0.475        1.000        0.000        1.000        0.000        0.000        2.000        0.000        0.000        1.000        0.000        0.000        0.000        0.000        0.000        1.000        0.000        0.000        0.000        0.000        0.000        0.000        0.000        0.000        0.000        1.000        0.000        1.000        0.000        0.000        7.000        2.000        0.000        0.000        0.000        0.000      100.000        0.000        0.000        2.263        2.295        2.840
     280.000  -243690.035    24066.226    14699.102    43676.615      100.009  -370722.908    44490.921       25.797       25.530        3.116        2.910        3.195        3.192        3.155        2.997        2.691        2.564        2.630        2.609        2.647        2.414        3.120        2.990        3.157        2.981        0.495        1.000        0.000        1.000        0.000        0.000        3.000        0.000        0.000        0.000        0.000        0.000        0.000        0.000        0.000        0.000        0.000        0.000        0.000        0.000        0.000        0.000        0.000        0.000        0.000        2.000        0.000        0.000        0.000        1.000        6.000        1.000        0.000        0.000        0.000        0.000      100.000        0.000        0.000        2.400        2.444        2.896
     290.000  -243436.298    25251.701    14772.736    43419.690       90.958  -369820.263    42848.879       25.805       25.792        3.011        3.027        3.137        3.228        3.241        3.012        2.684        2.558        2.662        2.610        2.654        2.421        3.093        2.988        3.125        3.012        0.477        0.000        0.000        1.000        0.000        0.000        1.000        0.000        0.000        1.000        0.000        0.000        0.000        0.000        0.000        0.000        0.000        0.000        0.000        0.000        0.000        0.000        0.000        0.000        0.000        2.000        0.000        0.000        0.000        0.000        7.000        1.000        0.000        0.000        0.000        0.000      100.000        0.000        0.000        2.067        2.087        2.694
     300.000  -243154.069    23772.585    14706.698    43668.530       85.562  -371804.448    46417.004       25.454       25.325        3.052        3.147        3.144        3.166        3.252        2.930        2.678        2.545        2.682        2.613        2.648        2.450        3.065        2.984        3.181        3.021        0.489        1.000        0.000        1.000        0.000        0.000        1.000        0.000        0.000        0.000        1.000        0.000        0.000        0.000        1.000        1.000        0.000        0.000        0.000        0.000        0.000        0.000        0.000        0.000        0.000        1.000        0.000        0.000        0.000        0.000        9.000        1.000        0.000        0.000        0.000        0.000      100.000        0.000        0.000        1.621        1.605        2.378
     310.000  -244414.325    24418.657    14947.214    43420.742       99.225  -373164.238    45864.076       25.731       25.733        3.065        3.129        3.180        3.228        3.185        3.054        2.681        2.513        2.709        2.650        2.668        2.466        3.098        2.987        3.192        2.951        0.470        1.000        0.000        1.000        0.000        0.000        3.000        0.000        0.000        0.000        0.000        0.000        0.000        0.000        1.000        1.000        0.000        0.000        0.000        0.000        0.000        0.000        0.000        0.000        0.000        1.000        0.000        0.000        0.000        0.000       12.000        1.000        0.000        0.000        0.000        0.000      100.000        0.000        0.000        1.720        1.743        2.451
     320.000  -244764.724    24838.258    14703.399    43609.848       72.515  -371443.451    43454.707       26.075       25.877        3.058        3.113        3.179        3.179        3.218        3.037        2.690        2.558        2.682        2.689        2.629        2.514        3.135        2.979        3.202        2.989        0.468        1.000        0.000        1.000        0.000        0.000        2.000        0.000        0.000        0.000        0.000        0.000        0.000        0.000        1.000        0.000        0.000        0.000        0.000        0.000        0.000        0.000        0.000        0.000        0.000        2.000        1.000        1.000        0.000        0.000        7.000        0.000        0.000        0.000        0.000        0.000      100.000        0.000        0.000        1.755        1.790        2.534
     330.000  -244119.207    24745.304    14662.526    43553.388       78.517  -371914.964    44756.020       25.775       25.561        3.103        3.098        3.143        3.254        3.185        3.073        2.609        2.464        2.680        2.700        2.651        2.522        3.122        2.957        3.153        3.084        0.499        0.000        0.000        1.000        0.000        0.000        2.000        0.000        0.000        0.000        0.000        0.000        0.000        0.000        0.000        0.000        0.000        0.000        0.000        0.000        0.000        0.000        0.000        0.000        0.000        1.000        0.000        0.000        0.000        0.000       10.000        1.000        0.000        0.000        0.000        0.000      100.000        0.000        0.000        1.699        1.737        2.427
     340.000  -243818.880    24855.770    14542.292    43520.236       67.701  -370241.014    43436.133       25.626       25.424        3.009        3.093        3.195        3.218        3.173        3.042        2.650        2.528        2.656        2.655        2.670        2.549        3.114        2.935        3.145        2.975        0.487        0.000        0.000        1.000        0.000        0.000        2.000        0.000        0.000        0.000        0.000        0.000        0.000        0.000        1.000        1.000        0.000        0.000        0.000        0.000        0.000        0.000        0.000        0.000        0.000        1.000        0.000        1.000        0.000        1.000        7.000        1.000        0.000        0.000        0.000        0.000      100.000        0.000        0.000        2.550        2.597        3.017
     350.000  -243746.029    24779.541    14560.187    43445.527       75.770  -370250.849    43643.795       25.992       25.629        2.993        3.105        3.226        3.222        3.219        3.110        2.672        2.581        2.656        2.607        2.674        2.483        3.143        2.885        3.151        3.022        0.482        1.000        0.000        0.000        0.000        0.000        1.000        0.000        0.000        0.000        1.000        0.000        0.000        0.000        0.000        0.000        0.000        0.000        0.000        0.000        0.000        0.000        0.000        0.000        0.000        0.000        0.000        0.000        0.000        0.000       11.000        1.000        0.000        0.000        0.000        0.000      100.000        0.000        0.000        2.467        2.504        2.945
     360.000  -244110.975    24913.611    14772.098    43715.965       92.743  -370433.991    42828.600       25.608       25.537        3.084        3.121        3.157        3.224        3.227        3.033        2.688        2.468        2.696        2.655        2.637        2.484        3.180        2.962        3.153        3.008        0.506        0.000        0.000        1.000        0.000        0.000        2.000        0.000        0.000        0.000        1.000        0.000        0.000        0.000        0.000        0.000        0.000        0.000        0.000        0.000        0.000        0.000        0.000        0.000        0.000        5.000        1.000        0.000        0.000        0.000       12.000        1.000        0.000        0.000        0.000        0.000      100.000        0.000        0.000        2.467        2.510        2.919
     370.000  -243814.624    24817.835    14694.494    43520.216       87.979  -371145.381    44210.233       25.556       25.576        3.087        3.120        3.109        3.190        3.204        3.111        2.719        2.477        2.667        2.691        2.614        2.467        3.139        2.997        3.205        3.022        0.485        1.000        0.000        1.000        0.000        0.000        1.000        0.000        0.000        0.000        1.000        0.000        0.000        0.000        0.000        0.000        0.000        0.000        0.000        0.000        0.000        0.000        0.000        0.000        0.000        3.000        2.000        0.000        0.000        0.000       12.000        1.000        0.000        0.000        0.000        0.000      100.000        0.000        0.000        2.290        2.308        2.908
     380.000  -244341.863    25024.747    14347.146    43582.442       94.228  -371058.644    43668.216       25.696       25.587        2.979        3.162        3.103        3.183        3.216        3.049        2.648        2.469        2.668        2.662        2.606        2.505        3.090        3.007        3.239        3.019        0.492        0.000        0.000        1.000        0.000        0.000        2.000        0.000        0.000        0.000        0.000        2.000        0.000        0.000        0.000        1.000        0.000        0.000        0.000        0.000        0.000        0.000        0.000        0.000        0.000        2.000        0.000        1.000        0.000        0.000        9.000        1.000        0.000        0.000        0.000        0.000      100.000        0.000        0.000        2.254        2.271        2.968
     390.000  -243800.436    25434.886    14661.166    43791.226       80.872  -371070.682    43302.096       25.572       25.629        3.010        3.184        3.157        3.285        3.235        3.035        2.672        2.461        2.674        2.644        2.661        2.483        3.064        3.004        3.244        2.994        0.493        1.000        0.000        1.000        0.000        0.000        2.000        0.000        0.000        0.000        0.000        0.000        0.000        0.000        1.000        1.000        0.000        0.000        0.000        0.000        0.000        0.000        0.000        0.000        0.000        2.000        0.000        0.000        0.000        0.000       11.000        0.000        0.000        0.000        4.494        0.000       95.506        0.000        0.000        1.867        1.888        2.613
     400.000  -243454.768    24534.199    14565.306    43644.082       83.947  -369748.690    43466.387       26.088       26.119        3.044        3.174        3.185        3.235        3.216        3.027        2.665        2.480        2.665        2.645        2.689        2.529        3.147        2.983        3.103        2.969        0.492        1.000        0.000        1.000        0.000        0.000        2.000        0.000        0.000        0.000        1.000        0.000        0.000        0.000        1.000        1.000        0.000        0.000        0.000        0.000        0.000        0.000        0.000        0.000        0.000        2.000        1.000        0.000        0.000        0.000        6.000        1.000        0.000        0.000        0.000        0.000      100.000        0.000        0.000        1.714        1.738        2.381
     410.000  -243595.177    24953.650    14693.940    43662.793       85.674  -371632.913    44641.678       25.992       26.055        2.986        3.108        3.178        3.261        3.159        3.049        2.714        2.480        2.611        2.707        2.659        2.548        3.143        2.984        3.100        3.030        0.504        1.000        0.000        1.000        0.000        0.000        1.000        0.000        0.000        1.000        1.000        1.000        0.000        0.000        0.000        1.000        0.000        0.000        0.000        0.000        0.000        0.000        0.000        0.000        0.000        1.000        1.000        1.000        0.000        0.000        5.000        1.000        0.000        0.000        0.000        0.000      100.000        0.000        0.000        1.648        1.678        2.345
     420.000  -244461.757    25173.438    14482.452    43335.321       73.499  -371475.655    43949.188       25.788       25.947        2.957        3.094        3.170        3.253        3.190        3.025        2.678        2.538        2.666        2.655        2.670        2.461        3.233        2.981        3.155        2.966        0.487        0.000        0.000        1.000        0.000        0.000        2.000        0.000        0.000        0.000        0.000        0.000        0.000        0.000        1.000        1.000        0.000        0.000        0.000        0.000        0.000        0.000        0.000        0.000        0.000        2.000        0.000        0.000        0.000        2.000       13.000        2.000        0.000        0.000        0.000        0.000      100.000        0.000        0.000        2.189        2.228        2.739
     430.000  -243662.149    24464.656    14686.577    43511.351      118.740  -370833.838    44390.366       25.866       25.889        3.086        3.035        3.176        3.247        3.173        3.050        2.693        2.519        2.654        2.653        2.631        2.547        3.108        2.986        3.149        3.025        0.476        1.000        0.000        1.000        0.000        0.000        2.000        0.000        0.000        1.000        0.000        0.000        0.000        0.000        0.000        0.000        0.000        0.000        0.000        0.000        0.000        0.000        0.000        0.000        0.000        2.000        0.000        0.000        0.000        0.000        5.000        1.000        0.000        0.000        0.000        0.000      100.000        0.000        0.000        2.257        2.272        2.748
     440.000  -244561.667    24627.951    14438.003    43327.252       94.582  -371483.922    44434.468       25.631       25.938        3.004        3.080        3.144        3.236        3.169        3.103        2.680        2.477        2.642        2.682        2.650        2.502        3.168        2.943        3.214        3.084        0.477        1.000        0.000        1.000        0.000        0.000        2.000        0.000        0.000        0.000        0.000        0.000        0.000        0.000        0.000        1.000        0.000        0.000        0.000        0.000        0.000        0.000        0.000        0.000        0.000        1.000        0.000        0.000        0.000        0.000       12.000        1.000        0.000        0.000        0.000        0.000      100.000        0.000        0.000        2.042        2.058        2.585
     450.000  -243480.779    24608.781    14592.316    43364.589       75.513  -369625.197    43503.220       25.973       26.208        3.059        3.022        3.250        3.193        3.203        3.076        2.703        2.510        2.640        2.694        2.698        2.511        3.082        2.972        3.189        2.972        0.482        1.000        0.000        1.000        0.000        0.000        2.000        0.000        0.000        1.000        0.000        0.000        0.000        0.000        1.000        0.000        0.000        0.000        0.000        0.000        0.000        0.000        0.000        0.000        0.000        4.000        0.000        0.000        0.000        0.000        9.000        1.000        0.000        0.000        0.000        0.000      100.000        0.000        0.000        2.085        2.137        2.565
     460.000  -243787.698    24561.778    14600.912    43587.807       81.468  -370693.434    44073.771       25.512       25.400        3.068        3.077        3.195        3.204        3.131        3.039        2.629        2.530        2.676        2.622        2.645        2.543        3.019        2.987        3.172        2.972        0.480        0.000        0.000        1.000        0.000        0.000        1.000        0.000        0.000        0.000        0.000        0.000        0.000        0.000        0.000        0.000        0.000        0.000        0.000        0.000        0.000        0.000        0.000        0.000        0.000        3.000        0.000        1.000        0.000        0.000       10.000        0.000        0.000        0.000        0.000        0.000      100.000        0.000        0.000        1.951        1.972        2.549
     470.000  -243170.392    23212.830    14617.727    43661.350       84.817  -370094.548    45347.431       25.816       25.827        3.031        3.082        3.169        3.226        3.181        2.991        2.721        2.458        2.668        2.640        2.658        2.461        3.062        2.936        3.093        2.961        0.492        1.000        0.000        1.000        0.000        0.000        2.000        0.000        0.000        0.000        0.000        0.000        0.000        0.000        2.000        0.000        0.000        0.000        0.000        0.000        0.000        0.000        0.000        0.000        0.000        1.000        0.000        0.000        0.000        0.000        8.000        0.000        0.000        0.000        0.000        0.000      100.000        0.000        0.000        1.432        1.442        2.266
     480.000  -243963.554    24748.074    14587.242    43852.096       74.011  -371284.626    44059.650       25.943       25.818        3.047        3.122        3.073        3.191        3.212        3.014        2.660        2.448        2.606        2.606        2.592        2.512        3.157        2.971        3.133        3.023        0.499        1.000        0.000        1.000        0.000        0.000        2.000        0.000        0.000        1.000        0.000        0.000        0.000        0.000        1.000        1.000        0.000        0.000        0.000        0.000        0.000        0.000        0.000        0.000        0.000        2.000        1.000        0.000        0.000        0.000        8.000        0.000        0.000        0.000        0.000        0.000      100.000        0.000        0.000        1.634        1.699        2.544
     490.000  -243603.233    24122.918    14467.538    43562.896       94.993  -370057.030    44205.452       25.452       25.573        2.945        3.059        3.130        3.151        3.196        3.054        2.666        2.567        2.653        2.642        2.693        2.478        3.095        2.941        3.154        2.924        0.491        1.000        0.000        1.000        0.000        0.000        2.000        0.000        0.000        0.000        0.000        0.000        0.000        0.000        0.000        0.000        0.000        0.000        0.000        0.000        0.000        0.000        0.000        0.000        0.000        0.000        1.000        2.000        0.000        0.000        4.000        0.000        0.000        0.000        0.000        0.000      100.000        0.000        0.000        1.885        1.933        2.622
     500.000  -243225.135    24523.424    14458.285    43459.563       88.366  -370109.786    44355.013       25.817       25.881        3.065        3.116        3.155        3.145        3.198        3.102        2.651        2.493        2.635        2.643        2.618        2.482        3.166        2.943        3.169        3.047        0.501        1.000        0.000        1.000        0.000        0.000        2.000        0.000        0.000        0.000        0.000        0.000        0.000        0.000        1.000        1.000        0.000        0.000        0.000        0.000        0.000        0.000        0.000        0.000        0.000        4.000        0.000        0.000        0.000        0.000        6.000        1.000        0.000        0.000        0.000        0.000      100.000        0.000        0.000        1.619        1.645        2.496
     510.000  -244152.003    24653.660    14797.767    43426.601       90.952  -370673.988    43553.005       25.888       25.824        2.992        3.005        3.179        3.199        3.198        2.902        2.682        2.467        2.650        2.644        2.652        2.456        3.136        2.996        3.257        3.055        0.480        1.000        0.000        1.000        0.000        0.000        2.000        0.000        0.000        0.000        0.000        0.000        0.000        0.000        1.000        1.000        0.000        0.000        0.000        0.000        0.000        0.000        0.000        0.000        0.000        0.000        0.000        0.000        0.000        0.000        1.000        0.000        0.000        0.000        0.000        0.000      100.000        0.000        0.000        1.504        1.521        2.427
     520.000  -243481.618    24416.202    14442.545    43383.023       83.988  -368813.239    43005.862       25.823       26.052        3.013        2.983        3.124        3.207        3.176        2.960        2.673        2.451        2.640        2.677        2.658        2.451        3.170        2.928        3.278        2.954        0.475        1.000        0.000        1.000        0.000        0.000        2.000        0.000        0.000        0.000        0.000        0.000        0.000        0.000        0.000        1.000        0.000        0.000        0.000        0.000        0.000        0.000        0.000        0.000        0.000        2.000        0.000        0.000        1.000        1.000        6.000        0.000        0.000        0.000        0.000        0.000      100.000        0.000        0.000        1.492        1.497        2.549
     530.000  -243136.953    24905.576    14416.062    43512.301      110.228  -369020.308    42939.188       25.847       25.997        3.130        2.942        3.139        3.176        3.271        3.077        2.701        2.491        2.680        2.650        2.643        2.477        3.063        2.995        3.226        2.892        0.479        1.000        0.000        1.000        0.000        0.000        2.000        0.000        0.000        1.000        0.000        0.000        0.000        0.000        1.000        0.000        0.000        0.000        0.000        0.000        0.000        0.000        0.000        0.000        0.000        2.000        0.000        0.000        0.000        0.000        6.000        0.000        0.000        0.000        0.000        0.000      100.000        0.000        0.000        1.511        1.518        2.546
     540.000  -243643.618    23484.438    14474.180    43479.000       85.048  -370477.748    45311.465       25.913       25.920        3.063        2.904        3.086        3.227        3.242        3.080        2.667        2.544        2.624        2.693        2.626        2.531        3.093        2.961        3.258        2.935        0.500        0.000        0.000        1.000        0.000        0.000        2.000        0.000        0.000        0.000        0.000        0.000        0.000        0.000        0.000        0.000        0.000        0.000        0.000        0.000        0.000        0.000        0.000        0.000        0.000        1.000        0.000        0.000        1.000        0.000        4.000        0.000        0.000        0.000        0.000        0.000      100.000        0.000        0.000        1.519        1.522        2.430
     550.000  -243724.925    24020.437    14532.786    43647.917       80.961  -370670.410    44663.384       25.966       25.816        3.085        3.053        3.155        3.168        3.193        3.026        2.664        2.512        2.657        2.647        2.647        2.499        3.137        3.004        3.276        2.882        0.478        0.000        0.000        1.000        1.000        0.000        2.000        0.000        0.000        0.000        0.000        0.000        0.000        0.000        0.000        1.000        0.000        0.000        0.000        0.000        0.000        0.000        0.000        0.000        0.000        1.000        0.000        0.000        1.000        0.000        6.000        1.000        0.000        0.000        0.000        0.000      100.000        0.000        0.000        1.860        1.890        2.517
     560.000  -243337.111    26073.293    14723.846    43369.482       70.234  -370674.748    43100.782       25.912       25.700        2.737        2.961        3.146        3.112        3.210        3.055        2.675        2.538        2.632        2.585        2.622        2.493        3.048        2.948        3.274        2.933        0.503        0.000        0.000        1.000        0.000        0.000        2.000        0.000        0.000        0.000        0.000        0.000        1.000        0.000        2.000        1.000        0.000        0.000        0.000        0.000        0.000        0.000        0.000        0.000        0.000        0.000        0.000        0.000        4.000        0.000       11.000        1.000        0.000        0.000        0.000        0.000      100.000        0.000        0.000        2.564        2.602        3.021
     570.000  -243533.741    24239.433    14390.025    43458.147      101.178  -369686.727    43964.204       26.122       25.728        3.065        3.007        3.181        3.159        3.168        3.056        2.669        2.549        2.648        2.718        2.676        2.494        3.069        2.938        3.222        3.003        0.474        0.000        0.000        1.000        1.000        0.000        2.000        0.000        0.000        0.000        0.000        0.000        0.000        0.000        2.000        1.000        0.000        0.000        0.000        0.000        0.000        0.000        0.000        0.000        0.000        0.000        0.000        1.000        1.000        1.000        5.000        0.000        0.000        0.000        0.000        0.000      100.000        0.000        0.000        2.141        2.195        2.845
     580.000  -243947.043    24238.765    14790.507    43373.231      114.031  -370815.381    44351.804       26.016       25.802        3.104        2.930        3.158        3.215        3.194        3.083        2.652        2.512        2.736        2.675        2.695        2.504        3.106        3.021        3.226        2.954        0.480        0.000        0.000        1.000        1.000        0.000        2.000        0.000        0.000        0.000        0.000        0.000        0.000        0.000        1.000        1.000        0.000        0.000        0.000        0.000        0.000        0.000        0.000        0.000        0.000        0.000        0.000        0.000        3.000        1.000        6.000        1.000        0.000        0.000        0.000        0.000      100.000        0.000        0.000        2.408        2.492        2.918
     590.000  -242463.585    24973.903    14448.897    43437.663      102.549  -368685.798    43259.202       25.971       25.743        2.988        3.000        3.126        3.194        3.180        3.042        2.627        2.547        2.685        2.646        2.646        2.486        3.085        3.041        3.179        2.967        0.481        0.000        0.000        1.000        1.000        0.000        1.000        0.000        0.000        0.000        0.000        0.000        0.000        0.000        1.000        1.000        0.000        0.000        0.000        0.000        0.000        0.000        0.000        0.000        0.000        2.000        0.000        0.000        1.000        1.000        7.000        0.000        0.000        0.000        0.000        0.000      100.000        0.000        0.000        2.347        2.409        2.936
     600.000  -243566.584    24712.008    14754.330    43520.404       93.230  -370375.689    43729.133       25.779       25.568        2.995        2.929        3.103        3.191        3.170        2.957        2.605        2.492        2.701        2.719        2.720        2.498        3.152        2.970        3.284        2.878        0.499        0.000        0.000        1.000        0.000        0.000        2.000        0.000        0.000        0.000        0.000        0.000        0.000        0.000        2.000        0.000        0.000        0.000        0.000        0.000        0.000        0.000        0.000        0.000        0.000        0.000        0.000        1.000        1.000        1.000        6.000        0.000        0.000        0.000        0.000        0.000      100.000        0.000        0.000        2.225        2.306        2.850
     610.000  -243932.614    25674.184    14722.078    43374.695       95.755  -371302.190    43502.865       25.954       25.551        3.015        2.964        3.128        3.207        3.203        3.138        2.651        2.493        2.685        2.663        2.682        2.495        3.079        2.945        3.262        2.925        0.495        0.000        0.000        1.000        0.000        0.000        2.000        0.000        0.000        0.000        0.000        0.000        0.000        0.000        0.000        0.000        0.000        0.000        0.000        0.000        0.000        0.000        0.000        0.000        0.000        1.000        0.000        1.000        0.000        0.000        7.000        0.000        0.000        0.000        0.000        0.000      100.000        0.000        0.000        2.273        2.355        2.855
     620.000  -243019.725    23389.200    14573.899    43581.417       94.955  -369286.794    44627.598       25.930       25.664        2.954        3.003        3.127        3.203        3.199        3.068        2.684        2.552        2.616        2.673        2.684        2.538        3.084        2.995        3.222        2.928        0.487        0.000        0.000        1.000        0.000        0.000        2.000        0.000        0.000        0.000        0.000        0.000        0.000        0.000        0.000        0.000        0.000        0.000        0.000        0.000        0.000        0.000        0.000        0.000        0.000        1.000        0.000        0.000        2.000        1.000        4.000        0.000        0.000        0.000        0.000        0.000      100.000        0.000        0.000        2.533        2.590        2.999
     630.000  -243231.263    24872.705    14603.843    43492.297       91.705  -369525.583    43233.770       26.120       25.866        3.041        2.906        3.127        3.206        3.191        3.064        2.690        2.447        2.710        2.691        2.730        2.519        3.092        2.952        3.236        2.919        0.496        0.000        0.000        1.000        0.000        0.000        2.000        0.000        0.000        1.000        0.000        0.000        0.000        0.000        1.000        1.000        0.000        0.000        0.000        0.000        0.000        0.000        0.000        0.000        0.000        1.000        0.000        1.000        0.000        0.000       10.000        0.000        0.000        0.000        0.000        0.000      100.000        0.000        0.000        2.382        2.451        2.955
     640.000  -242948.557    23535.755    14733.969    43508.097       82.864  -369785.128    44975.886       25.966       25.824        2.982        3.097        3.167        3.202        3.155        3.078        2.657        2.498        2.637        2.655        2.679        2.530        3.071        2.930        3.253        2.942        0.488        0.000        0.000        1.000        1.000        0.000        2.000        0.000        0.000        0.000        0.000        0.000        0.000        0.000        1.000        1.000        0.000        0.000        0.000        0.000        0.000        0.000        0.000        0.000        0.000        0.000        0.000        0.000        2.000        0.000        5.000        0.000        0.000        0.000        0.000        0.000      100.000        0.000        0.000        2.381        2.461        3.028
     650.000  -243603.412    24471.567    14742.719    43526.965       84.895  -370502.606    44073.049       25.853       25.584        3.098        3.013        3.103        3.159        3.123        2.961        2.722        2.527        2.653        2.687        2.660        2.506        3.178        2.963        3.285        3.024        0.491        0.000        0.000        1.000        1.000        0.000        2.000        0.000        0.000        0.000        0.000        0.000        0.000        0.000        1.000        0.000        0.000        0.000        0.000        0.000        0.000        0.000        0.000        0.000        0.000        0.000        1.000        1.000        0.000        0.000        3.000        1.000        0.000        0.000        0.000        0.000      100.000        0.000        0.000        2.985        3.066        3.445
     660.000  -243352.797    23418.403    14486.523    43572.803      106.119  -370194.214    45257.570       26.048       25.483        3.098        2.971        3.169        3.174        3.212        2.962        2.674        2.529        2.620        2.705        2.676        2.497        3.113        2.975        3.206        2.954        0.488        0.000        0.000        1.000        1.000        0.000        2.000        0.000        0.000        0.000        0.000        0.000        1.000        0.000        0.000        0.000        0.000        0.000        0.000        0.000        0.000        0.000        0.000        0.000        0.000        1.000        0.000        1.000        3.000        0.000        7.000        0.000        0.000        0.000        0.000        0.000      100.000        0.000        0.000        3.265        3.353        3.610
     670.000  -242828.393    24706.913    14770.588    43383.418      102.940  -368898.114    43105.863       25.704       25.752        3.121        3.012        3.182        3.148        3.209        3.035        2.618        2.556        2.665        2.681        2.712        2.509        3.104        3.020        3.257        2.832        0.473        0.000        0.000        1.000        1.000        0.000        2.000        0.000        0.000        0.000        0.000        0.000        0.000        0.000        2.000        1.000        0.000        0.000        0.000        0.000        0.000        0.000        0.000        0.000        0.000        1.000        0.000        0.000        3.000        1.000       13.000        0.000        0.000        0.000        0.000        0.000      100.000        0.000        0.000        2.692        2.737        3.276
     680.000  -242996.605    23995.586    14608.150    43370.965       95.265  -368546.662    43480.092       25.958       25.871        3.066        2.938        3.160        3.240        3.224        3.003        2.677        2.577        2.622        2.694        2.671        2.483        3.086        2.974        3.211        2.946        0.486        0.000        0.000        1.000        1.000        0.000        1.000        0.000        0.000        0.000        0.000        0.000        0.000        0.000        1.000        0.000        0.000        0.000        0.000        0.000        0.000        0.000        0.000        0.000        0.000        2.000        0.000        1.000        2.000        0.000       10.000        1.000        0.000        0.000        0.000        0.000      100.000        0.000        0.000        2.487        2.526        3.116
     690.000  -243250.359    24103.518    14714.607    43441.282       88.803  -369973.099    44374.531       26.018       25.968        3.044        3.045        3.195        3.219        3.214        3.107        2.672        2.563        2.619        2.706        2.732        2.478        3.027        2.957        3.209        2.979        0.468        0.000        0.000        1.000        1.000        0.000        2.000        0.000        0.000        0.000        0.000        0.000        0.000        0.000        1.000        1.000        0.000        0.000        0.000        0.000        0.000        0.000        0.000        0.000        0.000        0.000        0.000        1.000        2.000        1.000        8.000        1.000        0.000        0.000        0.000        0.000      100.000        0.000        0.000        2.024        2.088        2.944
     700.000  -243571.895    24705.614    14215.346    43504.305       84.076  -369481.001    43399.765       26.061       26.182        2.931        2.933        3.179        3.176        3.193        3.092        2.642        2.472        2.687        2.704        2.709        2.509        3.107        2.982        3.255        2.950        0.475        0.000        0.000        1.000        1.000        0.000        2.000        0.000        0.000        0.000        0.000        0.000        0.000        0.000        0.000        0.000        0.000        0.000        0.000        0.000        0.000        0.000        0.000        0.000        0.000        1.000        0.000        1.000        1.000        1.000        4.000        0.000        0.000        0.000        0.000        0.000      100.000        0.000        0.000        2.138        2.182        3.154
     710.000  -244215.992    24991.709    14510.584    43401.014       92.003  -370915.619    43704.317       26.014       26.071        2.989        3.010        3.140        3.266        3.208        3.148        2.699        2.564        2.625        2.640        2.662        2.495        3.101        3.000        3.230        3.110        0.471        0.000        0.000        1.000        1.000        0.000        2.000        0.000        0.000        0.000        0.000        0.000        0.000        0.000        0.000        0.000        0.000        0.000        0.000        0.000        0.000        0.000        0.000        0.000        0.000        0.000        0.000        0.000        2.000        0.000        8.000        0.000        0.000        0.000        0.000        0.000      100.000        0.000        0.000        1.881        1.909        2.983
     720.000  -244371.775    23638.806    14558.888    43487.272       89.768  -371169.110    45022.600       26.103       26.049        2.942        3.043        3.166        3.176        3.191        3.094        2.689        2.468        2.651        2.655        2.708        2.488        3.075        2.959        3.178        2.983        0.495        0.000        0.000        1.000        1.000        0.000        2.000        0.000        0.000        0.000        0.000        0.000        0.000        0.000        0.000        0.000        0.000        0.000        0.000        0.000        0.000        0.000        0.000        0.000        0.000        1.000        1.000        0.000        1.000        0.000        6.000        1.000        0.000        0.000        0.000        0.000      100.000        0.000        0.000        2.145        2.184        3.102
     730.000  -243914.755    25139.596    14438.722    43409.408       86.140  -371059.869    44071.248       26.163       26.064        3.055        3.041        3.143        3.188        3.176        3.042        2.679        2.509        2.660        2.668        2.702        2.516        3.094        3.014        3.228        3.017        0.484        0.000        0.000        1.000        0.000        0.000        2.000        0.000        0.000        0.000        0.000        0.000        0.000        0.000        0.000        0.000        0.000        0.000        0.000        0.000        0.000        0.000        0.000        0.000        0.000        2.000        0.000        1.000        1.000        0.000        4.000        1.000        0.000        0.000        0.000        0.000      100.000        0.000        0.000        2.413        2.446        3.193
     740.000  -243125.128    24364.545    14308.349    43354.853       91.957  -369125.674    43880.841       26.085       26.046        3.130        2.928        3.131        3.190        3.183        3.153        2.625        2.508        2.669        2.717        2.707        2.490        3.090        2.936        3.248        2.972        0.496        0.000        0.000        1.000        0.000        0.000        1.000        0.000        0.000        0.000        0.000        0.000        0.000        0.000        1.000        0.000        0.000        0.000        0.000        0.000        0.000        0.000        0.000        0.000        0.000        2.000        0.000        0.000        0.000        0.000        9.000        0.000        0.000        0.000        0.000        0.000      100.000        0.000        0.000        1.967        2.007        2.990
     750.000  -243894.481    23775.663    14437.415    43524.574       84.251  -370893.749    45177.365       26.120       25.813        3.059        3.025        3.189        3.248        3.193        3.126        2.695        2.429        2.679        2.678        2.688        2.514        3.127        2.966        3.198        3.004        0.493        0.000        0.000        1.000        0.000        0.000        2.000        0.000        0.000        0.000        0.000        0.000        0.000        0.000        0.000        2.000        0.000        0.000        0.000        0.000        0.000        0.000        0.000        0.000        0.000        2.000        0.000        1.000        0.000        1.000        8.000        1.000        0.000        0.000        0.000        0.000      100.000        0.000        0.000        1.695        1.717        2.924
     760.000  -243942.644    25163.545    14432.757    43337.528       91.830  -370889.581    43921.276       26.276       26.217        3.018        3.067        3.149        3.179        3.198        3.121        2.688        2.489        2.611        2.629        2.721        2.491        3.068        3.002        3.254        3.055        0.480        0.000        0.000        1.000        0.000        0.000        2.000        0.000        0.000        0.000        0.000        0.000        0.000        0.000        1.000        1.000        0.000        0.000        0.000        0.000        0.000        0.000        0.000        0.000        0.000        1.000        0.000        0.000        0.000        0.000        9.000        0.000        0.000        0.000        0.000        0.000      100.000        0.000        0.000        2.086        2.121        3.135
     770.000  -242662.046    24078.942    14775.360    43626.590      104.314  -369880.329    44633.077       26.074       26.109        3.085        2.890        3.128        3.238        3.260        3.132        2.687        2.475        2.714        2.655        2.685        2.506        3.106        2.999        3.231        2.970        0.497        0.000        0.000        1.000        0.000        0.000        2.000        0.000        0.000        0.000        0.000        0.000        0.000        0.000        1.000        0.000        0.000        0.000        0.000        0.000        0.000        0.000        0.000        0.000        0.000        1.000        0.000        0.000        0.000        0.000       10.000        0.000        0.000        0.000        0.000        0.000      100.000        0.000        0.000        2.277        2.328        3.176
     780.000  -243866.567    24754.753    14204.908    43582.817       94.509  -369670.625    43167.071       25.842       26.124        3.001        2.892        3.171        3.222        3.215        3.053        2.620        2.521        2.719        2.649        2.702        2.526        3.098        2.940        3.275        2.930        0.499        0.000        0.000        1.000        0.000        0.000        1.000        0.000        0.000        0.000        0.000        0.000        0.000        0.000        0.000        2.000        0.000        0.000        0.000        0.000        0.000        0.000        0.000        0.000        0.000        0.000        0.000        0.000        0.000        0.000        9.000        0.000        0.000        0.000        0.000        0.000      100.000        0.000        0.000        2.345        2.399        3.219
     790.000  -243654.858    24845.629    14806.078    43224.028      101.660  -369754.089    43121.835       26.392       26.253        3.057        2.971        3.154        3.231        3.184        3.075        2.638        2.512        2.642        2.681        2.699        2.502        3.045        2.966        3.297        2.986        0.486        0.000        0.000        1.000        0.000        0.000        1.000        0.000        0.000        0.000        0.000        0.000        0.000        0.000        0.000        0.000        0.000        0.000        0.000        0.000        0.000        0.000        0.000        0.000        0.000        2.000        0.000        0.000        0.000        0.000        4.000        0.000        0.000        0.000        0.000        0.000      100.000        0.000        0.000        2.017        2.039        2.821
     800.000  -243872.761    22641.671    14575.969    43225.672       80.785  -369804.109    45407.251       26.339       25.997        2.895        3.189        3.180        3.198        3.156        3.083        2.683        2.524        2.651        2.631        2.692        2.494        3.117        3.000        3.240        2.882        0.486        0.000        0.000        1.000        0.000        0.000        1.000        0.000        0.000        0.000        0.000        0.000        0.000        0.000        1.000        1.000        0.000        0.000        0.000        0.000        0.000        0.000        0.000        0.000        0.000        1.000        0.000        0.000        0.000        1.000        5.000        0.000        0.000        0.000        0.000        0.000      100.000        0.000        0.000        2.088        2.172        2.952
     810.000  -244241.833    24075.502    14542.199    43425.711       94.262  -370905.903    44526.397       26.398       26.023        3.087        3.037        3.185        3.201        3.155        3.114        2.678        2.562        2.673        2.584        2.702        2.450        3.070        3.012        3.222        2.958        0.471        0.000        0.000        1.000        0.000        0.000        1.000        0.000        0.000        0.000        0.000        0.000        0.000        0.000        0.000        1.000        0.000        0.000        0.000        0.000        0.000        0.000        0.000        0.000        0.000        1.000        0.000        1.000        0.000        1.000        8.000        0.000        0.000        0.000        0.000        0.000      100.000        0.000        0.000        2.225        2.283        2.995
     820.000  -243282.681    25029.231    14428.803    43344.661      104.565  -368867.363    42677.423       26.234       25.992        3.089        3.150        3.137        3.219        3.240        3.009        2.659        2.576        2.685        2.617        2.665        2.544        3.099        2.978        3.243        2.953        0.482        0.000        0.000        1.000        0.000        0.000        1.000        0.000        0.000        0.000        0.000        1.000        0.000        0.000        1.000        0.000        0.000        0.000        0.000        0.000        0.000        0.000        0.000        0.000        0.000        2.000        0.000        0.000        0.000        0.000        4.000        0.000        0.000        0.000        0.000        0.000      100.000        0.000        0.000        2.021        2.055        3.050
     830.000  -242949.448    23384.378    14588.476    43714.718       90.649  -369603.378    44875.710       25.956       25.925        3.075        3.031        3.166        3.245        3.185        2.958        2.625        2.539        2.672        2.617        2.672        2.502        3.084        2.982        3.243        3.029        0.493        0.000        0.000        1.000        0.000        0.000        1.000        0.000        0.000        0.000        0.000        0.000        0.000        0.000        1.000        0.000        0.000        0.000        0.000        0.000        0.000        0.000        0.000        0.000        0.000        4.000        0.000        0.000        0.000        0.000        3.000        0.000        0.000        0.000        0.000        0.000      100.000        0.000        0.000        1.428        1.483        2.929
     840.000  -243789.291    24252.985    14889.227    43486.463       95.614  -370914.513    44400.933       26.203       26.025        3.090        3.017        3.156        3.301        3.218        3.009        2.668        2.498        2.693        2.726        2.689        2.504        3.097        2.943        3.224        3.008        0.486        0.000        0.000        1.000        0.000        0.000        2.000        0.000        0.000        0.000        0.000        0.000        0.000        0.000        0.000        0.000        0.000        0.000        0.000        0.000        0.000        0.000        0.000        0.000        0.000        2.000        0.000        0.000        0.000        1.000        4.000        0.000        0.000        0.000        0.000        0.000      100.000        0.000        0.000        1.798        1.853        2.909
     850.000  -243755.524    23906.343    14568.505    43555.788       80.320  -369985.082    44118.602       26.258       26.152        3.031        3.035        3.185        3.281        3.195        3.029        2.711        2.510        2.718        2.606        2.687        2.519        3.087        3.017        3.242        2.941        0.503        0.000        0.000        1.000        0.000        0.000        1.000        0.000        0.000        0.000        0.000        0.000        0.000        0.000        0.000        0.000        0.000        0.000        0.000        0.000        0.000        0.000        0.000        0.000        0.000        0.000        0.000        1.000        1.000        0.000        4.000        1.000        0.000        0.000        0.000        0.000      100.000        0.000        0.000        2.101        2.164        3.007
     860.000  -243346.968    24072.408    14418.289    43507.578       70.368  -369464.774    44049.163       26.229       26.048        3.117        3.055        3.146        3.227        3.225        3.052        2.710        2.546        2.692        2.672        2.708        2.501        3.086        2.983        3.255        2.961        0.486        0.000        0.000        1.000        0.000        0.000        1.000        0.000        0.000        0.000        0.000        0.000        0.000        0.000        2.000        0.000        0.000        0.000        0.000        0.000        0.000        0.000        0.000        0.000        0.000        0.000        0.000        1.000        2.000        0.000        6.000        1.000        0.000        0.000        0.000        0.000      100.000        0.000        0.000        2.433        2.498        3.269
     870.000  -243890.320    24223.164    14865.410    43292.723       94.846  -369427.668    43061.206       26.384       25.936        2.958        3.075        3.158        3.233        3.182        3.021        2.670        2.505        2.691        2.730        2.714        2.485        3.096        2.991        3.203        2.957        0.485        0.000        0.000        1.000        0.000        0.000        1.000        0.000        0.000        0.000        0.000        0.000        0.000        0.000        1.000        1.000        0.000        0.000        0.000        0.000        0.000        0.000        0.000        0.000        0.000        4.000        0.000        2.000        0.000        1.000        8.000        2.000        0.000        0.000        0.000        0.000      100.000        0.000        0.000        2.210        2.289        2.917
     880.000  -243969.940    23323.816    14359.197    43571.272       85.294  -370584.013    45274.493       26.419       26.379        3.111        3.063        3.219        3.219        3.216        3.050        2.694        2.579        2.738        2.682        2.673        2.512        3.107        3.006        3.242        3.000        0.450        0.000        0.000        1.000        0.000        0.000        1.000        0.000        0.000        0.000        0.000        0.000        0.000        0.000        2.000        1.000        0.000        0.000        0.000        0.000        0.000        0.000        0.000        0.000        0.000        0.000        0.000        0.000        0.000        1.000        8.000        1.000        0.000        0.000        0.000        0.000      100.000        0.000        0.000        1.853        1.895        2.705
     890.000  -244006.044    24643.200    14158.550    43457.184       89.649  -370695.111    44340.484       26.657       26.412        3.087        3.050        3.151        3.285        3.193        2.994        2.671        2.490        2.700        2.653        2.679        2.558        3.029        2.965        3.235        2.979        0.469        0.000        0.000        1.000        0.000        0.000        1.000        0.000        0.000        0.000        0.000        0.000        0.000        0.000        2.000        0.000        0.000        0.000        0.000        0.000        0.000        0.000        0.000        0.000        0.000        0.000        0.000        1.000        0.000        1.000        6.000        0.000        0.000        0.000        0.000        0.000      100.000        0.000        0.000        1.918        1.950        2.814
     900.000  -242963.676    24061.353    14293.044    43537.971       76.203  -369373.524    44441.275       26.216       26.291        3.037        3.109        3.091        3.253        3.142        3.071        2.622        2.523        2.675        2.655        2.659        2.505        3.084        2.963        3.207        2.947        0.479        0.000        0.000        1.000        0.000        0.000        1.000        0.000        0.000        0.000        0.000        0.000        0.000        0.000        2.000        0.000        0.000        0.000        0.000        0.000        0.000        0.000        0.000        0.000        0.000        0.000        0.000        0.000        0.000        1.000        7.000        1.000        0.000        0.000        0.000        0.000      100.000        0.000        0.000        1.769        1.796        2.890
     910.000  -243737.166    23468.427    14179.484    43683.718      101.909  -370269.842    45099.138       26.297       26.256        2.993        3.162        3.195        3.217        3.246        2.985        2.629        2.509        2.736        2.667        2.660        2.554        3.036        2.986        3.243        2.957        0.490        0.000        0.000        1.000        0.000        0.000        1.000        0.000        0.000        0.000        0.000        0.000        0.000        0.000        1.000        2.000        0.000        0.000        0.000        0.000        0.000        0.000        0.000        0.000        0.000        0.000        0.000        0.000        1.000        0.000       11.000        0.000        0.000        0.000        0.000        0.000      100.000        0.000        0.000        1.777        1.800        2.768
     920.000  -243450.358    23568.073    14344.256    43533.241       83.093  -369667.443    44688.422       25.825       26.145        3.122        3.120        3.196        3.243        3.216        3.088        2.662        2.483        2.681        2.662        2.664        2.543        3.057        2.973        3.195        2.935        0.497        0.000        0.000        1.000        0.000        0.000        1.000        0.000        0.000        0.000        0.000        0.000        0.000        0.000        1.000        1.000        0.000        0.000        0.000        0.000        0.000        0.000        0.000        0.000        0.000        2.000        0.000        0.000        0.000        0.000       12.000        0.000        0.000        0.000        0.000        0.000      100.000        0.000        0.000        1.915        1.898        3.089
     930.000  -243640.254    25102.660    14194.764    43520.604       88.531  -369914.815    43368.001       26.262       26.324        2.923        3.070        3.162        3.154        3.231        2.985        2.677        2.568        2.687        2.669        2.647        2.520        3.101        2.999        3.235        2.960        0.496        0.000        0.000        1.000        0.000        0.000        1.000        0.000        0.000        0.000        0.000        0.000        0.000        0.000        2.000        1.000        0.000        0.000        0.000        0.000        0.000        0.000        0.000        0.000        0.000        0.000        0.000        0.000        0.000        0.000        9.000        0.000        0.000        0.000        0.000        0.000      100.000        0.000        0.000        1.935        1.951        3.133
     940.000  -243758.630    24988.628    14123.366    43464.834      123.743  -369622.431    43163.230       26.182       26.153        2.985        3.183        3.162        3.171        3.252        3.057        2.703        2.517        2.680        2.704        2.695        2.522        3.131        3.044        3.228        2.973        0.473        0.000        0.000        1.000        0.000        0.000        1.000        0.000        0.000        0.000        0.000        0.000        0.000        0.000        1.000        1.000        0.000        0.000        0.000        0.000        0.000        0.000        0.000        0.000        0.000        0.000        0.000        0.000        0.000        0.000        7.000        1.000        0.000        0.000        0.000        0.000      100.000        0.000        0.000        1.889        1.912        3.348
     950.000  -243455.484    23734.814    14645.967    43543.125       85.473  -369900.518    44435.654       25.874       26.108        2.944        3.058        3.131        3.157        3.217        3.091        2.656        2.525        2.624        2.689        2.735        2.519        3.032        2.992        3.251        2.860        0.469        0.000        0.000        1.000        0.000        0.000        1.000        0.000        0.000        0.000        0.000        0.000        0.000        0.000        2.000        1.000        0.000        0.000        0.000        0.000        0.000        0.000        0.000        0.000        0.000        2.000        0.000        1.000        0.000        0.000       11.000        0.000        0.000        0.000        0.000        0.000      100.000        0.000        0.000        2.054        2.087        3.172
     960.000  -243441.698    23887.437    14369.151    43634.405      112.371  -370239.363    44794.301       25.718       25.967        2.822        3.096        3.173        3.188        3.191        3.003        2.666        2.547        2.681        2.556        2.659        2.490        3.117        3.003        3.255        3.064        0.482        0.000        0.000        1.000        0.000        0.000        1.000        0.000        0.000        0.000        0.000        0.000        0.000        0.000        1.000        0.000        0.000        0.000        0.000        0.000        0.000        0.000        0.000        0.000        0.000        2.000        0.000        1.000        0.000        1.000       11.000        0.000        0.000        0.000        0.000        0.000      100.000        0.000        0.000        2.085        2.099        3.371
     970.000  -242903.451    24241.589    14454.334    43278.938       87.800  -369151.114    44185.001       25.918       26.152        2.779        3.069        3.126        3.175        3.211        3.019        2.655        2.520        2.681        2.605        2.689        2.562        3.048        2.999        3.235        2.975        0.493        0.000        0.000        1.000        0.000        0.000        1.000        0.000        0.000        0.000        0.000        0.000        0.000        0.000        2.000        1.000        0.000        0.000        0.000        0.000        0.000        0.000        0.000        0.000        0.000        2.000        0.000        0.000        0.000        0.000        6.000        0.000        0.000        0.000        0.000        0.000      100.000        0.000        0.000        1.990        2.029        3.361
     980.000  -242961.637    24245.611    14468.402    43599.736       87.537  -369339.581    43976.658       26.013       26.013        3.014        3.084        3.179        3.260        3.223        3.042        2.692        2.582        2.629        2.609        2.682        2.559        3.122        2.993        3.203        2.899        0.467        0.000        0.000        1.000        0.000        0.000        1.000        0.000        0.000        0.000        0.000        0.000        0.000        0.000        1.000        2.000        0.000        0.000        0.000        0.000        0.000        0.000        0.000        0.000        0.000        0.000        0.000        0.000        0.000        0.000        9.000        1.000        0.000        0.000        0.000        0.000      100.000        0.000        0.000        2.128        2.185        3.308
     990.000  -243219.655    23930.024    14256.788    43586.416      136.608  -370567.752    45438.262       25.771       25.909        3.049        3.083        3.117        3.250        3.208        3.007        2.671        2.491        2.679        2.574        2.697        2.476        2.992        2.929        3.201        2.944        0.489        0.000        0.000        1.000        0.000        0.000        1.000        0.000        0.000        0.000        0.000        0.000        0.000        0.000        1.000        1.000        0.000        0.000        0.000        0.000        0.000        0.000        0.000        0.000        0.000        2.000        0.000        0.000        0.000        0.000        6.000        0.000        0.000        0.000        0.000        0.000      100.000        0.000        0.000        1.981        1.996        3.113
    1000.000  -243605.947    24760.470    14637.859    43216.644       92.802  -369243.834    42930.113       26.179       26.204        3.048        3.125        3.214        3.269        3.219        2.967        2.675        2.484        2.646        2.638        2.693        2.486        3.076        3.021        3.252        2.884        0.480        0.000        0.000        1.000        0.000        0.000        1.000        0.000        0.000        0.000        0.000        0.000        0.000        0.000        1.000        1.000        0.000        0.000        0.000        0.000        0.000        0.000        0.000        0.000        0.000        2.000        0.000        0.000        0.000        0.000        9.000        0.000        0.000        0.000        0.000        0.000      100.000        0.000        0.000        2.008        2.032        3.173
     Average  -245250.314    24734.714    14588.331    43490.355       87.988  -372903.891    44752.190       25.943       25.916        3.037        3.035        3.159        3.214        3.196        3.048        2.671        2.523        2.662        2.651        2.669        2.507        3.098        2.988        3.200        2.964        0.485        0.436        0.000        0.980        0.129        0.099        1.901        0.000        0.000        0.248        0.079        0.040        0.020        0.000        0.673        0.584        0.000        0.000        0.000        0.000        0.000        0.000        0.000        0.000        0.000        1.436        0.297        0.436        0.545        0.455        8.099        0.535        0.000        0.000        0.089        0.000       99.911        0.000        0.000        1.947        1.982        2.694

