____Time[ps] Energy[ kJ/mol ]_____Bond _______Angle ____Dihedral ___Planarity _____Coulomb _________VdW _Your result _Your result _Your result _Your result _Your result _Your result _Your result _Your result _Your result _Your result _Your result _Your result _Your result _Your result _Your result _Your result _Your result _Your result _Your result _Your result _Your result _Your result _Your result _Your result _Your result _Your result _Your result _Your result _Your result _Your result _Your result _Your result _Your result _Your result _Your result _Your result _Your result _Your result _Your result _Your result _Your result _Your result _Your result _Your result _Your result _Your result _Your result _Your result _Your result _Your result _Your result _Your result _Your result _Your result _Your result _Your result _Your result _RMSDs[A]:CA ____Backbone __HeavyAtoms
       0.000  -325723.161     4968.642     4628.898    43584.072       15.805  -442594.630    63674.052       25.342       25.348        2.912        3.019        3.163        3.207        3.209        3.071        2.718        2.509        2.682        2.674        2.536        2.686        3.058        2.993        3.102        2.885        0.486        2.000        0.000        2.000        0.000        1.000        5.000        0.000        0.000        0.000        0.000        0.000        0.000        0.000        0.000        0.000        0.000        0.000        0.000        0.000        0.000        0.000        0.000        0.000        0.000        2.000        0.000        0.000        0.000        2.000        7.000        0.000        0.000        0.000        0.000        0.000      100.000        0.000        0.000        0.452        0.486        0.609
      10.000  -246739.734    28199.228    14540.771    43743.207       71.484  -381835.353    48540.928       26.149       25.840        2.979        3.092        3.137        3.146        3.291        3.046        2.750        2.464        2.695        2.666        2.513        2.509        3.075        2.886        3.004        2.834        0.477        2.000        0.000        1.000        0.000        1.000        1.000        0.000        0.000        0.000        0.000        0.000        0.000        0.000        1.000        0.000        0.000        0.000        0.000        0.000        0.000        0.000        0.000        0.000        0.000        1.000        0.000        1.000        0.000        2.000        7.000        1.000        0.000        0.000        0.000        0.000      100.000        0.000        0.000        1.407        1.450        1.520
      20.000  -245950.140    28682.726    15216.096    43568.109       84.931  -380864.822    47362.819       25.984       25.700        2.930        3.057        3.160        3.196        3.276        3.019        2.708        2.489        2.693        2.673        2.505        2.551        3.016        2.926        3.051        2.937        0.481        2.000        0.000        1.000        0.000        1.000        3.000        0.000        0.000        0.000        0.000        0.000        0.000        0.000        0.000        0.000        0.000        0.000        0.000        0.000        0.000        0.000        0.000        0.000        0.000        2.000        0.000        2.000        0.000        1.000       15.000        0.000        0.000        0.000        0.000        0.000      100.000        0.000        0.000        1.547        1.565        1.658
      30.000  -246283.262    27145.798    14980.548    43532.958       88.003  -378955.359    46924.789       26.283       25.990        2.944        3.062        3.181        3.241        3.221        3.038        2.719        2.530        2.654        2.680        2.593        2.449        3.013        2.932        3.075        2.905        0.479        1.000        0.000        1.000        0.000        2.000        3.000        0.000        0.000        0.000        0.000        0.000        0.000        0.000        0.000        0.000        0.000        0.000        0.000        0.000        0.000        0.000        0.000        0.000        0.000        2.000        0.000        2.000        0.000        1.000       14.000        0.000        0.000        0.000        0.000        0.000      100.000        0.000        0.000        1.589        1.609        1.733
      40.000  -245080.735    27805.937    15068.852    43607.588      126.943  -378695.468    47005.414       25.996       25.813        3.022        3.083        3.135        3.201        3.220        3.035        2.708        2.593        2.622        2.699        2.593        2.546        3.055        2.927        3.039        2.927        0.469        1.000        0.000        1.000        0.000        2.000        3.000        0.000        0.000        0.000        0.000        0.000        0.000        0.000        1.000        0.000        0.000        0.000        0.000        0.000        0.000        0.000        0.000        0.000        0.000        2.000        0.000        3.000        0.000        0.000        3.000        0.000        0.000        0.000        0.000        0.000      100.000        0.000        0.000        1.597        1.615        1.806
      50.000  -244886.609    26961.793    15179.644    43542.411       82.989  -378631.908    47978.461       26.147       25.911        2.951        3.089        3.165        3.245        3.279        2.946        2.701        2.526        2.673        2.647        2.597        2.507        3.006        2.947        3.098        2.971        0.489        2.000        0.000        1.000        0.000        2.000        4.000        0.000        0.000        0.000        0.000        0.000        0.000        0.000        0.000        0.000        0.000        0.000        0.000        0.000        0.000        0.000        0.000        0.000        0.000        2.000        0.000        0.000        0.000        2.000        1.000        0.000        0.000        0.000        0.000        0.000      100.000        0.000        0.000        1.737        1.757        1.851
      60.000  -244651.098    27690.422    15101.742    43505.355       79.843  -375836.002    44807.541       26.389       26.000        3.045        3.080        3.161        3.191        3.280        2.989        2.668        2.505        2.696        2.666        2.579        2.540        3.044        2.906        3.064        2.861        0.506        2.000        0.000        2.000        0.000        1.000        3.000        0.000        0.000        0.000        0.000        0.000        0.000        0.000        0.000        0.000        0.000        0.000        0.000        0.000        0.000        0.000        0.000        0.000        0.000        0.000        0.000        2.000        0.000        1.000        5.000        0.000        0.000        0.000        0.000        0.000      100.000        0.000        0.000        1.676        1.686        1.887
      70.000  -244254.338    25765.159    15025.393    43521.695      103.005  -375692.327    47022.738       26.424       26.171        3.007        2.985        3.155        3.194        3.277        3.011        2.651        2.522        2.661        2.688        2.583        2.487        2.958        2.935        3.052        2.887        0.482        2.000        0.000        1.000        0.000        1.000        4.000        0.000        0.000        0.000        0.000        0.000        0.000        1.000        0.000        0.000        0.000        0.000        0.000        0.000        0.000        0.000        0.000        0.000        0.000        2.000        0.000        3.000        0.000        2.000        8.000        0.000        0.000        0.000        0.000        0.000      100.000        0.000        0.000        1.827        1.846        1.977
      80.000  -243955.134    25709.465    14959.738    43590.514       77.914  -374638.184    46345.419       26.263       26.072        3.013        2.996        3.161        3.215        3.237        3.031        2.647        2.472        2.642        2.678        2.566        2.487        3.026        2.936        3.042        2.937        0.479        1.000        0.000        2.000        0.000        2.000        5.000        0.000        0.000        0.000        0.000        0.000        0.000        1.000        0.000        0.000        0.000        0.000        0.000        0.000        0.000        0.000        0.000        0.000        0.000        2.000        0.000        0.000        0.000        1.000        4.000        1.000        0.000        0.000        0.000        0.000      100.000        0.000        0.000        1.662        1.691        1.928
      90.000  -243885.823    26140.180    15140.898    43535.674       79.799  -375820.680    47038.306       26.407       26.321        3.004        3.120        3.188        3.183        3.255        2.968        2.700        2.465        2.656        2.635        2.598        2.549        3.055        2.932        3.047        2.901        0.504        1.000        0.000        1.000        0.000        1.000        4.000        0.000        0.000        0.000        0.000        0.000        0.000        1.000        1.000        0.000        0.000        0.000        0.000        0.000        0.000        0.000        0.000        0.000        0.000        2.000        0.000        1.000        0.000        1.000        8.000        1.000        0.000        0.000        0.000        0.000      100.000        0.000        0.000        1.686        1.699        1.897
     100.000  -243845.827    27372.038    14948.607    43237.430      103.525  -374288.402    44780.976       26.447       26.113        3.028        2.959        3.161        3.187        3.211        3.095        2.694        2.522        2.655        2.650        2.592        2.522        3.078        2.958        3.054        2.934        0.500        2.000        0.000        2.000        0.000        1.000        5.000        0.000        0.000        0.000        0.000        0.000        0.000        0.000        1.000        0.000        0.000        0.000        0.000        0.000        0.000        0.000        0.000        0.000        0.000        1.000        0.000        1.000        0.000        2.000        9.000        1.000        0.000        0.000        0.000        0.000      100.000        0.000        0.000        1.966        1.991        2.125
     110.000  -243766.717    25386.388    14872.834    43493.593       80.766  -373286.244    45685.946       26.219       26.029        2.999        3.055        3.188        3.206        3.210        3.025        2.680        2.470        2.677        2.675        2.530        2.549        3.082        2.984        3.013        2.866        0.487        1.000        0.000        2.000        0.000        1.000        6.000        0.000        0.000        0.000        0.000        0.000        0.000        0.000        0.000        0.000        0.000        0.000        0.000        0.000        0.000        0.000        0.000        0.000        0.000        2.000        0.000        2.000        0.000        3.000        7.000        2.000        0.000        0.000        0.000        0.000      100.000        0.000        0.000        1.573        1.621        1.787
     120.000  -243039.355    27215.099    15305.699    43413.273       93.448  -373770.382    44703.507       26.012       25.890        3.052        3.094        3.181        3.136        3.274        3.034        2.723        2.471        2.675        2.701        2.621        2.530        3.074        2.887        3.054        2.908        0.476        2.000        0.000        1.000        0.000        1.000        6.000        0.000        0.000        0.000        0.000        0.000        0.000        0.000        0.000        0.000        0.000        0.000        0.000        0.000        0.000        0.000        0.000        0.000        0.000        1.000        0.000        4.000        0.000        1.000        3.000        0.000        0.000        0.000        0.000        0.000      100.000        0.000        0.000        1.385        1.442        1.725
     130.000  -242907.580    26518.018    15210.893    43523.256       95.816  -371242.246    42986.683       26.111       25.553        2.945        3.056        3.104        3.117        3.215        3.067        2.705        2.500        2.681        2.710        2.562        2.452        3.126        2.900        3.010        2.881        0.484        2.000        0.000        2.000        0.000        1.000        5.000        0.000        0.000        0.000        0.000        0.000        0.000        1.000        0.000        0.000        0.000        0.000        0.000        0.000        0.000        0.000        0.000        0.000        0.000        1.000        0.000        3.000        0.000        1.000        9.000        0.000        0.000        0.000        0.000        0.000      100.000        0.000        0.000        1.712        1.785        2.017
     140.000  -242756.438    26125.801    15204.388    43469.766       90.874  -372248.911    44601.643       25.877       25.692        3.006        3.030        3.177        3.146        3.235        3.094        2.673        2.509        2.688        2.657        2.574        2.496        3.065        2.924        2.998        2.958        0.477        2.000        0.000        1.000        0.000        1.000        6.000        0.000        0.000        1.000        0.000        0.000        0.000        2.000        1.000        0.000        0.000        0.000        0.000        0.000        0.000        0.000        0.000        0.000        0.000        1.000        0.000        3.000        0.000        3.000        8.000        1.000        0.000        0.000        0.000        0.000      100.000        0.000        0.000        1.595        1.645        2.068
     150.000  -242369.713    26152.801    14824.522    43510.565       76.548  -371163.467    44229.319       25.718       25.727        2.968        2.982        3.154        3.209        3.256        3.058        2.670        2.479        2.661        2.666        2.588        2.504        3.086        2.903        3.027        2.925        0.475        2.000        0.000        2.000        0.000        1.000        5.000        0.000        0.000        1.000        0.000        0.000        0.000        0.000        1.000        0.000        0.000        0.000        0.000        0.000        0.000        0.000        0.000        0.000        0.000        0.000        0.000        1.000        0.000        1.000        9.000        0.000        0.000        0.000        0.000        0.000      100.000        0.000        0.000        1.962        2.015        2.423
     160.000  -241727.647    25059.553    14874.808    43600.558      102.429  -370822.671    45457.675       25.851       25.943        3.069        3.133        3.235        3.176        3.233        3.021        2.714        2.464        2.699        2.698        2.536        2.503        3.094        2.951        3.041        2.884        0.483        2.000        0.000        2.000        0.000        2.000        6.000        0.000        0.000        0.000        0.000        0.000        0.000        0.000        2.000        0.000        0.000        0.000        0.000        0.000        0.000        0.000        0.000        0.000        0.000        1.000        0.000        1.000        0.000        1.000        6.000        0.000        0.000        0.000        0.000        0.000      100.000        0.000        0.000        1.700        1.740        2.173
     170.000  -242484.903    25342.060    15265.167    43482.686      102.530  -371119.044    44441.697       25.935       25.971        3.018        3.002        3.185        3.209        3.258        2.961        2.685        2.575        2.710        2.703        2.593        2.531        3.076        2.947        3.055        2.907        0.480        2.000        0.000        2.000        0.000        1.000        4.000        0.000        0.000        0.000        0.000        0.000        0.000        0.000        1.000        0.000        0.000        0.000        0.000        0.000        0.000        0.000        0.000        0.000        0.000        2.000        0.000        3.000        0.000        1.000       10.000        1.000        0.000        0.000        0.000        0.000      100.000        0.000        0.000        1.746        1.778        2.278
     180.000  -242134.775    24316.207    15429.028    43792.478       79.125  -371921.078    46169.464       25.908       25.911        3.009        3.026        3.165        3.127        3.266        3.121        2.721        2.568        2.657        2.712        2.564        2.521        3.043        2.977        3.141        2.916        0.483        2.000        0.000        1.000        0.000        1.000        4.000        0.000        0.000        0.000        0.000        0.000        0.000        0.000        1.000        0.000        0.000        0.000        0.000        0.000        0.000        0.000        0.000        0.000        0.000        0.000        0.000        0.000        0.000        1.000       10.000        0.000        0.000        0.000        0.000        0.000      100.000        0.000        0.000        1.388        1.405        2.089
     190.000  -242395.507    25084.923    15205.743    43690.140       71.110  -372447.751    46000.329       25.851       25.754        2.989        3.023        3.161        3.236        3.217        3.031        2.704        2.611        2.620        2.674        2.593        2.534        2.995        2.921        3.024        2.934        0.496        2.000        0.000        2.000        0.000        2.000        3.000        0.000        0.000        0.000        0.000        0.000        0.000        1.000        0.000        0.000        0.000        0.000        0.000        0.000        0.000        0.000        0.000        0.000        0.000        1.000        0.000        0.000        0.000        1.000        9.000        0.000        0.000        0.000        0.000        0.000      100.000        0.000        0.000        1.533        1.554        2.127
     200.000  -241642.029    26038.702    14943.906    43517.816       92.917  -369755.584    43520.213       25.866       25.945        3.041        2.997        3.201        3.193        3.266        2.995        2.663        2.571        2.671        2.649        2.572        2.514        3.016        2.932        3.112        2.918        0.505        2.000        0.000        2.000        0.000        1.000        4.000        0.000        0.000        1.000        0.000        0.000        0.000        0.000        1.000        0.000        0.000        0.000        0.000        0.000        0.000        0.000        0.000        0.000        0.000        0.000        0.000        2.000        0.000        1.000       10.000        0.000        0.000        0.000        0.000        0.000      100.000        0.000        0.000        1.391        1.400        2.132
     210.000  -242013.492    24886.004    14745.505    43456.116       66.500  -369482.663    44315.046       25.766       25.744        2.954        3.067        3.125        3.211        3.246        3.008        2.670        2.605        2.639        2.649        2.577        2.511        3.016        3.008        3.008        2.897        0.484        2.000        0.000        2.000        0.000        1.000        3.000        0.000        0.000        0.000        0.000        0.000        0.000        0.000        1.000        0.000        0.000        0.000        0.000        0.000        0.000        0.000        0.000        0.000        0.000        1.000        0.000        3.000        0.000        1.000        9.000        0.000        0.000        0.000        0.000        0.000      100.000        0.000        0.000        1.390        1.412        1.987
     220.000  -241961.518    24762.661    14844.848    43495.153      101.290  -369408.009    44242.539       25.819       25.666        3.007        3.052        3.182        3.201        3.239        3.052        2.656        2.576        2.691        2.707        2.597        2.472        3.071        2.958        3.005        2.900        0.500        2.000        0.000        1.000        0.000        1.000        4.000        0.000        0.000        0.000        0.000        0.000        0.000        0.000        1.000        0.000        0.000        0.000        0.000        0.000        0.000        0.000        0.000        0.000        0.000        1.000        0.000        1.000        0.000        3.000        5.000        1.000        0.000        0.000        0.000        0.000      100.000        0.000        0.000        1.360        1.370        2.030
     230.000  -242142.627    25956.947    14820.690    43416.075       79.164  -369715.792    43300.288       25.779       25.916        2.985        3.000        3.171        3.182        3.268        3.096        2.605        2.589        2.715        2.671        2.574        2.491        3.064        2.941        3.046        2.862        0.504        2.000        0.000        2.000        0.000        1.000        4.000        0.000        0.000        0.000        0.000        0.000        0.000        0.000        1.000        0.000        0.000        0.000        0.000        0.000        0.000        0.000        0.000        0.000        0.000        2.000        0.000        4.000        0.000        1.000       16.000        0.000        0.000        0.000        0.000        0.000      100.000        0.000        0.000        1.325        1.352        2.115
     240.000  -242008.860    25195.440    15008.404    43544.606       95.496  -369220.796    43367.990       25.488       25.679        2.959        3.017        3.163        3.225        3.351        2.985        2.671        2.588        2.674        2.638        2.533        2.493        3.012        2.942        3.064        2.932        0.492        2.000        0.000        2.000        0.000        1.000        2.000        0.000        0.000        0.000        0.000        0.000        0.000        1.000        0.000        0.000        0.000        0.000        0.000        0.000        0.000        0.000        0.000        0.000        0.000        2.000        0.000        4.000        0.000        2.000        7.000        2.000        0.000        0.000        0.000        0.000      100.000        0.000        0.000        1.400        1.417        2.133
     250.000  -241590.972    23966.616    14659.884    43424.997      117.052  -369755.805    45996.284       25.844       25.901        2.912        3.048        3.124        3.206        3.261        3.004        2.686        2.556        2.658        2.685        2.589        2.523        3.008        2.927        2.979        2.889        0.497        2.000        0.000        2.000        0.000        1.000        5.000        0.000        0.000        0.000        0.000        0.000        0.000        0.000        1.000        0.000        0.000        0.000        0.000        0.000        0.000        0.000        0.000        0.000        0.000        1.000        0.000        3.000        0.000        1.000        9.000        0.000        0.000        0.000        0.000        0.000      100.000        0.000        0.000        1.505        1.522        2.278
     260.000  -241745.763    24867.720    15156.794    43509.542       73.228  -369088.590    43735.543       25.675       25.887        3.092        3.106        3.182        3.260        3.218        3.055        2.667        2.539        2.693        2.624        2.600        2.535        3.040        2.933        3.100        2.905        0.484        2.000        0.000        2.000        0.000        1.000        4.000        0.000        0.000        0.000        0.000        0.000        0.000        1.000        1.000        0.000        0.000        0.000        0.000        0.000        0.000        0.000        0.000        0.000        0.000        0.000        0.000        2.000        0.000        1.000        9.000        1.000        0.000        0.000        0.000        0.000      100.000        0.000        0.000        1.550        1.558        2.271
     270.000  -241825.351    24504.459    15377.221    43314.501       77.398  -369148.359    44049.430       25.980       25.805        2.970        3.129        3.163        3.206        3.313        3.034        2.710        2.631        2.700        2.646        2.579        2.550        3.025        2.935        3.014        2.870        0.493        1.000        0.000        2.000        0.000        1.000        5.000        0.000        0.000        0.000        0.000        0.000        0.000        0.000        1.000        0.000        0.000        0.000        0.000        0.000        0.000        0.000        0.000        0.000        0.000        2.000        0.000        1.000        0.000        1.000        8.000        1.000        0.000        0.000        0.000        0.000      100.000        0.000        0.000        1.541        1.550        2.175
     280.000  -241767.321    25440.072    14882.368    43343.112       66.378  -368659.821    43160.570       25.856       25.891        2.934        3.011        3.161        3.234        3.270        2.979        2.663        2.587        2.667        2.632        2.586        2.472        3.082        2.937        3.054        2.879        0.481        2.000        0.000        2.000        0.000        1.000        3.000        0.000        0.000        1.000        0.000        0.000        0.000        0.000        0.000        0.000        0.000        0.000        0.000        0.000        0.000        0.000        0.000        0.000        0.000        1.000        0.000        2.000        0.000        0.000        9.000        0.000        0.000        0.000        0.000        0.000      100.000        0.000        0.000        1.488        1.543        2.165
     290.000  -242090.225    25052.098    14767.509    43396.579       92.411  -368060.872    42662.051       25.834       25.992        3.045        3.057        3.222        3.186        3.274        2.946        2.676        2.588        2.683        2.714        2.635        2.529        3.024        2.898        3.023        2.970        0.494        2.000        0.000        2.000        0.000        2.000        2.000        0.000        0.000        1.000        0.000        0.000        0.000        2.000        1.000        0.000        0.000        0.000        0.000        0.000        0.000        0.000        0.000        0.000        0.000        0.000        0.000        2.000        0.000        2.000        8.000        0.000        0.000        0.000        0.000        0.000      100.000        0.000        0.000        1.725        1.763        2.428
     300.000  -241209.496    25525.097    14669.934    43493.615       96.860  -368578.904    43583.902       25.667       26.159        3.036        3.116        3.152        3.295        3.217        2.993        2.633        2.573        2.673        2.683        2.628        2.520        3.079        2.960        3.070        2.878        0.499        2.000        0.000        1.000        0.000        2.000        4.000        0.000        0.000        0.000        0.000        0.000        0.000        0.000        0.000        0.000        0.000        0.000        0.000        0.000        0.000        0.000        0.000        0.000        0.000        0.000        0.000        2.000        0.000        2.000        9.000        0.000        0.000        0.000        0.000        0.000      100.000        0.000        0.000        2.048        2.088        2.798
     310.000  -240919.283    24606.007    14644.010    43458.522       97.506  -367885.814    44160.486       25.706       26.051        3.038        3.028        3.131        3.180        3.249        3.004        2.659        2.566        2.694        2.690        2.611        2.510        3.072        2.850        3.030        2.965        0.473        1.000        0.000        1.000        0.000        2.000        4.000        0.000        0.000        0.000        0.000        0.000        0.000        1.000        0.000        0.000        0.000        0.000        0.000        0.000        0.000        0.000        0.000        0.000        0.000        1.000        0.000        0.000        0.000        3.000        8.000        0.000        0.000        0.000        0.000        0.000      100.000        0.000        0.000        2.182        2.198        2.948
     320.000  -241138.797    24028.120    14445.237    43677.292       86.964  -368455.624    45079.215       25.786       26.015        2.990        3.070        3.200        3.186        3.217        3.044        2.680        2.536        2.664        2.671        2.567        2.524        3.028        2.929        3.027        2.922        0.490        2.000        0.000        2.000        0.000        2.000        3.000        0.000        0.000        0.000        0.000        0.000        0.000        1.000        0.000        0.000        0.000        0.000        0.000        0.000        0.000        0.000        0.000        0.000        0.000        2.000        0.000        1.000        0.000        0.000        8.000        1.000        0.000        0.000        0.000        0.000      100.000        0.000        0.000        1.929        1.941        2.751
     330.000  -241470.726    24906.237    14139.692    43513.660       83.851  -366312.983    42198.816       25.730       25.716        2.861        3.118        3.138        3.180        3.245        3.032        2.667        2.663        2.697        2.676        2.642        2.491        3.052        2.925        2.995        2.894        0.499        2.000        0.000        2.000        0.000        1.000        4.000        0.000        0.000        0.000        0.000        0.000        0.000        0.000        0.000        0.000        0.000        0.000        0.000        0.000        0.000        0.000        0.000        0.000        0.000        1.000        0.000        2.000        0.000        2.000        9.000        0.000        0.000        0.000        0.000        0.000      100.000        0.000        0.000        1.811        1.824        2.724
     340.000  -240823.616    23437.248    14517.013    43671.136       86.999  -368224.429    45688.417       25.576       25.922        2.915        3.000        3.168        3.186        3.233        3.059        2.724        2.588        2.652        2.666        2.610        2.544        3.071        2.910        3.039        2.876        0.487        2.000        0.000        2.000        0.000        1.000        2.000        0.000        0.000        1.000        0.000        0.000        0.000        1.000        0.000        0.000        0.000        0.000        0.000        0.000        0.000        0.000        0.000        0.000        0.000        2.000        0.000        1.000        0.000        4.000       10.000        1.000        0.000        0.000        0.000        0.000      100.000        0.000        0.000        2.223        2.287        2.991
     350.000  -240780.483    23839.362    14779.389    43502.259       85.070  -368062.529    45075.966       26.023       25.968        2.980        3.064        3.131        3.268        3.240        3.078        2.652        2.553        2.684        2.671        2.612        2.479        3.031        2.884        3.134        2.843        0.480        2.000        0.000        2.000        0.000        1.000        3.000        0.000        0.000        0.000        0.000        0.000        0.000        0.000        0.000        0.000        0.000        0.000        0.000        0.000        0.000        0.000        0.000        0.000        0.000        0.000        0.000        3.000        0.000        1.000       15.000        0.000        0.000        0.000        0.000        0.000      100.000        0.000        0.000        2.240        2.289        3.093
     360.000  -240464.397    24273.712    14443.016    43517.433      105.028  -367163.882    44360.296       25.850       26.098        2.810        3.084        3.216        3.179        3.183        3.067        2.735        2.601        2.678        2.704        2.607        2.492        3.039        2.878        2.996        2.879        0.492        2.000        0.000        2.000        0.000        1.000        3.000        0.000        0.000        1.000        0.000        0.000        0.000        0.000        0.000        0.000        0.000        0.000        0.000        0.000        0.000        0.000        0.000        0.000        0.000        2.000        0.000        4.000        0.000        1.000       15.000        1.000        0.000        0.000        0.000        0.000      100.000        0.000        0.000        2.255        2.284        3.101
     370.000  -240140.341    25178.695    14488.316    43358.917       83.883  -366942.067    43691.914       25.792       25.891        2.897        3.091        3.153        3.215        3.255        3.056        2.667        2.543        2.694        2.672        2.597        2.461        2.988        2.911        3.046        2.865        0.492        2.000        0.000        2.000        0.000        1.000        4.000        0.000        0.000        1.000        0.000        0.000        0.000        0.000        1.000        0.000        0.000        0.000        0.000        0.000        0.000        0.000        0.000        0.000        0.000        1.000        0.000        0.000        0.000        2.000        8.000        1.000        0.000        0.000        0.000        0.000      100.000        0.000        0.000        2.336        2.349        3.245
     380.000  -240158.926    25222.973    14756.082    43498.460       96.341  -366534.728    42801.946       25.689       25.899        2.934        3.051        3.176        3.145        3.321        3.014        2.705        2.610        2.685        2.655        2.639        2.498        3.084        2.937        3.100        2.933        0.489        2.000        0.000        2.000        0.000        1.000        3.000        0.000        0.000        0.000        0.000        0.000        0.000        1.000        1.000        0.000        0.000        0.000        0.000        0.000        0.000        0.000        0.000        0.000        0.000        1.000        0.000        0.000        0.000        2.000        8.000        0.000        0.000        0.000        0.000        0.000      100.000        0.000        0.000        2.120        2.179        3.105
     390.000  -240655.910    24814.049    14862.727    43452.470      100.339  -367014.998    43129.504       25.993       25.952        2.905        3.078        3.138        3.256        3.243        3.035        2.718        2.571        2.672        2.701        2.633        2.510        3.054        2.971        3.082        2.847        0.499        1.000        0.000        2.000        0.000        1.000        3.000        0.000        0.000        0.000        0.000        0.000        0.000        0.000        0.000        0.000        0.000        0.000        0.000        0.000        0.000        0.000        0.000        0.000        0.000        1.000        0.000        2.000        0.000        1.000       13.000        1.000        0.000        0.000        0.000        0.000      100.000        0.000        0.000        1.934        1.955        2.935
     400.000  -240133.365    25030.293    14859.232    43376.531       69.745  -367341.820    43872.654       26.087       26.076        3.023        3.046        3.171        3.254        3.215        3.036        2.679        2.558        2.689        2.681        2.577        2.490        3.108        2.899        3.090        2.941        0.472        1.000        0.000        2.000        0.000        2.000        3.000        0.000        0.000        0.000        0.000        0.000        0.000        0.000        1.000        0.000        0.000        0.000        0.000        0.000        0.000        0.000        0.000        0.000        0.000        2.000        0.000        5.000        0.000        0.000       11.000        0.000        0.000        0.000        0.000        0.000      100.000        0.000        0.000        1.894        1.901        2.724
     410.000  -241103.286    25059.314    14642.451    43308.880       84.414  -367210.764    43012.419       25.707       26.006        3.003        3.073        3.117        3.192        3.222        3.012        2.648        2.526        2.712        2.696        2.586        2.516        3.045        2.962        3.020        2.901        0.496        2.000        0.000        2.000        0.000        1.000        2.000        0.000        0.000        0.000        0.000        0.000        0.000        0.000        0.000        0.000        0.000        0.000        0.000        0.000        0.000        0.000        0.000        0.000        0.000        0.000        0.000        1.000        0.000        1.000        5.000        1.000        0.000        0.000        0.000        0.000      100.000        0.000        0.000        1.766        1.747        2.702
     420.000  -240906.142    24691.101    14821.938    43515.784       94.286  -367324.816    43295.566       25.598       25.777        2.992        3.106        3.112        3.207        3.198        2.917        2.673        2.597        2.700        2.670        2.576        2.511        3.103        2.986        3.087        2.927        0.492        2.000        0.000        2.000        0.000        2.000        3.000        0.000        0.000        1.000        0.000        0.000        0.000        1.000        1.000        0.000        0.000        0.000        0.000        0.000        0.000        0.000        0.000        0.000        0.000        2.000        0.000        1.000        0.000        1.000        7.000        1.000        0.000        0.000        4.494        0.000       95.506        0.000        0.000        1.506        1.523        2.384
     430.000  -240946.190    25101.461    14755.297    43182.196      111.797  -366267.757    42170.815       26.028       25.910        3.068        3.086        3.197        3.302        3.202        3.012        2.693        2.524        2.672        2.681        2.634        2.546        3.035        2.926        3.075        2.913        0.487        2.000        0.000        1.000        0.000        1.000        4.000        0.000        0.000        0.000        0.000        0.000        0.000        1.000        2.000        0.000        0.000        0.000        0.000        0.000        0.000        0.000        0.000        0.000        0.000        1.000        0.000        1.000        0.000        1.000       13.000        1.000        0.000        0.000        0.000        0.000      100.000        0.000        0.000        1.549        1.556        2.278
     440.000  -241165.818    23975.800    14254.468    43287.009       95.781  -365646.021    42867.147       25.748       25.530        2.880        3.057        3.166        3.261        3.224        2.887        2.670        2.564        2.664        2.669        2.572        2.519        3.034        2.971        3.091        2.942        0.475        2.000        0.000        1.000        0.000        1.000        4.000        0.000        0.000        0.000        0.000        0.000        0.000        2.000        0.000        0.000        0.000        0.000        0.000        0.000        0.000        0.000        0.000        0.000        0.000        2.000        0.000        0.000        0.000        0.000        8.000        0.000        0.000        0.000        0.000        0.000      100.000        0.000        0.000        2.003        2.008        2.598
     450.000  -240446.503    24586.517    14633.928    43240.271       91.376  -366722.582    43723.987       25.963       25.647        2.938        3.018        3.105        3.246        3.213        2.972        2.642        2.598        2.700        2.668        2.590        2.489        3.017        2.878        3.072        2.957        0.482        2.000        0.000        1.000        0.000        2.000        3.000        0.000        0.000        0.000        0.000        0.000        0.000        0.000        0.000        0.000        0.000        0.000        0.000        0.000        0.000        0.000        0.000        0.000        0.000        2.000        0.000        5.000        0.000        2.000       10.000        0.000        0.000        0.000        0.000        0.000      100.000        0.000        0.000        2.130        2.134        2.594
     460.000  -240441.201    23580.973    14301.491    43297.842       87.956  -366214.679    44505.216       26.007       25.808        2.966        3.042        3.148        3.227        3.285        2.986        2.665        2.572        2.659        2.649        2.582        2.521        3.055        2.921        3.031        2.984        0.495        2.000        0.000        0.000        0.000        2.000        2.000        0.000        0.000        1.000        0.000        0.000        0.000        0.000        1.000        0.000        0.000        0.000        0.000        0.000        0.000        0.000        0.000        0.000        0.000        1.000        0.000        1.000        0.000        1.000       11.000        1.000        0.000        0.000        0.000        0.000      100.000        0.000        0.000        2.084        2.098        2.728
     470.000  -240050.067    25320.126    14516.265    43147.109       75.730  -366258.265    43148.966       26.016       25.951        2.998        2.984        3.174        3.218        3.252        2.974        2.707        2.603        2.697        2.666        2.593        2.424        3.100        2.941        3.068        3.007        0.494        2.000        0.000        1.000        0.000        2.000        2.000        0.000        0.000        0.000        0.000        0.000        0.000        1.000        0.000        0.000        0.000        0.000        0.000        0.000        0.000        0.000        0.000        0.000        0.000        0.000        0.000        0.000        0.000        2.000       13.000        1.000        0.000        0.000        0.000        0.000      100.000        0.000        0.000        2.169        2.192        2.697
     480.000  -240713.635    24744.475    14547.498    43199.129       93.340  -366195.766    42897.689       25.934       25.737        3.035        3.027        3.169        3.238        3.222        3.043        2.700        2.587        2.655        2.683        2.582        2.537        3.101        2.955        3.008        2.917        0.484        2.000        0.000        1.000        0.000        2.000        3.000        0.000        0.000        0.000        0.000        0.000        0.000        2.000        0.000        0.000        0.000        0.000        0.000        0.000        0.000        0.000        0.000        0.000        0.000        0.000        0.000        3.000        0.000        1.000       12.000        1.000        0.000        0.000        4.494        0.000       95.506        0.000        0.000        2.182        2.228        2.640
     490.000  -240522.593    24056.888    14497.264    43362.665       83.122  -366606.735    44084.203       26.118       25.781        2.931        3.039        3.168        3.254        3.229        3.045        2.685        2.568        2.658        2.666        2.598        2.486        3.068        2.979        3.042        2.952        0.486        2.000        0.000        2.000        0.000        2.000        3.000        0.000        0.000        0.000        0.000        0.000        0.000        1.000        0.000        0.000        0.000        0.000        0.000        0.000        0.000        0.000        0.000        0.000        0.000        1.000        0.000        0.000        0.000        1.000       10.000        1.000        0.000        0.000        0.000        0.000      100.000        0.000        0.000        1.987        2.031        2.551
     500.000  -239773.704    23220.683    14285.463    43388.259       95.366  -366215.592    45452.117       25.683       25.539        3.012        3.045        3.199        3.298        3.276        3.023        2.679        2.632        2.716        2.667        2.594        2.514        3.027        2.951        3.090        3.017        0.494        2.000        0.000        2.000        0.000        2.000        3.000        0.000        0.000        0.000        0.000        0.000        0.000        1.000        1.000        0.000        0.000        0.000        0.000        0.000        0.000        0.000        0.000        0.000        0.000        2.000        0.000        3.000        0.000        1.000        7.000        2.000        0.000        0.000        4.494        0.000       95.506        0.000        0.000        1.895        1.917        2.665
     510.000  -240457.771    23677.200    14519.646    43391.513       81.641  -366723.165    44595.393       25.909       25.788        2.931        3.051        3.152        3.248        3.237        3.011        2.683        2.552        2.719        2.640        2.624        2.523        3.009        2.935        3.076        2.969        0.477        2.000        0.000        2.000        0.000        2.000        3.000        0.000        0.000        1.000        0.000        0.000        0.000        1.000        1.000        0.000        0.000        0.000        0.000        0.000        0.000        0.000        0.000        0.000        0.000        0.000        0.000        2.000        0.000        1.000        7.000        0.000        0.000        0.000        0.000        0.000      100.000        0.000        0.000        2.158        2.207        2.986
     520.000  -240087.253    24219.631    14796.797    43190.746       58.045  -365711.237    43358.764       25.773       25.461        2.928        3.076        3.112        3.259        3.211        3.068        2.662        2.522        2.670        2.676        2.616        2.533        2.997        2.917        3.072        2.938        0.481        2.000        0.000        2.000        0.000        2.000        4.000        0.000        0.000        0.000        0.000        0.000        0.000        0.000        0.000        0.000        0.000        0.000        0.000        0.000        0.000        0.000        0.000        0.000        0.000        0.000        0.000        1.000        0.000        1.000       12.000        0.000        0.000        0.000        0.000        0.000      100.000        0.000        0.000        2.121        2.161        3.046
     530.000  -240109.979    23698.773    14435.974    43348.098       81.425  -364339.941    42665.692       25.984       25.899        2.970        3.102        3.164        3.253        3.245        3.031        2.714        2.578        2.718        2.691        2.624        2.503        3.122        2.996        3.109        2.978        0.498        2.000        0.000        2.000        0.000        2.000        5.000        0.000        0.000        0.000        0.000        0.000        0.000        1.000        1.000        0.000        0.000        0.000        0.000        0.000        0.000        0.000        0.000        0.000        0.000        3.000        0.000        1.000        0.000        0.000        5.000        1.000        0.000        0.000        0.000        0.000      100.000        0.000        0.000        2.169        2.177        3.134
     540.000  -240162.906    23880.860    14577.465    43277.318       93.447  -365365.533    43373.538       25.997       25.788        3.019        3.075        3.166        3.195        3.247        2.988        2.670        2.571        2.703        2.694        2.599        2.549        3.129        3.001        3.032        2.984        0.474        2.000        0.000        2.000        0.000        2.000        4.000        0.000        0.000        0.000        0.000        0.000        0.000        1.000        0.000        0.000        0.000        0.000        0.000        0.000        0.000        0.000        0.000        0.000        0.000        2.000        0.000        0.000        0.000        2.000       10.000        0.000        0.000        0.000        0.000        0.000      100.000        0.000        0.000        2.228        2.240        3.013
     550.000  -240442.525    23333.237    14653.654    43443.495       82.561  -366266.537    44311.066       25.960       25.838        2.807        3.010        3.106        3.221        3.208        2.963        2.697        2.513        2.710        2.665        2.606        2.495        3.077        3.084        3.026        2.941        0.500        1.000        0.000        2.000        0.000        2.000        3.000        0.000        0.000        1.000        0.000        0.000        0.000        0.000        1.000        0.000        0.000        0.000        0.000        0.000        0.000        0.000        0.000        0.000        0.000        2.000        0.000        0.000        0.000        1.000       11.000        2.000        0.000        0.000        0.000        0.000      100.000        0.000        0.000        2.086        2.085        2.772
     560.000  -240205.129    23559.647    14449.472    43630.106       99.756  -365682.753    43738.643       25.479       25.261        2.882        3.038        3.159        3.258        3.238        3.007        2.687        2.489        2.669        2.667        2.611        2.511        3.014        3.018        3.029        2.988        0.502        2.000        0.000        2.000        0.000        2.000        2.000        0.000        0.000        0.000        0.000        0.000        0.000        0.000        0.000        0.000        0.000        0.000        0.000        0.000        0.000        0.000        0.000        0.000        0.000        2.000        0.000        1.000        0.000        0.000       12.000        0.000        0.000        0.000        0.000        0.000      100.000        0.000        0.000        1.821        1.821        2.634
     570.000  -240224.460    23893.741    14526.695    43549.761      101.722  -365900.416    43604.037       25.842       25.593        2.934        3.055        3.140        3.227        3.196        3.041        2.686        2.555        2.691        2.689        2.530        2.552        3.133        3.109        3.034        3.002        0.482        2.000        0.000        1.000        0.000        2.000        2.000        0.000        0.000        1.000        0.000        0.000        0.000        0.000        1.000        0.000        0.000        0.000        0.000        0.000        0.000        0.000        0.000        0.000        0.000        2.000        0.000        1.000        0.000        1.000       10.000        0.000        0.000        0.000        0.000        0.000      100.000        0.000        0.000        1.710        1.749        2.469
     580.000  -240596.043    24115.479    14530.073    43610.535       88.985  -366367.018    43425.903       25.745       25.501        2.912        3.025        3.145        3.209        3.272        3.004        2.709        2.515        2.700        2.690        2.590        2.495        3.124        2.994        3.056        2.964        0.492        2.000        0.000        1.000        0.000        2.000        4.000        0.000        0.000        0.000        0.000        0.000        0.000        0.000        1.000        0.000        0.000        0.000        0.000        0.000        0.000        0.000        0.000        0.000        0.000        1.000        0.000        1.000        0.000        1.000       10.000        1.000        0.000        0.000        0.000        0.000      100.000        0.000        0.000        1.754        1.740        2.569
     590.000  -240475.360    24904.170    14657.038    43413.631       88.889  -366273.182    42734.094       26.052       25.788        3.004        3.129        3.103        3.206        3.299        2.929        2.694        2.540        2.698        2.653        2.583        2.507        3.160        2.944        3.024        3.041        0.479        2.000        0.000        1.000        0.000        2.000        4.000        0.000        0.000        0.000        0.000        0.000        0.000        1.000        1.000        0.000        0.000        0.000        0.000        0.000        0.000        0.000        0.000        0.000        0.000        2.000        0.000        1.000        0.000        2.000        7.000        1.000        0.000        0.000        0.000        0.000      100.000        0.000        0.000        1.799        1.830        2.686
     600.000  -239725.603    23806.650    14326.038    43468.306       93.156  -365436.319    44016.566       25.808       25.852        2.988        3.030        3.153        3.204        3.263        3.004        2.675        2.463        2.695        2.649        2.598        2.508        3.022        2.997        3.043        3.006        0.476        2.000        0.000        2.000        0.000        2.000        4.000        0.000        0.000        0.000        0.000        0.000        0.000        0.000        0.000        0.000        0.000        0.000        0.000        0.000        0.000        0.000        0.000        0.000        0.000        2.000        0.000        0.000        0.000        1.000       10.000        1.000        0.000        0.000        0.000        0.000      100.000        0.000        0.000        1.758        1.817        2.665
     610.000  -239589.484    22794.376    14345.937    43297.842       83.362  -364998.478    44887.477       25.687       25.757        2.904        3.085        3.142        3.304        3.210        3.037        2.705        2.531        2.698        2.699        2.622        2.495        3.129        2.904        3.121        3.045        0.493        2.000        0.000        1.000        0.000        2.000        3.000        0.000        0.000        0.000        0.000        0.000        0.000        1.000        0.000        0.000        0.000        0.000        0.000        0.000        0.000        0.000        0.000        0.000        0.000        1.000        0.000        0.000        0.000        1.000       10.000        0.000        0.000        0.000        4.494        0.000       95.506        0.000        0.000        1.826        1.848        2.855
     620.000  -239807.724    24819.856    14407.865    43186.271       81.864  -363669.333    41365.754       25.981       25.833        2.938        3.044        3.160        3.309        3.241        2.932        2.683        2.540        2.703        2.711        2.651        2.567        3.074        2.998        3.015        3.018        0.483        1.000        0.000        2.000        0.000        2.000        3.000        0.000        0.000        0.000        0.000        0.000        0.000        0.000        2.000        0.000        0.000        0.000        0.000        0.000        0.000        0.000        0.000        0.000        0.000        0.000        0.000        1.000        0.000        1.000        8.000        0.000        0.000        0.000        4.494        0.000       95.506        0.000        0.000        1.929        1.952        2.675
     630.000  -240018.269    23884.992    14387.420    43593.317       71.071  -366319.916    44364.847       25.764       25.399        2.940        2.987        3.095        3.245        3.295        2.981        2.639        2.481        2.690        2.647        2.630        2.454        3.057        3.006        3.118        2.969        0.508        2.000        0.000        2.000        0.000        2.000        3.000        0.000        0.000        0.000        0.000        0.000        0.000        2.000        0.000        0.000        0.000        0.000        0.000        0.000        0.000        0.000        0.000        0.000        0.000        1.000        0.000        1.000        0.000        2.000        5.000        0.000        0.000        0.000        0.000        0.000      100.000        0.000        0.000        1.918        1.934        2.777
     640.000  -240024.713    24613.608    14553.936    43348.911      113.101  -366291.260    43636.991       25.910       25.871        3.008        3.026        3.183        3.209        3.227        2.982        2.644        2.575        2.677        2.693        2.637        2.483        2.981        2.999        3.074        2.963        0.477        2.000        0.000        2.000        0.000        2.000        3.000        0.000        0.000        0.000        0.000        0.000        0.000        1.000        0.000        0.000        0.000        0.000        0.000        0.000        0.000        0.000        0.000        0.000        0.000        1.000        0.000        0.000        0.000        1.000        4.000        0.000        0.000        0.000        0.000        0.000      100.000        0.000        0.000        1.935        1.963        2.648
     650.000  -240039.422    24510.262    14292.015    43364.097      122.139  -365111.223    42783.287       26.170       25.788        2.823        3.064        3.111        3.295        3.129        3.113        2.653        2.528        2.693        2.692        2.640        2.506        3.058        2.953        3.023        2.965        0.480        2.000        0.000        2.000        0.000        2.000        4.000        0.000        0.000        0.000        0.000        0.000        0.000        2.000        0.000        0.000        0.000        0.000        0.000        0.000        0.000        0.000        0.000        0.000        0.000        0.000        0.000        0.000        0.000        1.000        9.000        2.000        0.000        0.000        0.000        0.000      100.000        0.000        0.000        2.214        2.246        2.813
     660.000  -239651.240    23231.675    14633.950    43389.694       87.285  -365336.369    44342.525       25.982       25.553        2.873        3.068        3.131        3.269        3.258        3.020        2.714        2.480        2.626        2.636        2.588        2.539        3.002        3.097        3.011        2.940        0.481        2.000        0.000        1.000        0.000        2.000        3.000        0.000        0.000        0.000        0.000        0.000        0.000        0.000        1.000        0.000        0.000        0.000        0.000        0.000        0.000        0.000        0.000        0.000        0.000        1.000        0.000        0.000        0.000        1.000        8.000        0.000        0.000        0.000        0.000        0.000      100.000        0.000        0.000        2.091        2.112        2.725
     670.000  -240132.761    24804.979    14189.818    43372.679       78.271  -364977.676    42399.168       25.747       25.345        2.859        3.029        3.166        3.160        3.252        3.036        2.666        2.495        2.605        2.680        2.636        2.539        3.027        2.938        3.003        2.979        0.491        2.000        0.000        2.000        0.000        2.000        2.000        0.000        0.000        0.000        0.000        0.000        0.000        0.000        1.000        0.000        0.000        0.000        0.000        0.000        0.000        0.000        0.000        0.000        0.000        1.000        0.000        1.000        0.000        1.000        9.000        1.000        0.000        0.000        0.000        0.000      100.000        0.000        0.000        1.826        1.843        2.558
     680.000  -239652.551    23661.074    14648.226    43310.302       96.654  -364608.018    43239.211       25.732       25.586        2.818        3.101        3.156        3.185        3.250        3.121        2.638        2.496        2.672        2.654        2.601        2.537        3.086        2.984        3.122        3.026        0.488        2.000        0.000        1.000        0.000        2.000        3.000        0.000        0.000        0.000        0.000        0.000        0.000        0.000        1.000        0.000        0.000        0.000        0.000        0.000        0.000        0.000        0.000        0.000        0.000        1.000        0.000        1.000        0.000        1.000       12.000        1.000        0.000        0.000        0.000        0.000      100.000        0.000        0.000        2.282        2.298        2.711
     690.000  -240112.836    22485.227    14379.589    43350.238       82.226  -364621.517    44211.399       25.745       25.651        2.887        3.123        3.120        3.293        3.232        3.035        2.691        2.520        2.639        2.708        2.597        2.487        3.115        2.975        3.069        2.998        0.472        2.000        0.000        1.000        0.000        2.000        3.000        0.000        0.000        0.000        0.000        0.000        0.000        1.000        2.000        0.000        0.000        0.000        0.000        0.000        0.000        0.000        0.000        0.000        0.000        1.000        0.000        0.000        0.000        1.000       15.000        1.000        0.000        0.000        0.000        0.000      100.000        0.000        0.000        2.171        2.179        2.645
     700.000  -239937.708    23629.812    14653.294    43479.873       81.678  -365563.072    43780.707       26.008       25.681        2.929        2.974        3.185        3.259        3.245        2.984        2.650        2.556        2.670        2.645        2.600        2.530        3.094        3.033        3.040        2.960        0.510        2.000        0.000        2.000        0.000        2.000        2.000        0.000        0.000        0.000        0.000        0.000        0.000        0.000        1.000        0.000        0.000        0.000        0.000        0.000        0.000        0.000        0.000        0.000        0.000        0.000        0.000        0.000        0.000        2.000        6.000        0.000        0.000        0.000        0.000        0.000      100.000        0.000        0.000        1.936        1.981        2.338
     710.000  -240216.504    23742.560    14536.171    43422.080      100.889  -366153.250    44135.045       26.279       25.651        2.953        3.054        3.184        3.246        3.254        3.001        2.664        2.527        2.657        2.650        2.597        2.493        3.099        3.020        3.076        2.988        0.472        2.000        0.000        2.000        0.000        1.000        3.000        0.000        0.000        0.000        0.000        0.000        0.000        0.000        0.000        0.000        0.000        0.000        0.000        0.000        0.000        0.000        0.000        0.000        0.000        0.000        0.000        0.000        0.000        2.000        8.000        0.000        0.000        0.000        0.000        0.000      100.000        0.000        0.000        1.795        1.839        2.236
     720.000  -240386.988    23428.397    14430.600    43068.319       97.017  -365613.448    44202.127       26.563       26.073        2.813        2.926        3.142        3.187        3.268        2.974        2.686        2.561        2.636        2.652        2.571        2.521        3.107        3.060        3.042        2.995        0.500        2.000        0.000        1.000        0.000        2.000        3.000        0.000        0.000        1.000        0.000        0.000        0.000        0.000        1.000        0.000        0.000        0.000        0.000        0.000        0.000        0.000        0.000        0.000        0.000        0.000        0.000        1.000        0.000        1.000       13.000        0.000        0.000        0.000        0.000        0.000      100.000        0.000        0.000        2.026        2.039        2.426
     730.000  -240328.364    23782.196    14656.101    43365.686       84.021  -366054.634    43838.266       26.351       25.864        2.955        3.050        3.136        3.237        3.274        2.925        2.701        2.555        2.623        2.695        2.599        2.477        3.090        3.079        3.093        2.987        0.474        2.000        0.000        2.000        0.000        2.000        3.000        0.000        0.000        0.000        0.000        0.000        0.000        0.000        2.000        0.000        0.000        0.000        0.000        0.000        0.000        0.000        0.000        0.000        0.000        1.000        0.000        0.000        0.000        1.000       13.000        0.000        0.000        0.000        4.494        0.000       95.506        0.000        0.000        1.931        1.942        2.346
     740.000  -239649.753    23859.715    14647.484    43403.663       87.716  -364450.916    42802.584       26.136       25.795        2.926        3.023        3.201        3.193        3.188        2.958        2.719        2.622        2.662        2.648        2.616        2.496        3.059        2.980        2.968        2.930        0.495        2.000        0.000        0.000        0.000        2.000        3.000        0.000        0.000        0.000        0.000        0.000        0.000        1.000        0.000        0.000        0.000        0.000        0.000        0.000        0.000        0.000        0.000        0.000        0.000        1.000        0.000        0.000        0.000        1.000        8.000        0.000        0.000        0.000        0.000        0.000      100.000        0.000        0.000        1.746        1.755        2.447
     750.000  -239561.176    23318.816    14348.121    43621.615      110.472  -365407.653    44447.451       25.768       25.680        2.895        3.061        3.108        3.188        3.213        3.071        2.626        2.510        2.683        2.627        2.599        2.468        3.038        3.019        3.020        3.015        0.477        2.000        0.000        1.000        0.000        2.000        2.000        0.000        0.000        0.000        0.000        0.000        0.000        1.000        3.000        0.000        0.000        0.000        0.000        0.000        0.000        0.000        0.000        0.000        0.000        0.000        0.000        0.000        0.000        1.000       14.000        0.000        0.000        0.000        0.000        0.000      100.000        0.000        0.000        1.919        1.933        2.645
     760.000  -239682.840    24073.395    14685.471    43635.775       99.916  -365230.424    43053.028       26.043       25.715        2.966        3.019        3.166        3.191        3.279        2.960        2.643        2.572        2.704        2.654        2.617        2.461        3.018        3.054        3.075        2.906        0.469        2.000        0.000        2.000        0.000        2.000        3.000        0.000        0.000        0.000        0.000        0.000        0.000        0.000        1.000        0.000        0.000        0.000        0.000        0.000        0.000        0.000        0.000        0.000        0.000        2.000        0.000        1.000        0.000        1.000       10.000        0.000        0.000        0.000        0.000        0.000      100.000        0.000        0.000        1.903        1.894        2.760
     770.000  -240044.566    23057.982    14438.420    43252.319       83.130  -365352.074    44475.656       26.043       25.789        2.947        3.056        3.141        3.257        3.212        2.999        2.676        2.540        2.703        2.677        2.584        2.527        3.066        3.043        3.096        2.945        0.474        2.000        0.000        2.000        0.000        2.000        2.000        0.000        0.000        0.000        0.000        0.000        0.000        1.000        1.000        0.000        0.000        0.000        0.000        0.000        0.000        0.000        0.000        0.000        0.000        0.000        0.000        2.000        0.000        2.000        6.000        3.000        0.000        0.000        0.000        0.000      100.000        0.000        0.000        1.704        1.730        2.613
     780.000  -240209.784    22932.850    14794.578    43252.116       76.379  -366671.891    45406.182       25.726       25.604        2.944        3.071        3.133        3.207        3.225        3.079        2.675        2.505        2.714        2.703        2.615        2.496        3.035        2.979        3.041        2.952        0.467        2.000        0.000        2.000        0.000        2.000        3.000        0.000        0.000        0.000        0.000        0.000        0.000        1.000        1.000        0.000        0.000        0.000        0.000        0.000        0.000        0.000        0.000        0.000        0.000        4.000        0.000        1.000        0.000        2.000       11.000        0.000        0.000        0.000        0.000        0.000      100.000        0.000        0.000        1.669        1.681        2.585
     790.000  -240833.499    23284.919    14509.988    43477.874      114.839  -366471.638    44250.518       25.589       25.692        2.941        3.034        3.098        3.175        3.317        3.119        2.628        2.576        2.692        2.714        2.627        2.503        3.106        3.016        3.102        2.957        0.494        1.000        0.000        2.000        0.000        2.000        2.000        0.000        0.000        0.000        0.000        0.000        0.000        1.000        0.000        0.000        0.000        0.000        0.000        0.000        0.000        0.000        0.000        0.000        0.000        2.000        0.000        2.000        0.000        1.000       10.000        1.000        0.000        0.000        0.000        0.000      100.000        0.000        0.000        1.904        1.927        2.871
     800.000  -240039.027    24594.590    14423.793    43164.003       88.941  -365065.155    42754.801       25.759       25.729        3.009        3.130        3.118        3.244        3.264        3.040        2.622        2.523        2.731        2.727        2.639        2.529        3.144        3.030        3.066        3.016        0.487        2.000        0.000        1.000        0.000        2.000        5.000        0.000        0.000        0.000        0.000        0.000        0.000        0.000        2.000        0.000        0.000        0.000        0.000        0.000        0.000        0.000        0.000        0.000        0.000        0.000        0.000        0.000        0.000        1.000        5.000        0.000        0.000        0.000        0.000        0.000      100.000        0.000        0.000        1.993        2.002        2.801
     810.000  -239601.255    23862.495    14722.199    43215.102       85.743  -364824.208    43337.413       25.620       25.622        2.921        3.107        3.087        3.136        3.223        3.034        2.707        2.562        2.698        2.687        2.641        2.470        3.111        2.959        3.020        2.987        0.486        2.000        0.000        1.000        0.000        2.000        2.000        0.000        0.000        0.000        0.000        0.000        0.000        1.000        2.000        0.000        0.000        0.000        0.000        0.000        0.000        0.000        0.000        0.000        0.000        2.000        0.000        2.000        0.000        1.000        4.000        1.000        0.000        0.000        0.000        0.000      100.000        0.000        0.000        1.874        1.882        2.789
     820.000  -238825.144    22818.229    14637.207    43504.871       74.959  -364265.054    44404.645       25.872       25.917        3.012        2.981        3.131        3.266        3.238        3.036        2.696        2.559        2.694        2.691        2.597        2.466        3.043        3.002        2.992        3.036        0.473        2.000        0.000        1.000        0.000        2.000        3.000        0.000        0.000        0.000        0.000        0.000        0.000        1.000        0.000        0.000        0.000        0.000        0.000        0.000        0.000        0.000        0.000        0.000        0.000        1.000        0.000        1.000        0.000        2.000        7.000        0.000        0.000        0.000        0.000        0.000      100.000        0.000        0.000        1.685        1.675        2.462
     830.000  -239803.277    24144.477    14950.106    43174.035      102.855  -365130.409    42955.660       25.633       25.703        2.941        3.090        3.162        3.231        3.195        2.973        2.697        2.536        2.707        2.699        2.594        2.493        3.043        2.979        3.038        2.981        0.470        2.000        0.000        1.000        0.000        2.000        3.000        0.000        0.000        0.000        0.000        0.000        0.000        1.000        0.000        0.000        0.000        0.000        0.000        0.000        0.000        0.000        0.000        0.000        0.000        2.000        0.000        0.000        0.000        1.000       14.000        1.000        0.000        0.000        0.000        0.000      100.000        0.000        0.000        1.869        1.834        2.922
     840.000  -240278.919    23132.963    14244.594    43640.055       73.417  -366153.102    44783.155       25.609       25.687        2.888        2.981        3.178        3.172        3.200        2.951        2.674        2.485        2.683        2.715        2.594        2.490        3.028        3.024        3.026        3.033        0.481        2.000        0.000        1.000        0.000        2.000        3.000        0.000        0.000        0.000        0.000        0.000        0.000        1.000        2.000        0.000        0.000        0.000        0.000        0.000        0.000        0.000        0.000        0.000        0.000        0.000        0.000        1.000        0.000        2.000        8.000        0.000        0.000        0.000        0.000        0.000      100.000        0.000        0.000        1.646        1.655        2.733
     850.000  -239393.439    23359.541    14414.502    43591.789      101.291  -365909.591    45049.029       25.914       25.971        2.918        3.006        3.144        3.242        3.240        3.022        2.682        2.505        2.690        2.725        2.615        2.527        3.081        3.015        3.045        2.996        0.495        1.000        0.000        2.000        0.000        2.000        3.000        0.000        0.000        0.000        0.000        0.000        0.000        0.000        0.000        0.000        0.000        0.000        0.000        0.000        0.000        0.000        0.000        0.000        0.000        1.000        0.000        1.000        0.000        1.000        6.000        0.000        0.000        0.000        0.000        0.000      100.000        0.000        0.000        1.785        1.780        2.804
     860.000  -239769.825    23253.326    14344.353    43423.693       79.347  -365660.122    44789.578       25.774       25.996        2.925        3.007        3.162        3.169        3.335        3.032        2.774        2.561        2.713        2.665        2.572        2.486        3.044        2.959        3.015        2.953        0.489        2.000        0.000        1.000        0.000        2.000        2.000        0.000        0.000        0.000        0.000        0.000        0.000        1.000        1.000        0.000        0.000        0.000        0.000        0.000        0.000        0.000        0.000        0.000        0.000        1.000        0.000        0.000        0.000        0.000        8.000        0.000        0.000        0.000        0.000        0.000      100.000        0.000        0.000        1.917        1.928        2.768
     870.000  -239747.971    23618.315    14517.135    43526.224       77.771  -364953.608    43466.192       25.928       25.833        2.939        2.985        3.172        3.118        3.271        3.102        2.670        2.536        2.609        2.745        2.595        2.437        3.081        2.998        3.046        2.981        0.486        2.000        0.000        2.000        0.000        2.000        1.000        0.000        0.000        0.000        0.000        0.000        0.000        1.000        0.000        0.000        0.000        0.000        0.000        0.000        0.000        0.000        0.000        0.000        0.000        1.000        0.000        2.000        0.000        3.000       11.000        1.000        0.000        0.000        0.000        0.000      100.000        0.000        0.000        1.897        1.928        2.903
     880.000  -240237.620    23582.807    14158.941    43728.951       80.662  -365606.032    43817.051       25.602       25.835        2.985        3.007        3.157        3.204        3.292        3.064        2.660        2.546        2.604        2.656        2.584        2.424        3.099        2.962        3.068        2.989        0.469        2.000        0.000        1.000        0.000        2.000        3.000        0.000        0.000        0.000        0.000        0.000        0.000        1.000        1.000        0.000        0.000        0.000        0.000        0.000        0.000        0.000        0.000        0.000        0.000        0.000        0.000        1.000        0.000        2.000        8.000        1.000        0.000        0.000        0.000        0.000      100.000        0.000        0.000        2.129        2.129        3.085
     890.000  -240081.499    24548.839    14662.943    43452.971       61.079  -366279.583    43472.252       25.665       25.890        2.962        3.114        3.094        3.243        3.201        3.064        2.694        2.504        2.638        2.700        2.602        2.510        3.117        2.990        3.058        2.984        0.497        2.000        0.000        1.000        0.000        2.000        2.000        0.000        0.000        2.000        0.000        0.000        0.000        0.000        2.000        0.000        0.000        0.000        0.000        0.000        0.000        0.000        0.000        0.000        0.000        0.000        0.000        1.000        0.000        2.000        6.000        0.000        0.000        0.000        0.000        0.000      100.000        0.000        0.000        1.951        1.932        3.006
     900.000  -240582.078    23883.187    14218.437    43414.027       89.407  -366013.916    43826.780       25.779       25.988        2.932        3.052        3.174        3.228        3.262        2.960        2.682        2.564        2.651        2.679        2.631        2.496        3.088        3.049        3.020        3.021        0.487        2.000        0.000        1.000        0.000        2.000        2.000        0.000        0.000        0.000        0.000        0.000        0.000        1.000        2.000        0.000        0.000        0.000        0.000        0.000        0.000        0.000        0.000        0.000        0.000        1.000        0.000        1.000        0.000        1.000       16.000        1.000        0.000        0.000        0.000        0.000      100.000        0.000        0.000        1.882        1.876        3.052
     910.000  -240263.781    24100.626    14889.224    43227.839      106.557  -366036.121    43448.094       26.028       26.175        2.938        3.071        3.174        3.224        3.265        2.986        2.687        2.546        2.658        2.690        2.618        2.536        3.033        3.007        2.954        3.040        0.467        2.000        0.000        0.000        0.000        2.000        4.000        0.000        0.000        0.000        0.000        0.000        0.000        1.000        0.000        0.000        0.000        0.000        0.000        0.000        0.000        0.000        0.000        0.000        0.000        2.000        0.000        0.000        0.000        2.000        8.000        1.000        0.000        0.000        0.000        0.000      100.000        0.000        0.000        1.946        1.952        2.944
     920.000  -240523.694    23714.002    14628.902    43298.575       74.276  -366523.520    44284.072       25.928       26.250        2.755        3.021        3.158        3.168        3.238        3.010        2.705        2.565        2.654        2.636        2.627        2.476        3.113        3.072        2.998        3.028        0.481        2.000        0.000        1.000        0.000        2.000        2.000        0.000        0.000        0.000        0.000        0.000        0.000        0.000        1.000        0.000        0.000        0.000        0.000        0.000        0.000        0.000        0.000        0.000        0.000        0.000        0.000        1.000        0.000        0.000       10.000        0.000        0.000        0.000        0.000        0.000      100.000        0.000        0.000        2.237        2.243        3.289
     930.000  -240649.753    22989.222    14515.261    43456.901      113.676  -365701.878    43977.065       25.547       25.865        2.835        3.051        3.105        3.149        3.211        3.023        2.709        2.557        2.641        2.652        2.632        2.535        3.096        3.002        3.000        2.963        0.507        2.000        0.000        1.000        0.000        2.000        3.000        0.000        0.000        0.000        0.000        0.000        0.000        1.000        0.000        0.000        0.000        0.000        0.000        0.000        0.000        0.000        0.000        0.000        0.000        1.000        0.000        1.000        0.000        2.000        9.000        0.000        0.000        0.000        0.000        0.000      100.000        0.000        0.000        1.959        1.962        3.320
     940.000  -240906.572    23490.060    14145.842    43533.830       87.870  -366459.271    44295.098       25.534       25.785        2.908        3.053        3.132        3.197        3.276        3.047        2.724        2.468        2.666        2.670        2.619        2.551        3.101        3.029        2.990        3.000        0.503        2.000        0.000        1.000        0.000        2.000        2.000        0.000        0.000        1.000        0.000        0.000        0.000        0.000        0.000        1.000        0.000        0.000        0.000        0.000        0.000        0.000        0.000        0.000        0.000        0.000        0.000        4.000        0.000        1.000        9.000        0.000        0.000        0.000        0.000        0.000      100.000        0.000        0.000        1.771        1.772        3.104
     950.000  -239668.060    23872.572    14968.066    43368.746      106.546  -365558.294    43574.305       25.884       26.289        2.864        3.100        3.161        3.207        3.299        3.035        2.669        2.573        2.674        2.600        2.581        2.508        3.076        2.993        2.978        2.946        0.480        2.000        0.000        1.000        0.000        2.000        3.000        0.000        0.000        0.000        0.000        0.000        0.000        0.000        1.000        0.000        0.000        0.000        0.000        0.000        0.000        0.000        0.000        0.000        0.000        1.000        0.000        2.000        0.000        1.000        9.000        1.000        0.000        0.000        0.000        0.000      100.000        0.000        0.000        2.050        2.055        3.022
     960.000  -240232.783    24517.674    14693.216    43311.295       81.383  -366044.208    43207.857       25.982       26.086        3.017        3.023        3.160        3.256        3.285        2.959        2.711        2.522        2.642        2.611        2.635        2.491        3.116        3.065        2.999        2.946        0.500        2.000        0.000        1.000        0.000        2.000        3.000        0.000        0.000        0.000        0.000        0.000        0.000        0.000        1.000        0.000        0.000        0.000        0.000        0.000        0.000        0.000        0.000        0.000        0.000        0.000        0.000        1.000        0.000        1.000       13.000        2.000        0.000        0.000        0.000        0.000      100.000        0.000        0.000        2.026        2.009        2.802
     970.000  -240492.079    23690.042    14584.776    43382.263       84.090  -366933.023    44699.772       26.039       26.092        2.938        3.002        3.111        3.206        3.244        2.971        2.663        2.489        2.643        2.689        2.676        2.487        3.107        2.976        2.941        2.995        0.490        2.000        0.000        1.000        0.000        2.000        6.000        0.000        0.000        1.000        0.000        0.000        0.000        0.000        2.000        0.000        0.000        0.000        0.000        0.000        0.000        0.000        0.000        0.000        0.000        1.000        0.000        1.000        0.000        1.000        4.000        0.000        0.000        0.000        0.000        0.000      100.000        0.000        0.000        1.903        1.938        2.574
     980.000  -240652.900    24596.423    14443.430    43390.316       74.927  -366577.361    43419.365       26.021       26.189        2.972        3.078        3.151        3.101        3.228        3.109        2.701        2.508        2.670        2.658        2.663        2.517        3.112        3.037        3.090        2.985        0.470        2.000        0.000        1.000        0.000        2.000        5.000        0.000        0.000        0.000        0.000        0.000        0.000        1.000        0.000        0.000        0.000        0.000        0.000        0.000        0.000        0.000        0.000        0.000        0.000        0.000        0.000        1.000        0.000        1.000        7.000        0.000        0.000        0.000        0.000        0.000      100.000        0.000        0.000        1.857        1.894        2.493
     990.000  -240517.764    25075.305    14396.524    43241.899       89.322  -365899.739    42578.925       26.205       26.158        2.940        3.054        3.086        3.231        3.245        2.978        2.665        2.482        2.695        2.670        2.616        2.553        3.137        2.998        2.999        2.985        0.488        2.000        0.000        1.000        0.000        2.000        4.000        0.000        0.000        0.000        0.000        0.000        0.000        0.000        2.000        0.000        0.000        0.000        0.000        0.000        0.000        0.000        0.000        0.000        0.000        0.000        0.000        1.000        0.000        2.000        6.000        0.000        0.000        0.000        0.000        0.000      100.000        0.000        0.000        2.309        2.340        2.759
    1000.000  -240654.299    24720.974    14437.508    43311.714      101.305  -366834.430    43608.630       25.991       26.038        2.916        3.046        3.160        3.240        3.154        3.039        2.686        2.465        2.670        2.664        2.631        2.468        3.038        2.984        2.983        2.992        0.464        2.000        0.000        1.000        0.000        2.000        4.000        0.000        0.000        1.000        0.000        0.000        0.000        1.000        1.000        0.000        0.000        0.000        0.000        0.000        0.000        0.000        0.000        0.000        0.000        1.000        0.000        6.000        0.000        1.000       12.000        0.000        0.000        0.000        0.000        0.000      100.000        0.000        0.000        2.117        2.142        2.593
     Average  -241949.308    24396.870    14574.860    43432.560       88.431  -368799.500    44357.471       25.901       25.840        2.953        3.049        3.153        3.214        3.245        3.019        2.683        2.542        2.676        2.674        2.599        2.508        3.063        2.969        3.045        2.948        0.486        1.871        0.000        1.495        0.000        1.663        3.356        0.000        0.000        0.188        0.000        0.000        0.000        0.515        0.683        0.010        0.000        0.000        0.000        0.000        0.000        0.000        0.000        0.000        0.000        1.079        0.000        1.366        0.000        1.307        8.960        0.505        0.000        0.000        0.267        0.000       99.733        0.000        0.000        1.840        1.860        2.530

