____Time[ps] Energy[ kJ/mol ]_____Bond _______Angle ____Dihedral ___Planarity _____Coulomb _________VdW _Your result _Your result _Your result _Your result _Your result _Your result _Your result _Your result _Your result _Your result _Your result _Your result _Your result _Your result _Your result _Your result _Your result _Your result _Your result _Your result _Your result _Your result _Your result _Your result _Your result _Your result _Your result _Your result _Your result _Your result _Your result _Your result _Your result _Your result _Your result _Your result _Your result _Your result _Your result _Your result _Your result _Your result _Your result _Your result _Your result _Your result _Your result _Your result _Your result _Your result _Your result _Your result _Your result _Your result _Your result _Your result _Your result _RMSDs[A]:CA ____Backbone __HeavyAtoms
       0.000  -308679.172     7495.314     4753.575    45516.892       10.221  -425486.912    59031.738       25.416       25.277        2.571        2.606        2.575        2.689        2.610        2.552        2.674        2.574        2.628        2.596        2.549        2.635        2.507        2.546        2.487        2.569        0.489        0.000        0.000        1.000        1.000        2.000        7.000        0.000        0.000        0.000        0.000        0.000        0.000        0.000        0.000        0.000        0.000        0.000        0.000        0.000        1.000        0.000        0.000        0.000        0.000        0.000        0.000        1.000        1.000        3.000       14.000        0.000        0.000        0.000        0.000        0.000      100.000        0.000        0.000        0.374        0.406        0.521
      10.000  -232795.232    26546.498    13862.424    45058.068       84.037  -362354.878    44008.618       25.903       25.825        2.539        2.597        2.577        2.696        2.483        2.557        2.660        2.585        2.629        2.692        2.554        2.644        2.458        2.588        2.467        2.594        0.461        1.000        0.000        1.000        1.000        2.000        7.000        0.000        0.000        0.000        0.000        0.000        0.000        0.000        2.000        1.000        0.000        0.000        0.000        0.000        0.000        0.000        0.000        0.000        0.000        0.000        0.000        0.000        1.000        3.000        9.000        0.000        0.000        0.000        0.000        0.000      100.000        0.000        0.000        0.992        1.025        1.181
      20.000  -231893.273    26567.434    14035.233    45045.506       69.348  -360094.320    42483.526       26.057       26.048        2.499        2.611        2.553        2.718        2.515        2.575        2.733        2.594        2.626        2.661        2.575        2.698        2.501        2.552        2.482        2.518        0.513        1.000        0.000        0.000        1.000        2.000        5.000        0.000        0.000        0.000        0.000        0.000        0.000        0.000        0.000        1.000        0.000        0.000        0.000        0.000        1.000        0.000        0.000        0.000        0.000        2.000        0.000        1.000        1.000        1.000       10.000        0.000        0.000        0.000        4.494        0.000       95.506        0.000        0.000        1.025        1.051        1.269
      30.000  -231214.965    26577.555    14275.117    44828.853       76.249  -359239.719    42266.979       26.254       26.425        2.560        2.602        2.587        2.701        2.511        2.575        2.710        2.617        2.589        2.644        2.608        2.662        2.500        2.591        2.497        2.590        0.507        1.000        0.000        0.000        1.000        3.000        7.000        0.000        0.000        0.000        0.000        0.000        1.000        0.000        1.000        0.000        0.000        0.000        0.000        0.000        1.000        0.000        0.000        0.000        0.000        0.000        0.000        0.000        0.000        2.000       10.000        0.000        0.000        0.000        0.000        0.000      100.000        0.000        0.000        1.455        1.471        1.661
      40.000  -231837.310    26097.857    13958.080    44707.681       63.808  -359663.399    42998.662       25.978       26.148        2.608        2.573        2.573        2.711        2.520        2.521        2.731        2.552        2.591        2.613        2.630        2.689        2.499        2.577        2.504        2.574        0.502        0.000        0.000        1.000        1.000        4.000        7.000        0.000        0.000        0.000        0.000        0.000        0.000        0.000        3.000        0.000        0.000        0.000        0.000        0.000        1.000        0.000        0.000        0.000        0.000        2.000        0.000        1.000        0.000        2.000       11.000        0.000        0.000        0.000        0.000        0.000      100.000        0.000        0.000        1.147        1.181        1.464
      50.000  -231586.014    25519.023    14344.759    44838.414       71.290  -358805.339    42445.839       25.936       26.037        2.564        2.591        2.552        2.632        2.479        2.538        2.710        2.551        2.615        2.649        2.632        2.668        2.511        2.561        2.551        2.561        0.498        0.000        0.000        1.000        1.000        2.000        5.000        0.000        0.000        0.000        0.000        0.000        1.000        0.000        1.000        0.000        0.000        0.000        0.000        0.000        1.000        0.000        0.000        0.000        0.000        1.000        0.000        0.000        3.000        0.000       11.000        0.000        0.000        0.000        0.000        0.000      100.000        0.000        0.000        1.414        1.472        1.634
      60.000  -231352.420    25243.043    14466.915    44903.867       79.239  -359383.736    43338.252       26.422       26.187        2.547        2.563        2.590        2.655        2.457        2.537        2.675        2.573        2.664        2.684        2.573        2.678        2.457        2.566        2.505        2.562        0.473        0.000        0.000        0.000        1.000        3.000        8.000        0.000        0.000        0.000        0.000        0.000        0.000        0.000        1.000        0.000        0.000        0.000        0.000        0.000        1.000        0.000        0.000        0.000        0.000        0.000        0.000        0.000        1.000        2.000       13.000        0.000        0.000        0.000        0.000        0.000      100.000        0.000        0.000        1.477        1.500        1.725
      70.000  -231205.630    25122.784    14454.260    44755.711       87.077  -356716.356    41090.893       26.162       25.974        2.624        2.579        2.482        2.657        2.459        2.565        2.726        2.610        2.637        2.696        2.597        2.648        2.549        2.577        2.552        2.526        0.492        1.000        0.000        0.000        1.000        3.000        7.000        0.000        0.000        0.000        0.000        0.000        0.000        0.000        4.000        0.000        0.000        0.000        0.000        0.000        0.000        0.000        0.000        0.000        0.000        0.000        0.000        0.000        1.000        2.000        8.000        1.000        0.000        0.000        0.000        0.000      100.000        0.000        0.000        1.514        1.523        1.813
      80.000  -230317.390    25501.721    14285.159    44829.408       69.903  -356942.386    41938.806       26.176       26.070        2.566        2.560        2.507        2.678        2.483        2.561        2.690        2.586        2.676        2.668        2.589        2.655        2.472        2.613        2.532        2.525        0.485        0.000        0.000        1.000        0.000        4.000        9.000        0.000        0.000        0.000        0.000        0.000        0.000        0.000        2.000        0.000        0.000        0.000        0.000        0.000        0.000        0.000        0.000        0.000        0.000        0.000        0.000        0.000        2.000        2.000       14.000        0.000        0.000        0.000        0.000        0.000      100.000        0.000        0.000        1.341        1.363        1.737
      90.000  -230477.670    23751.325    14579.617    44849.040       72.427  -356374.481    42644.402       26.182       25.867        2.555        2.572        2.500        2.686        2.492        2.521        2.667        2.551        2.599        2.684        2.603        2.669        2.450        2.545        2.494        2.583        0.491        0.000        0.000        0.000        1.000        3.000        7.000        0.000        0.000        0.000        0.000        0.000        0.000        0.000        0.000        0.000        0.000        0.000        0.000        0.000        1.000        0.000        0.000        0.000        0.000        0.000        0.000        0.000        2.000        1.000       11.000        1.000        0.000        0.000        0.000        0.000      100.000        0.000        0.000        1.422        1.452        1.819
     100.000  -230222.623    24484.698    14163.772    44901.221       65.191  -356341.142    42503.637       25.830       25.711        2.572        2.508        2.540        2.701        2.474        2.589        2.678        2.575        2.651        2.641        2.534        2.656        2.410        2.533        2.505        2.551        0.495        0.000        0.000        0.000        0.000        3.000        6.000        0.000        0.000        0.000        0.000        0.000        1.000        0.000        0.000        0.000        0.000        0.000        0.000        0.000        0.000        0.000        0.000        0.000        0.000        0.000        0.000        1.000        1.000        2.000        9.000        0.000        0.000        0.000        0.000        0.000      100.000        0.000        0.000        1.364        1.362        1.911
     110.000  -229924.466    23782.639    14550.084    45081.425       48.368  -356602.298    43215.315       26.202       26.083        2.599        2.554        2.503        2.657        2.448        2.581        2.646        2.563        2.623        2.655        2.549        2.665        2.502        2.590        2.551        2.562        0.485        0.000        0.000        1.000        0.000        3.000        5.000        0.000        0.000        0.000        0.000        0.000        0.000        0.000        1.000        1.000        0.000        0.000        0.000        0.000        0.000        0.000        0.000        0.000        0.000        0.000        0.000        0.000        2.000        0.000        7.000        1.000        0.000        0.000        0.000        0.000      100.000        0.000        0.000        1.473        1.478        2.023
     120.000  -228755.079    24789.908    14526.757    44842.215       79.766  -354220.122    41226.397       26.150       26.184        2.574        2.535        2.514        2.675        2.483        2.554        2.629        2.606        2.616        2.621        2.590        2.675        2.489        2.537        2.531        2.540        0.470        0.000        0.000        1.000        1.000        4.000        6.000        0.000        0.000        0.000        0.000        0.000        0.000        0.000        0.000        0.000        0.000        0.000        0.000        0.000        0.000        0.000        0.000        0.000        0.000        2.000        0.000        0.000        2.000        0.000       14.000        0.000        0.000        0.000        0.000        0.000      100.000        0.000        0.000        1.635        1.650        2.120
     130.000  -230155.187    24753.044    14311.022    44724.896       69.959  -354517.622    40503.514       26.125       26.237        2.575        2.511        2.545        2.660        2.497        2.641        2.670        2.608        2.668        2.626        2.552        2.585        2.476        2.612        2.536        2.551        0.493        0.000        0.000        1.000        0.000        3.000        6.000        0.000        0.000        0.000        0.000        0.000        0.000        0.000        1.000        0.000        0.000        0.000        0.000        0.000        0.000        0.000        0.000        0.000        0.000        1.000        0.000        1.000        0.000        1.000       15.000        1.000        0.000        0.000        0.000        0.000      100.000        0.000        0.000        1.743        1.781        2.303
     140.000  -229309.044    23649.766    14129.609    45023.697       73.829  -354557.582    42371.637       25.856       25.871        2.577        2.595        2.526        2.705        2.474        2.593        2.620        2.571        2.636        2.621        2.585        2.603        2.480        2.550        2.573        2.570        0.484        0.000        0.000        1.000        0.000        3.000        6.000        0.000        0.000        0.000        0.000        0.000        1.000        0.000        0.000        0.000        0.000        0.000        0.000        0.000        0.000        0.000        0.000        0.000        0.000        1.000        0.000        1.000        0.000        0.000       11.000        0.000        0.000        0.000        0.000        0.000      100.000        0.000        0.000        1.697        1.711        2.342
     150.000  -229658.462    23747.933    14344.709    45052.493       62.652  -355844.906    42978.658       25.864       25.910        2.547        2.594        2.504        2.639        2.502        2.596        2.614        2.522        2.668        2.636        2.653        2.627        2.449        2.585        2.542        2.547        0.492        0.000        0.000        1.000        0.000        2.000        6.000        0.000        0.000        0.000        0.000        0.000        0.000        0.000        1.000        0.000        0.000        0.000        0.000        0.000        0.000        0.000        0.000        0.000        0.000        1.000        0.000        2.000        0.000        1.000       13.000        1.000        0.000        0.000        0.000        0.000      100.000        0.000        0.000        1.649        1.688        2.166
     160.000  -228950.041    23621.445    14572.473    44962.417       79.491  -354516.138    42330.271       26.084       26.108        2.557        2.576        2.557        2.675        2.513        2.577        2.628        2.549        2.673        2.612        2.524        2.629        2.401        2.586        2.530        2.480        0.485        0.000        0.000        0.000        0.000        2.000        8.000        0.000        0.000        0.000        0.000        0.000        0.000        0.000        2.000        0.000        0.000        0.000        0.000        0.000        0.000        0.000        0.000        0.000        0.000        2.000        0.000        2.000        1.000        1.000       13.000        0.000        0.000        0.000        0.000        0.000      100.000        0.000        0.000        1.784        1.788        2.301
     170.000  -228923.811    23002.240    14168.084    45170.489       74.134  -353944.842    42606.084       25.956       26.233        2.565        2.553        2.552        2.696        2.424        2.572        2.668        2.566        2.690        2.650        2.585        2.681        2.458        2.607        2.537        2.567        0.487        0.000        0.000        0.000        0.000        5.000        8.000        0.000        0.000        0.000        0.000        0.000        0.000        0.000        0.000        0.000        0.000        0.000        0.000        0.000        0.000        0.000        0.000        0.000        0.000        0.000        0.000        0.000        2.000        0.000       15.000        0.000        0.000        0.000        0.000        0.000      100.000        0.000        0.000        1.611        1.612        2.172
     180.000  -228916.026    23143.333    14160.922    45179.585       77.960  -353044.347    41566.520       25.989       26.003        2.608        2.571        2.583        2.673        2.435        2.614        2.643        2.607        2.652        2.628        2.580        2.686        2.476        2.561        2.512        2.560        0.483        0.000        0.000        0.000        0.000        2.000        6.000        0.000        0.000        0.000        0.000        0.000        0.000        0.000        3.000        0.000        0.000        0.000        0.000        0.000        0.000        0.000        0.000        0.000        0.000        0.000        0.000        0.000        1.000        0.000        7.000        0.000        0.000        0.000        0.000        0.000      100.000        0.000        0.000        1.647        1.636        2.344
     190.000  -229349.981    23645.961    14065.071    45001.694       86.240  -353188.666    41039.719       25.873       25.830        2.549        2.626        2.507        2.644        2.512        2.569        2.692        2.598        2.655        2.634        2.565        2.673        2.451        2.580        2.542        2.590        0.485        0.000        0.000        0.000        0.000        2.000        4.000        0.000        0.000        0.000        0.000        0.000        0.000        0.000        0.000        0.000        0.000        0.000        0.000        0.000        0.000        0.000        0.000        0.000        0.000        1.000        0.000        1.000        0.000        2.000       12.000        1.000        0.000        0.000        0.000        0.000      100.000        0.000        0.000        1.577        1.583        2.383
     200.000  -228741.375    23801.767    14304.590    44865.513       76.186  -352750.481    40961.051       25.986       25.943        2.584        2.595        2.526        2.609        2.492        2.592        2.652        2.584        2.615        2.656        2.558        2.727        2.445        2.596        2.537        2.571        0.484        0.000        0.000        0.000        0.000        2.000        8.000        0.000        0.000        0.000        0.000        0.000        0.000        0.000        1.000        0.000        0.000        0.000        0.000        0.000        0.000        0.000        0.000        0.000        0.000        0.000        0.000        2.000        2.000        1.000       12.000        0.000        0.000        0.000        0.000        0.000      100.000        0.000        0.000        1.680        1.676        2.455
     210.000  -229302.797    23585.316    14288.839    44917.294       67.940  -353150.680    40988.494       26.199       25.977        2.558        2.582        2.521        2.659        2.523        2.572        2.685        2.597        2.714        2.645        2.558        2.646        2.464        2.583        2.523        2.564        0.487        0.000        0.000        0.000        0.000        3.000        6.000        0.000        0.000        0.000        0.000        0.000        1.000        0.000        1.000        0.000        0.000        0.000        0.000        0.000        0.000        0.000        0.000        0.000        0.000        0.000        0.000        2.000        2.000        2.000        9.000        0.000        0.000        0.000        0.000        0.000      100.000        0.000        0.000        1.589        1.570        2.250
     220.000  -227768.452    22714.696    14254.981    45006.413       77.563  -352617.801    42795.696       26.288       26.297        2.573        2.594        2.537        2.626        2.506        2.604        2.651        2.572        2.729        2.686        2.573        2.656        2.461        2.568        2.479        2.604        0.478        0.000        0.000        0.000        0.000        3.000        4.000        0.000        0.000        0.000        0.000        0.000        0.000        0.000        0.000        0.000        0.000        0.000        0.000        0.000        0.000        0.000        0.000        0.000        0.000        1.000        0.000        1.000        0.000        2.000        9.000        0.000        0.000        0.000        0.000        0.000      100.000        0.000        0.000        1.886        1.880        2.473
     230.000  -228264.984    22644.116    14318.896    44801.390       73.378  -353205.729    43102.966       26.310       26.039        2.580        2.622        2.516        2.650        2.440        2.548        2.631        2.559        2.628        2.683        2.584        2.624        2.518        2.552        2.513        2.537        0.479        0.000        0.000        0.000        0.000        3.000        7.000        0.000        0.000        0.000        0.000        0.000        0.000        0.000        0.000        0.000        0.000        0.000        0.000        0.000        0.000        0.000        0.000        0.000        0.000        0.000        0.000        1.000        0.000        3.000        6.000        0.000        0.000        0.000        0.000        0.000      100.000        0.000        0.000        1.986        1.966        2.661
     240.000  -229155.918    22873.430    13821.262    44919.340       74.794  -351114.631    40269.887       26.042       25.999        2.537        2.574        2.528        2.729        2.481        2.607        2.664        2.645        2.667        2.673        2.583        2.547        2.524        2.588        2.550        2.553        0.490        0.000        0.000        0.000        0.000        4.000        7.000        0.000        0.000        0.000        0.000        0.000        0.000        0.000        0.000        0.000        0.000        0.000        0.000        0.000        0.000        0.000        0.000        0.000        0.000        0.000        0.000        1.000        0.000        0.000        8.000        0.000        0.000        0.000        0.000        0.000      100.000        0.000        0.000        2.088        2.086        2.770
     250.000  -228186.659    22951.834    13734.649    44884.266       66.277  -352904.999    43081.314       26.062       25.899        2.489        2.638        2.516        2.665        2.526        2.575        2.647        2.540        2.638        2.692        2.584        2.580        2.429        2.614        2.557        2.513        0.500        0.000        0.000        0.000        0.000        1.000        7.000        0.000        0.000        0.000        0.000        0.000        0.000        0.000        1.000        0.000        0.000        0.000        0.000        0.000        0.000        0.000        0.000        0.000        0.000        0.000        0.000        0.000        0.000        2.000       14.000        0.000        0.000        0.000        0.000        0.000      100.000        0.000        0.000        1.997        2.003        2.547
     260.000  -227809.237    23335.967    13992.058    45025.812       59.909  -350290.084    40067.099       26.019       26.072        2.513        2.590        2.522        2.707        2.506        2.599        2.635        2.524        2.643        2.659        2.624        2.633        2.470        2.614        2.512        2.521        0.494        0.000        0.000        0.000        0.000        4.000        8.000        0.000        0.000        0.000        0.000        0.000        1.000        0.000        4.000        0.000        0.000        0.000        0.000        0.000        0.000        0.000        0.000        0.000        0.000        1.000        0.000        1.000        1.000        0.000       12.000        0.000        0.000        0.000        0.000        0.000      100.000        0.000        0.000        1.973        1.988        2.643
     270.000  -227452.671    23756.988    13832.995    45105.318       88.200  -350041.598    39805.426       26.151       26.056        2.566        2.553        2.494        2.639        2.490        2.559        2.623        2.601        2.620        2.643        2.618        2.528        2.482        2.584        2.520        2.524        0.502        0.000        0.000        0.000        0.000        4.000        7.000        0.000        0.000        0.000        0.000        0.000        1.000        0.000        2.000        0.000        0.000        0.000        0.000        0.000        0.000        0.000        0.000        0.000        0.000        0.000        0.000        0.000        2.000        1.000        9.000        0.000        0.000        0.000        0.000        0.000      100.000        0.000        0.000        2.336        2.353        2.899
     280.000  -228574.461    22115.248    13942.396    45107.633       81.978  -352456.536    42634.820       26.087       25.968        2.533        2.571        2.505        2.696        2.478        2.627        2.649        2.593        2.615        2.644        2.554        2.500        2.455        2.527        2.578        2.567        0.458        0.000        0.000        0.000        0.000        3.000        8.000        0.000        0.000        0.000        0.000        0.000        1.000        0.000        1.000        0.000        0.000        0.000        0.000        0.000        0.000        0.000        0.000        0.000        0.000        0.000        0.000        1.000        1.000        4.000        8.000        0.000        0.000        0.000        0.000        0.000      100.000        0.000        0.000        2.139        2.141        2.784
     290.000  -228545.110    22606.881    13528.473    44888.715       60.279  -349799.092    40169.633       25.926       25.812        2.603        2.556        2.522        2.684        2.480        2.538        2.638        2.524        2.622        2.644        2.530        2.544        2.438        2.542        2.503        2.583        0.463        0.000        0.000        0.000        0.000        3.000        8.000        0.000        0.000        0.000        0.000        0.000        0.000        0.000        1.000        1.000        0.000        0.000        0.000        0.000        0.000        0.000        0.000        0.000        0.000        0.000        0.000        0.000        0.000        1.000       15.000        0.000        0.000        0.000        0.000        0.000      100.000        0.000        0.000        2.246        2.273        2.819
     300.000  -228106.421    22768.020    13855.742    45251.654       85.897  -351858.396    41790.662       26.001       25.938        2.589        2.582        2.527        2.668        2.518        2.597        2.644        2.596        2.679        2.626        2.542        2.450        2.460        2.589        2.578        2.559        0.494        0.000        0.000        0.000        0.000        1.000        8.000        0.000        0.000        0.000        0.000        0.000        0.000        0.000        0.000        0.000        0.000        0.000        0.000        0.000        0.000        0.000        0.000        0.000        0.000        1.000        0.000        1.000        0.000        3.000        8.000        0.000        0.000        0.000        0.000        0.000      100.000        0.000        0.000        2.590        2.613        2.988
     310.000  -227682.055    22531.154    13962.032    45326.480       70.529  -351194.953    41622.702       26.077       26.210        2.575        2.551        2.557        2.621        2.493        2.613        2.688        2.570        2.637        2.642        2.543        2.500        2.406        2.579        2.630        2.552        0.494        0.000        0.000        0.000        1.000        4.000        6.000        0.000        0.000        0.000        0.000        0.000        1.000        0.000        0.000        0.000        0.000        0.000        0.000        0.000        0.000        0.000        0.000        0.000        0.000        0.000        0.000        1.000        3.000        2.000        9.000        0.000        0.000        0.000        0.000        0.000      100.000        0.000        0.000        2.231        2.217        2.764
     320.000  -227813.830    22344.012    13861.564    45156.331       87.660  -351025.769    41762.374       26.056       26.023        2.609        2.589        2.510        2.690        2.503        2.601        2.605        2.571        2.671        2.603        2.562        2.464        2.454        2.569        2.612        2.580        0.491        0.000        0.000        0.000        0.000        3.000        6.000        0.000        0.000        0.000        0.000        0.000        1.000        0.000        0.000        0.000        0.000        0.000        0.000        0.000        0.000        0.000        0.000        0.000        0.000        1.000        0.000        2.000        2.000        2.000        9.000        0.000        0.000        0.000        0.000        0.000      100.000        0.000        0.000        2.063        2.049        2.793
     330.000  -227272.137    22295.938    13847.354    45059.644       84.911  -349530.007    40970.024       26.061       25.935        2.562        2.590        2.547        2.678        2.465        2.552        2.605        2.599        2.621        2.639        2.619        2.590        2.497        2.605        2.497        2.589        0.502        0.000        0.000        0.000        0.000        4.000        8.000        0.000        0.000        0.000        0.000        0.000        1.000        0.000        1.000        0.000        0.000        0.000        0.000        0.000        0.000        0.000        0.000        0.000        0.000        1.000        0.000        3.000        2.000        3.000        7.000        0.000        0.000        0.000        0.000        0.000      100.000        0.000        0.000        1.632        1.602        2.425
     340.000  -228200.618    22609.881    13507.617    45168.733       66.650  -352659.731    43106.232       26.147       25.728        2.534        2.588        2.508        2.637        2.503        2.526        2.652        2.583        2.639        2.668        2.574        2.526        2.448        2.534        2.555        2.569        0.467        0.000        0.000        0.000        0.000        1.000        7.000        0.000        0.000        0.000        0.000        0.000        0.000        0.000        1.000        0.000        0.000        0.000        0.000        0.000        0.000        0.000        0.000        0.000        0.000        0.000        0.000        1.000        0.000        1.000        9.000        0.000        0.000        0.000        0.000        0.000      100.000        0.000        0.000        1.889        1.901        2.331
     350.000  -228073.564    23083.965    13928.395    45171.214       73.609  -351843.563    41512.816       26.230       26.114        2.564        2.610        2.510        2.652        2.477        2.539        2.704        2.540        2.671        2.648        2.632        2.511        2.476        2.554        2.527        2.611        0.490        0.000        0.000        0.000        0.000        3.000        8.000        0.000        0.000        0.000        0.000        0.000        1.000        0.000        2.000        0.000        0.000        0.000        0.000        0.000        0.000        0.000        0.000        0.000        0.000        1.000        0.000        1.000        0.000        2.000       11.000        0.000        0.000        0.000        0.000        0.000      100.000        0.000        0.000        2.095        2.094        2.494
     360.000  -227580.097    23743.591    13740.485    45023.954       80.250  -350264.909    40096.532       26.020       26.017        2.539        2.541        2.537        2.670        2.493        2.543        2.671        2.623        2.650        2.633        2.586        2.522        2.461        2.655        2.555        2.509        0.505        1.000        0.000        0.000        0.000        2.000        8.000        0.000        0.000        0.000        0.000        0.000        0.000        0.000        2.000        0.000        0.000        0.000        0.000        0.000        0.000        0.000        0.000        0.000        0.000        0.000        0.000        2.000        0.000        2.000        9.000        0.000        0.000        0.000        4.494        0.000       95.506        0.000        0.000        1.549        1.537        2.147
     370.000  -228499.897    23119.623    13745.475    45143.144       66.088  -350156.144    39581.917       26.155       25.843        2.571        2.530        2.495        2.671        2.494        2.572        2.622        2.594        2.654        2.683        2.492        2.545        2.528        2.557        2.586        2.501        0.488        0.000        0.000        0.000        0.000        3.000        7.000        0.000        0.000        0.000        0.000        0.000        1.000        0.000        1.000        0.000        0.000        0.000        0.000        0.000        0.000        0.000        0.000        0.000        0.000        0.000        0.000        2.000        1.000        3.000        8.000        1.000        0.000        0.000        0.000        0.000      100.000        0.000        0.000        1.594        1.577        2.384
     380.000  -227429.827    22283.246    14043.949    45275.285       74.617  -351175.248    42068.324       25.723       25.516        2.545        2.610        2.576        2.673        2.485        2.561        2.702        2.620        2.685        2.667        2.556        2.560        2.450        2.612        2.584        2.510        0.498        0.000        0.000        0.000        0.000        3.000        6.000        0.000        0.000        0.000        0.000        0.000        0.000        0.000        1.000        0.000        0.000        0.000        0.000        0.000        0.000        0.000        0.000        0.000        0.000        0.000        0.000        1.000        0.000        2.000        9.000        0.000        0.000        0.000        4.494        0.000       95.506        0.000        0.000        1.469        1.480        2.325
     390.000  -227742.995    21855.374    14196.472    44858.471       85.027  -350205.817    41467.478       26.110       26.060        2.585        2.599        2.535        2.640        2.499        2.587        2.639        2.541        2.641        2.589        2.622        2.531        2.445        2.575        2.609        2.504        0.505        0.000        0.000        0.000        0.000        2.000        7.000        0.000        0.000        0.000        0.000        0.000        0.000        0.000        0.000        0.000        0.000        0.000        0.000        0.000        0.000        0.000        0.000        0.000        0.000        0.000        0.000        2.000        0.000        2.000        9.000        1.000        0.000        0.000        0.000        0.000      100.000        0.000        0.000        1.794        1.793        2.502
     400.000  -227702.220    22105.630    14480.216    44897.017       66.081  -349903.599    40652.434       26.099       26.022        2.551        2.545        2.573        2.667        2.537        2.554        2.667        2.611        2.613        2.635        2.644        2.497        2.448        2.541        2.620        2.627        0.489        0.000        0.000        0.000        0.000        3.000        6.000        0.000        0.000        0.000        0.000        0.000        1.000        0.000        0.000        0.000        0.000        0.000        0.000        0.000        0.000        0.000        0.000        0.000        0.000        0.000        0.000        1.000        0.000        1.000       12.000        0.000        0.000        0.000        0.000        0.000      100.000        0.000        0.000        1.925        1.920        2.571
     410.000  -228860.799    22789.996    13867.820    45041.663      103.427  -351701.780    41038.075       25.979       25.710        2.579        2.608        2.506        2.659        2.472        2.544        2.689        2.638        2.596        2.624        2.654        2.530        2.480        2.593        2.671        2.601        0.492        0.000        0.000        0.000        0.000        3.000        6.000        0.000        0.000        0.000        0.000        0.000        1.000        0.000        2.000        0.000        0.000        0.000        0.000        0.000        0.000        0.000        0.000        0.000        0.000        0.000        0.000        0.000        0.000        3.000       13.000        0.000        0.000        0.000        0.000        0.000      100.000        0.000        0.000        1.920        1.913        2.681
     420.000  -228355.496    21926.064    13956.409    45138.058       79.717  -350648.715    41192.970       26.222       26.116        2.558        2.599        2.531        2.702        2.474        2.575        2.675        2.575        2.626        2.581        2.643        2.508        2.478        2.624        2.666        2.538        0.498        0.000        0.000        0.000        0.000        3.000        6.000        0.000        0.000        0.000        0.000        0.000        0.000        0.000        0.000        0.000        0.000        0.000        0.000        0.000        0.000        0.000        0.000        0.000        0.000        1.000        0.000        3.000        0.000        2.000        2.000        0.000        0.000        0.000        0.000        0.000      100.000        0.000        0.000        2.008        1.972        2.678
     430.000  -228070.553    22509.679    13751.452    44805.833       84.231  -350391.735    41169.987       26.182       25.850        2.594        2.604        2.513        2.666        2.456        2.515        2.673        2.572        2.637        2.597        2.671        2.520        2.424        2.590        2.644        2.537        0.492        0.000        0.000        0.000        0.000        4.000        5.000        0.000        0.000        0.000        0.000        0.000        1.000        0.000        1.000        0.000        0.000        0.000        0.000        0.000        0.000        0.000        0.000        0.000        0.000        1.000        0.000        2.000        0.000        1.000       13.000        0.000        0.000        0.000        0.000        0.000      100.000        0.000        0.000        1.873        1.871        2.611
     440.000  -228108.698    22780.752    14143.557    44776.710       71.793  -350544.863    40663.353       26.087       25.774        2.536        2.575        2.511        2.673        2.498        2.532        2.669        2.596        2.689        2.616        2.648        2.550        2.446        2.570        2.680        2.554        0.504        0.000        0.000        0.000        0.000        3.000        7.000        0.000        0.000        0.000        0.000        0.000        0.000        0.000        0.000        0.000        0.000        0.000        0.000        0.000        0.000        0.000        0.000        0.000        0.000        1.000        0.000        4.000        0.000        1.000        9.000        0.000        0.000        0.000        0.000        0.000      100.000        0.000        0.000        1.925        1.925        2.644
     450.000  -227910.710    23151.116    13669.012    44703.560       98.289  -349846.549    40313.861       26.354       26.055        2.557        2.603        2.514        2.678        2.452        2.580        2.681        2.595        2.698        2.681        2.626        2.538        2.517        2.563        2.575        2.581        0.509        0.000        0.000        0.000        0.000        2.000        8.000        0.000        0.000        0.000        0.000        0.000        0.000        0.000        1.000        0.000        0.000        0.000        0.000        0.000        0.000        0.000        0.000        0.000        0.000        0.000        0.000        2.000        0.000        2.000        3.000        0.000        0.000        0.000        4.494        0.000       95.506        0.000        0.000        1.824        1.795        2.677
     460.000  -228247.441    22947.699    13785.314    44590.432       82.527  -351263.291    41609.878       25.902       25.882        2.597        2.579        2.503        2.643        2.429        2.592        2.644        2.576        2.724        2.608        2.608        2.541        2.519        2.598        2.667        2.588        0.478        0.000        0.000        0.000        0.000        2.000        5.000        0.000        0.000        0.000        0.000        0.000        0.000        0.000        0.000        0.000        0.000        0.000        0.000        0.000        0.000        0.000        0.000        0.000        0.000        0.000        0.000        1.000        0.000        0.000        6.000        0.000        0.000        0.000        0.000        0.000      100.000        0.000        0.000        1.719        1.701        2.721
     470.000  -228206.379    23210.568    13817.857    44784.327       91.178  -350547.555    40437.247       25.933       25.796        2.564        2.572        2.537        2.652        2.459        2.607        2.657        2.546        2.694        2.614        2.627        2.516        2.484        2.595        2.662        2.569        0.481        0.000        0.000        0.000        0.000        4.000        6.000        0.000        0.000        0.000        0.000        0.000        1.000        0.000        2.000        0.000        0.000        0.000        0.000        0.000        0.000        0.000        0.000        0.000        0.000        1.000        0.000        3.000        0.000        0.000        9.000        0.000        0.000        0.000        0.000        0.000      100.000        0.000        0.000        1.561        1.531        2.516
     480.000  -227442.385    22199.247    13829.020    44770.894       74.945  -349737.350    41420.858       25.999       25.973        2.554        2.649        2.598        2.604        2.443        2.519        2.676        2.600        2.647        2.635        2.660        2.504        2.502        2.579        2.687        2.543        0.486        0.000        0.000        0.000        0.000        4.000        4.000        0.000        0.000        0.000        0.000        0.000        0.000        0.000        1.000        0.000        0.000        0.000        0.000        0.000        0.000        0.000        0.000        0.000        0.000        0.000        0.000        2.000        0.000        2.000        8.000        0.000        0.000        0.000        0.000        0.000      100.000        0.000        0.000        1.455        1.442        2.451
     490.000  -227760.908    22814.542    13840.111    44742.551       79.990  -349572.310    40334.209       26.232       26.191        2.565        2.599        2.653        2.637        2.479        2.610        2.617        2.623        2.713        2.704        2.644        2.493        2.516        2.598        2.689        2.531        0.494        0.000        0.000        0.000        0.000        4.000        5.000        0.000        0.000        0.000        0.000        0.000        0.000        0.000        0.000        0.000        0.000        0.000        0.000        0.000        0.000        1.000        0.000        0.000        0.000        1.000        0.000        2.000        0.000        2.000        7.000        0.000        0.000        0.000        0.000        0.000      100.000        0.000        0.000        2.070        2.080        2.862
     500.000  -227450.557    22388.570    13886.959    44948.788       69.001  -350633.390    41889.515       25.987       25.792        2.580        2.627        2.586        2.643        2.486        2.603        2.629        2.578        2.678        2.650        2.672        2.536        2.483        2.585        2.646        2.510        0.498        0.000        0.000        0.000        0.000        3.000        4.000        0.000        0.000        0.000        0.000        0.000        0.000        0.000        1.000        0.000        0.000        0.000        0.000        0.000        0.000        1.000        0.000        0.000        0.000        1.000        0.000        2.000        0.000        1.000        6.000        0.000        0.000        0.000        0.000        0.000      100.000        0.000        0.000        1.698        1.711        2.644
     510.000  -228035.668    22625.354    13715.287    44828.738       71.598  -350810.422    41533.777       26.322       26.121        2.594        2.611        2.615        2.653        2.543        2.584        2.701        2.560        2.701        2.659        2.682        2.527        2.435        2.567        2.640        2.541        0.491        0.000        0.000        0.000        0.000        2.000        3.000        0.000        0.000        0.000        0.000        0.000        1.000        0.000        0.000        0.000        0.000        0.000        0.000        0.000        0.000        1.000        0.000        0.000        0.000        0.000        0.000        2.000        0.000        1.000        6.000        0.000        0.000        0.000        0.000        0.000      100.000        0.000        0.000        1.853        1.865        2.578
     520.000  -228250.233    22884.970    13853.862    44897.405      101.702  -350641.110    40652.937       26.140       26.041        2.577        2.576        2.667        2.625        2.551        2.570        2.628        2.569        2.704        2.693        2.700        2.486        2.461        2.559        2.692        2.511        0.468        0.000        0.000        0.000        0.000        3.000        5.000        0.000        0.000        0.000        0.000        0.000        0.000        0.000        2.000        0.000        0.000        0.000        0.000        0.000        0.000        1.000        0.000        0.000        0.000        0.000        0.000        2.000        0.000        1.000        6.000        0.000        0.000        0.000        0.000        0.000      100.000        0.000        0.000        1.759        1.762        2.541
     530.000  -227656.535    21780.694    13710.939    45209.399       82.034  -349149.396    40709.795       26.037       25.793        2.558        2.601        2.642        2.593        2.549        2.594        2.659        2.575        2.671        2.619        2.663        2.538        2.441        2.535        2.721        2.566        0.486        0.000        0.000        0.000        0.000        4.000        5.000        0.000        0.000        0.000        0.000        0.000        1.000        0.000        0.000        1.000        0.000        0.000        0.000        0.000        0.000        1.000        0.000        0.000        0.000        0.000        0.000        2.000        0.000        2.000       11.000        0.000        0.000        0.000        0.000        0.000      100.000        0.000        0.000        1.986        2.004        2.757
     540.000  -226949.981    22401.063    14032.110    44943.629       72.961  -348700.623    40300.879       26.183       25.718        2.566        2.582        2.586        2.667        2.545        2.609        2.627        2.637        2.677        2.675        2.673        2.517        2.468        2.575        2.708        2.526        0.482        0.000        0.000        0.000        0.000        3.000        4.000        0.000        0.000        0.000        0.000        0.000        0.000        0.000        0.000        0.000        0.000        0.000        0.000        0.000        0.000        1.000        0.000        0.000        0.000        0.000        0.000        1.000        1.000        2.000       12.000        0.000        0.000        0.000        0.000        0.000      100.000        0.000        0.000        1.579        1.582        2.532
     550.000  -228221.040    23455.794    13702.384    44645.144       67.927  -350308.614    40216.326       26.454       26.041        2.581        2.613        2.642        2.632        2.508        2.625        2.706        2.582        2.669        2.684        2.652        2.497        2.504        2.553        2.709        2.571        0.482        0.000        0.000        0.000        0.000        4.000        5.000        0.000        0.000        0.000        0.000        0.000        2.000        0.000        1.000        0.000        0.000        0.000        0.000        0.000        0.000        1.000        0.000        0.000        0.000        1.000        0.000        2.000        2.000        1.000        8.000        0.000        0.000        0.000        0.000        0.000      100.000        0.000        0.000        1.770        1.792        2.616
     560.000  -227715.723    23533.645    13733.137    44668.286       71.260  -349673.797    39951.746       26.306       26.056        2.549        2.632        2.655        2.628        2.655        2.604        2.689        2.557        2.710        2.618        2.682        2.554        2.510        2.588        2.642        2.560        0.502        0.000        0.000        0.000        0.000        3.000        5.000        0.000        0.000        0.000        0.000        0.000        1.000        0.000        0.000        0.000        0.000        0.000        0.000        0.000        0.000        1.000        0.000        0.000        0.000        0.000        0.000        1.000        1.000        0.000        5.000        0.000        0.000        0.000        0.000        0.000      100.000        0.000        0.000        1.856        1.881        2.741
     570.000  -228206.034    21934.112    13934.851    45030.380       79.298  -350878.837    41694.162       25.737       25.539        2.555        2.657        2.635        2.694        2.568        2.554        2.684        2.567        2.694        2.631        2.653        2.467        2.491        2.589        2.618        2.527        0.522        0.000        0.000        0.000        0.000        3.000        4.000        0.000        0.000        0.000        0.000        0.000        1.000        0.000        0.000        0.000        0.000        0.000        0.000        0.000        0.000        1.000        0.000        0.000        0.000        1.000        0.000        1.000        1.000        1.000        6.000        0.000        0.000        0.000        0.000        0.000      100.000        0.000        0.000        1.688        1.715        2.769
     580.000  -228017.039    22063.549    13738.228    44739.223       81.239  -350830.039    42190.761       26.259       25.822        2.601        2.663        2.619        2.695        2.467        2.554        2.628        2.602        2.658        2.594        2.647        2.463        2.503        2.595        2.646        2.571        0.495        0.000        0.000        0.000        0.000        4.000        4.000        0.000        0.000        0.000        0.000        0.000        0.000        0.000        2.000        0.000        0.000        0.000        0.000        0.000        0.000        1.000        0.000        0.000        0.000        2.000        0.000        2.000        1.000        4.000        7.000        0.000        0.000        0.000        0.000        0.000      100.000        0.000        0.000        1.895        1.898        2.880
     590.000  -227359.103    23674.191    13826.435    44627.552       70.436  -349000.170    39442.453       26.372       25.962        2.583        2.671        2.641        2.704        2.590        2.563        2.763        2.604        2.722        2.648        2.674        2.416        2.526        2.580        2.628        2.529        0.477        0.000        0.000        0.000        0.000        4.000        5.000        0.000        0.000        0.000        0.000        0.000        0.000        0.000        1.000        0.000        0.000        0.000        0.000        0.000        0.000        1.000        0.000        0.000        0.000        1.000        0.000        1.000        2.000        1.000       10.000        0.000        0.000        0.000        0.000        0.000      100.000        0.000        0.000        1.877        1.895        3.107
     600.000  -227875.826    23052.619    14099.682    44882.942       94.501  -350051.360    40045.790       26.087       25.896        2.613        2.600        2.637        2.674        2.551        2.618        2.725        2.559        2.675        2.668        2.696        2.469        2.503        2.606        2.677        2.581        0.499        0.000        0.000        0.000        0.000        3.000        4.000        0.000        0.000        0.000        0.000        0.000        2.000        0.000        1.000        0.000        0.000        0.000        0.000        0.000        0.000        0.000        0.000        0.000        0.000        0.000        0.000        2.000        1.000        3.000       12.000        0.000        0.000        0.000        0.000        0.000      100.000        0.000        0.000        1.816        1.832        2.898
     610.000  -227739.484    23507.698    13866.650    44691.959       65.125  -350042.703    40171.787       26.197       25.838        2.553        2.638        2.646        2.684        2.491        2.566        2.701        2.574        2.679        2.680        2.620        2.457        2.489        2.587        2.671        2.564        0.484        0.000        0.000        0.000        0.000        4.000        4.000        0.000        0.000        0.000        0.000        0.000        0.000        0.000        2.000        0.000        0.000        0.000        0.000        0.000        1.000        1.000        0.000        0.000        0.000        1.000        0.000        2.000        2.000        1.000       11.000        0.000        0.000        0.000        0.000        0.000      100.000        0.000        0.000        1.541        1.543        2.683
     620.000  -227412.128    22786.097    13954.498    44923.273      102.005  -349504.833    40326.832       25.904       25.641        2.600        2.665        2.587        2.695        2.473        2.606        2.628        2.553        2.701        2.667        2.626        2.460        2.463        2.609        2.632        2.562        0.486        0.000        0.000        0.000        1.000        4.000        5.000        0.000        0.000        0.000        0.000        0.000        0.000        0.000        0.000        0.000        0.000        0.000        0.000        0.000        1.000        1.000        0.000        0.000        0.000        1.000        0.000        2.000        1.000        2.000        7.000        0.000        0.000        0.000        0.000        0.000      100.000        0.000        0.000        1.478        1.482        2.729
     630.000  -227516.376    23262.934    13873.516    45020.385      100.895  -348314.102    38539.997       26.006       26.121        2.582        2.577        2.568        2.681        2.499        2.550        2.647        2.564        2.717        2.684        2.683        2.416        2.475        2.564        2.692        2.483        0.496        0.000        0.000        0.000        1.000        3.000        5.000        0.000        0.000        0.000        0.000        0.000        0.000        0.000        0.000        0.000        0.000        0.000        0.000        0.000        1.000        1.000        0.000        0.000        0.000        1.000        0.000        3.000        1.000        1.000        6.000        0.000        0.000        0.000        0.000        0.000      100.000        0.000        0.000        1.722        1.711        2.915
     640.000  -227098.769    22088.972    13839.685    44812.277       85.186  -348699.127    40774.238       26.268       26.070        2.619        2.628        2.681        2.657        2.521        2.574        2.639        2.578        2.737        2.611        2.689        2.429        2.451        2.583        2.665        2.556        0.474        0.000        0.000        0.000        1.000        2.000        3.000        0.000        0.000        0.000        0.000        0.000        0.000        0.000        0.000        0.000        0.000        0.000        0.000        0.000        1.000        1.000        0.000        0.000        0.000        1.000        0.000        3.000        1.000        1.000        8.000        0.000        0.000        0.000        0.000        0.000      100.000        0.000        0.000        1.761        1.759        3.014
     650.000  -227387.164    22844.223    13593.495    44999.407       69.615  -349314.274    40420.370       26.164       26.255        2.653        2.628        2.687        2.638        2.551        2.530        2.638        2.560        2.713        2.642        2.648        2.463        2.488        2.564        2.700        2.479        0.477        0.000        0.000        0.000        1.000        3.000        4.000        0.000        0.000        0.000        0.000        0.000        0.000        0.000        0.000        0.000        0.000        0.000        0.000        0.000        1.000        0.000        0.000        0.000        0.000        1.000        0.000        2.000        4.000        4.000        7.000        1.000        0.000        0.000        0.000        0.000      100.000        0.000        0.000        1.742        1.722        3.115
     660.000  -228205.406    22428.711    13608.961    44931.598       76.425  -349549.481    40298.379       26.163       26.042        2.716        2.647        2.698        2.656        2.476        2.556        2.633        2.586        2.653        2.631        2.646        2.445        2.401        2.633        2.616        2.552        0.496        0.000        0.000        0.000        1.000        4.000        6.000        0.000        0.000        0.000        0.000        0.000        0.000        0.000        1.000        0.000        0.000        0.000        0.000        0.000        1.000        1.000        0.000        0.000        0.000        0.000        0.000        2.000        2.000        2.000        8.000        0.000        0.000        0.000        0.000        0.000      100.000        0.000        0.000        1.754        1.730        3.273
     670.000  -228054.721    23361.733    13764.964    44932.664       89.845  -350057.679    39853.752       25.705       25.839        2.666        2.650        2.684        2.663        2.423        2.600        2.643        2.575        2.683        2.656        2.643        2.530        2.509        2.606        2.679        2.513        0.500        0.000        0.000        0.000        1.000        1.000        6.000        0.000        0.000        0.000        0.000        0.000        0.000        0.000        1.000        0.000        0.000        0.000        0.000        0.000        1.000        0.000        0.000        0.000        0.000        1.000        0.000        3.000        3.000        1.000       13.000        1.000        0.000        0.000        0.000        0.000      100.000        0.000        0.000        1.790        1.776        3.183
     680.000  -227901.330    23000.792    13924.315    44759.808       67.927  -349473.398    39819.225       25.858       26.172        2.619        2.584        2.681        2.678        2.412        2.538        2.676        2.628        2.699        2.671        2.681        2.509        2.415        2.608        2.657        2.538        0.484        0.000        0.000        0.000        1.000        3.000        6.000        0.000        0.000        0.000        0.000        0.000        0.000        0.000        0.000        0.000        0.000        0.000        0.000        0.000        1.000        1.000        0.000        0.000        0.000        0.000        0.000        1.000        1.000        0.000       10.000        1.000        0.000        0.000        0.000        0.000      100.000        0.000        0.000        1.818        1.801        3.266
     690.000  -228206.543    23122.115    13888.560    44960.068       82.918  -350119.807    39859.604       25.621       25.999        2.613        2.630       11.822        2.698        2.432        2.628        2.624        2.604        2.715        2.676        2.586        2.535        2.444        2.613        2.659        2.483        0.476        0.000        0.000        0.000        0.000        3.000        6.000        0.000        0.000        0.000        0.000        0.000        0.000        0.000        1.000        0.000        0.000        0.000        0.000        0.000        0.000        0.000        0.000        0.000        0.000        0.000        0.000        2.000        0.000        3.000        8.000        0.000        0.000        0.000        0.000        0.000      100.000        0.000        0.000        1.697        1.661        3.308
     700.000  -227699.017    22479.970    13871.246    44803.315       70.215  -349621.553    40697.791       25.459       25.788        2.607        2.647        2.614        2.699        2.402        2.610        2.636        2.569        2.685        2.654        2.695        2.569        2.493        2.585        2.656        2.481        0.474        0.000        0.000        0.000        1.000        4.000        5.000        0.000        0.000        0.000        0.000        0.000        0.000        0.000        0.000        0.000        0.000        0.000        0.000        0.000        1.000        1.000        0.000        0.000        0.000        0.000        0.000        1.000        1.000        2.000       11.000        0.000        0.000        0.000        0.000        0.000      100.000        0.000        0.000        1.688        1.674        3.087
     710.000  -227804.348    21858.423    13743.329    44751.086       90.111  -349615.353    41368.054       25.794       25.902        2.683        2.591        2.600        2.645        2.432        2.633        2.635        2.563        2.717        2.692        2.674        2.499        2.414        2.599        2.643        2.535        0.465        0.000        0.000        0.000        0.000        3.000        6.000        0.000        0.000        0.000        0.000        0.000        0.000        0.000        2.000        1.000        0.000        0.000        0.000        0.000        1.000        1.000        0.000        0.000        0.000        0.000        0.000        2.000        2.000        1.000        6.000        3.000        0.000        0.000        0.000        0.000      100.000        0.000        0.000        1.813        1.790        3.167
     720.000  -227714.576    23053.710    13862.249    44683.332       94.561  -349576.969    40168.540       25.542       25.954        2.682        2.566        2.631        2.715        2.457        2.583        2.681        2.570        2.696        2.624        2.645        2.515        2.428        2.618        2.649        2.429        0.523        0.000        0.000        0.000        0.000        3.000        3.000        0.000        0.000        0.000        0.000        0.000        0.000        0.000        1.000        0.000        0.000        0.000        0.000        0.000        1.000        1.000        0.000        0.000        0.000        1.000        0.000        2.000        1.000        1.000       11.000        0.000        0.000        0.000        0.000        0.000      100.000        0.000        0.000        1.868        1.853        3.017
     730.000  -227513.080    22822.031    13787.140    44852.981       72.639  -349052.928    40005.058       25.549       25.762        2.665        2.587        2.720        2.679        2.424        2.550        2.633        2.564        2.716        2.662        2.637        2.483        2.396        2.568        2.650        2.497        0.478        0.000        0.000        0.000        1.000        3.000        5.000        0.000        0.000        0.000        0.000        0.000        0.000        0.000        0.000        0.000        0.000        0.000        0.000        0.000        0.000        1.000        0.000        0.000        0.000        0.000        0.000        1.000        1.000        1.000        7.000        0.000        0.000        0.000        0.000        0.000      100.000        0.000        0.000        1.899        1.892        2.968
     740.000  -227967.171    22540.260    14020.462    44756.918      100.672  -350018.140    40632.656       25.758       25.904        2.664        2.670        2.654        2.637        2.422        2.567        2.686        2.604        2.684        2.660        2.653        2.545        2.395        2.567        2.695        2.447        0.494        0.000        0.000        0.000        1.000        3.000        4.000        0.000        0.000        0.000        0.000        0.000        0.000        0.000        1.000        1.000        0.000        0.000        0.000        0.000        1.000        1.000        0.000        0.000        0.000        0.000        0.000        1.000        2.000        1.000       13.000        0.000        0.000        0.000        0.000        0.000      100.000        0.000        0.000        2.258        2.258        3.150
     750.000  -228150.936    21754.500    13739.772    44847.431       56.004  -350245.165    41696.520       25.708       25.683        2.669        2.588        2.641        2.635        2.401        2.573        2.638        2.542        2.673        2.681        2.625        2.512        2.446        2.615        2.686        2.538        0.493        0.000        0.000        0.000        1.000        1.000        4.000        0.000        0.000        0.000        0.000        0.000        0.000        0.000        0.000        0.000        0.000        0.000        0.000        0.000        1.000        1.000        0.000        0.000        0.000        1.000        0.000        4.000        3.000        1.000       10.000        0.000        0.000        0.000        0.000        0.000      100.000        0.000        0.000        2.436        2.447        3.300
     760.000  -227591.630    22814.826    13839.369    44865.423       79.109  -348687.958    39497.601       25.666       25.392        2.632        2.536        2.675        2.708        2.418        2.541        2.695        2.563        2.701        2.705        2.627        2.493        2.472        2.571        2.691        2.497        0.496        0.000        0.000        0.000        0.000        3.000        4.000        0.000        0.000        0.000        0.000        0.000        0.000        0.000        0.000        0.000        0.000        0.000        0.000        0.000        1.000        1.000        0.000        0.000        0.000        0.000        0.000        1.000        3.000        2.000       10.000        0.000        0.000        0.000        0.000        0.000      100.000        0.000        0.000        2.091        2.116        3.103
     770.000  -227548.189    22614.088    13827.895    44879.593       74.346  -349070.476    40126.365       25.858       25.387        2.664        2.584        2.691        2.696        2.452        2.595        2.603        2.618        2.682        2.695        2.694        2.512        2.411        2.609        2.616        2.511        0.475        0.000        0.000        0.000        1.000        3.000        3.000        0.000        0.000        0.000        0.000        0.000        0.000        0.000        1.000        0.000        0.000        0.000        0.000        0.000        1.000        1.000        0.000        0.000        0.000        0.000        0.000        1.000        2.000        4.000       11.000        1.000        0.000        0.000        0.000        0.000      100.000        0.000        0.000        2.195        2.237        3.098
     780.000  -228149.024    22270.115    14010.661    44875.475       68.418  -349391.036    40017.344       25.805       25.530        2.619        2.575        2.724        2.704        2.587        2.567        2.603        2.584        2.689        2.681        2.665        2.525        2.456        2.595        2.696        2.547        0.493        0.000        0.000        0.000        1.000        3.000        3.000        0.000        0.000        0.000        0.000        0.000        0.000        0.000        1.000        0.000        0.000        0.000        0.000        0.000        1.000        1.000        0.000        0.000        0.000        0.000        0.000        1.000        2.000        4.000        9.000        0.000        0.000        0.000        0.000        0.000      100.000        0.000        0.000        2.141        2.173        3.161
     790.000  -227187.466    22741.396    13614.817    44752.199       87.166  -349015.476    40632.432       25.918       25.857        2.585        2.580        2.690        2.699        2.522        2.604        2.620        2.581        2.676        2.646        2.704        2.542        2.452        2.626        2.671        2.583        0.466        0.000        0.000        0.000        1.000        3.000        2.000        0.000        0.000        0.000        0.000        0.000        0.000        0.000        0.000        0.000        0.000        0.000        0.000        0.000        1.000        1.000        0.000        0.000        0.000        0.000        0.000        1.000        1.000        2.000        7.000        1.000        0.000        0.000        0.000        0.000      100.000        0.000        0.000        2.306        2.315        3.246
     800.000  -227083.451    21184.760    13656.546    45171.169       93.490  -349073.663    41884.247       25.790       25.671        2.599        2.654        2.652        2.692        2.467        2.561        2.622        2.576        2.621        2.579        2.676        2.535        2.421        2.574        2.645        2.558        0.493        0.000        0.000        0.000        1.000        2.000        4.000        0.000        0.000        0.000        0.000        0.000        0.000        0.000        1.000        0.000        0.000        0.000        0.000        0.000        1.000        1.000        0.000        0.000        0.000        0.000        0.000        2.000        1.000        1.000        8.000        3.000        0.000        0.000        0.000        0.000      100.000        0.000        0.000        2.117        2.109        3.277
     810.000  -227918.529    21300.744    13945.347    44742.424       66.488  -349771.769    41798.236       25.768       25.848        2.616        2.610        2.601        2.698        2.472        2.548        2.724        2.564        2.675        2.665        2.616        2.519        2.449        2.617        2.688        2.531        0.494        0.000        0.000        0.000        1.000        3.000        4.000        0.000        0.000        0.000        0.000        0.000        1.000        0.000        1.000        0.000        0.000        0.000        0.000        0.000        1.000        1.000        0.000        0.000        0.000        0.000        0.000        1.000        0.000        2.000       10.000        0.000        0.000        0.000        0.000        0.000      100.000        0.000        0.000        1.800        1.793        3.192
     820.000  -226892.198    22475.093    13991.109    44739.240       69.827  -349344.187    41176.720       26.050       25.949        2.619        2.624        2.688        2.684        2.488        2.602        2.645        2.552        2.665        2.608        2.642        2.579        2.494        2.611        2.623        2.560        0.498        0.000        0.000        0.000        1.000        3.000        2.000        0.000        0.000        0.000        0.000        0.000        0.000        0.000        0.000        0.000        0.000        0.000        0.000        0.000        1.000        1.000        0.000        0.000        0.000        0.000        0.000        1.000        2.000        4.000       12.000        0.000        0.000        0.000        0.000        0.000      100.000        0.000        0.000        1.738        1.732        3.049
     830.000  -227802.463    22667.810    13720.902    44577.465       73.439  -348772.225    39930.146       26.002       25.557        2.669        2.579        2.700        2.702        2.509        2.537        2.708        2.630        2.662        2.607        2.681        2.530        2.474        2.571        2.701        2.535        0.474        0.000        0.000        0.000        0.000        3.000        2.000        0.000        0.000        0.000        0.000        0.000        0.000        0.000        0.000        0.000        0.000        0.000        0.000        0.000        0.000        1.000        0.000        0.000        0.000        0.000        0.000        1.000        4.000        3.000       13.000        0.000        0.000        0.000        0.000        0.000      100.000        0.000        0.000        1.889        1.927        3.248
     840.000  -227125.894    22262.001    13928.344    44716.331       77.404  -348819.961    40709.987       25.949       25.782        2.616        2.627        2.684        2.696        2.507        2.602        2.647        2.527        2.733        2.671        2.674        2.552        2.509        2.610        2.658        2.507        0.497        0.000        0.000        0.000        1.000        3.000        4.000        0.000        0.000        0.000        0.000        0.000        0.000        0.000        0.000        0.000        0.000        0.000        0.000        0.000        1.000        1.000        0.000        0.000        0.000        1.000        0.000        2.000        0.000        3.000       14.000        0.000        0.000        0.000        0.000        0.000      100.000        0.000        0.000        2.111        2.153        3.362
     850.000  -227512.359    22797.303    14044.716    44829.137       74.713  -349957.485    40699.256       25.836       25.744        2.635        2.590        2.703        2.684        2.506        2.579        2.656        2.533        2.692        2.684        2.668        2.533        2.485        2.615        2.634        2.521        0.504        0.000        0.000        0.000        0.000        2.000        2.000        0.000        0.000        0.000        0.000        0.000        0.000        0.000        0.000        0.000        0.000        0.000        0.000        0.000        0.000        1.000        0.000        0.000        0.000        0.000        0.000        3.000        1.000        1.000       13.000        1.000        0.000        0.000        0.000        0.000      100.000        0.000        0.000        2.052        2.078        3.369
     860.000  -227101.233    22238.362    13800.417    44812.060       86.165  -348541.712    40503.476       25.922       26.006        2.615        2.616        2.702        2.677        2.402        2.530        2.701        2.563        2.688        2.642        2.648        2.535        2.474        2.598        2.608        2.466        0.479        0.000        0.000        0.000        1.000        3.000        3.000        0.000        0.000        0.000        0.000        0.000        0.000        0.000        0.000        0.000        0.000        0.000        0.000        0.000        0.000        1.000        0.000        0.000        0.000        0.000        0.000        2.000        1.000        3.000        7.000        0.000        0.000        0.000        0.000        0.000      100.000        0.000        0.000        1.845        1.871        3.179
     870.000  -227962.539    23165.782    13389.308    44888.724       80.468  -350167.495    40680.675       25.708       25.829        2.639        2.575        8.573        2.651        2.533        2.620        2.684        2.518        2.652        2.680        2.640        2.514        2.477        2.541        2.654        2.502        0.485        0.000        0.000        0.000        1.000        4.000        3.000        0.000        0.000        0.000        0.000        0.000        0.000        0.000        1.000        0.000        0.000        0.000        0.000        0.000        1.000        1.000        0.000        0.000        0.000        1.000        0.000        1.000        1.000        1.000        6.000        0.000        0.000        0.000        0.000        0.000      100.000        0.000        0.000        1.914        1.940        3.332
     880.000  -227708.163    21977.410    13364.571    44857.654       71.380  -350338.273    42359.095       25.991       25.835        2.600        2.596        8.589        2.651        2.522        2.602        2.675        2.615        2.648        2.674        2.678        2.540        2.464        2.573        2.637        2.507        0.476        0.000        0.000        0.000        0.000        4.000        3.000        0.000        0.000        0.000        0.000        0.000        0.000        0.000        0.000        0.000        0.000        0.000        0.000        0.000        0.000        1.000        0.000        0.000        0.000        1.000        0.000        4.000        2.000        2.000        7.000        0.000        0.000        0.000        0.000        0.000      100.000        0.000        0.000        1.950        1.972        3.378
     890.000  -226973.443    22449.243    13810.712    44660.763       78.776  -347969.551    39996.614       26.095       25.856        2.603        2.597        2.646        2.717        2.595        2.591        2.720        2.574        2.657        2.667        2.649        2.534        2.415        2.597        2.598        2.524        0.481        0.000        0.000        0.000        0.000        4.000        4.000        0.000        0.000        0.000        0.000        0.000        0.000        0.000        0.000        0.000        0.000        0.000        0.000        0.000        0.000        1.000        0.000        0.000        0.000        0.000        0.000        3.000        2.000        3.000        8.000        1.000        0.000        0.000        0.000        0.000      100.000        0.000        0.000        1.699        1.709        3.123
     900.000  -227598.188    22575.261    13597.573    44778.388       71.467  -348847.191    40226.314       25.935       25.886        2.606        2.533        2.662        2.694        2.545        2.570        2.707        2.570        2.644        2.592        2.637        2.488        2.475        2.590        2.670        2.550        0.475        0.000        0.000        0.000        1.000        3.000        4.000        0.000        0.000        0.000        0.000        0.000        0.000        0.000        0.000        0.000        0.000        0.000        0.000        0.000        0.000        1.000        0.000        0.000        0.000        1.000        0.000        0.000        1.000        2.000        8.000        0.000        0.000        0.000        0.000        0.000      100.000        0.000        0.000        1.692        1.700        3.042
     910.000  -227406.022    22142.006    13643.588    44672.517       67.780  -349258.756    41326.843       25.767       25.913        2.632        2.584        2.717        2.709        2.518        2.569        2.654        2.551        2.645        2.652        2.611        2.511        2.465        2.585        2.651        2.552        0.481        0.000        0.000        0.000        1.000        4.000        5.000        0.000        0.000        0.000        0.000        0.000        0.000        0.000        0.000        0.000        0.000        0.000        0.000        0.000        0.000        1.000        0.000        0.000        0.000        0.000        0.000        2.000        1.000        2.000        6.000        1.000        0.000        0.000        0.000        0.000      100.000        0.000        0.000        1.818        1.841        3.281
     920.000  -227100.719    22719.716    13888.454    44763.478       82.490  -348104.273    39549.416       26.230       26.056        2.635        2.560        2.655        2.714        2.563        2.581        2.689        2.609        2.663        2.610        2.652        2.538        2.422        2.599        2.638        2.476        0.475        0.000        0.000        0.000        1.000        4.000        5.000        0.000        0.000        0.000        0.000        0.000        0.000        0.000        0.000        0.000        0.000        0.000        0.000        0.000        0.000        1.000        0.000        0.000        0.000        0.000        0.000        2.000        2.000        2.000        4.000        0.000        0.000        0.000        0.000        0.000      100.000        0.000        0.000        1.958        1.983        3.285
     930.000  -227083.358    22199.565    13953.785    44655.583       85.121  -349141.695    41164.283       26.114       25.798        2.613        2.657        2.676        2.711        2.559        2.556        2.673        2.543        2.652        2.624        2.642        2.509        2.429        2.567        2.687        2.591        0.491        0.000        0.000        0.000        1.000        4.000        5.000        0.000        0.000        0.000        0.000        0.000        0.000        0.000        0.000        0.000        0.000        0.000        0.000        0.000        0.000        1.000        0.000        0.000        0.000        0.000        0.000        3.000        1.000        0.000        6.000        0.000        0.000        0.000        0.000        0.000      100.000        0.000        0.000        1.575        1.590        2.886
     940.000  -228138.086    23220.535    13801.389    44620.094       68.703  -349639.472    39790.665       25.994       25.723        2.596        2.635        8.579        2.675        2.610        2.611        2.624        2.561        2.696        2.658        2.689        2.506        2.467        2.555        2.662        2.567        0.500        0.000        0.000        0.000        1.000        3.000        3.000        0.000        0.000        0.000        0.000        0.000        0.000        0.000        0.000        1.000        0.000        0.000        0.000        0.000        0.000        1.000        0.000        0.000        0.000        1.000        0.000        2.000        0.000        2.000       12.000        0.000        0.000        0.000        0.000        0.000      100.000        0.000        0.000        1.936        1.967        3.094
     950.000  -228553.595    23236.561    13621.493    44538.811       68.617  -349540.223    39521.146       25.796       25.985        2.709        2.626       16.984        8.609        2.523        2.594        2.707        2.602        2.731        2.593        2.731        2.528        2.451        2.500        2.679        2.558        0.461        0.000        0.000        0.000        0.000        2.000        4.000        0.000        0.000        0.000        0.000        0.000        0.000        0.000        0.000        0.000        0.000        0.000        0.000        0.000        0.000        1.000        0.000        0.000        0.000        0.000        0.000        3.000        2.000        1.000       10.000        0.000        0.000        0.000        0.000        0.000      100.000        0.000        0.000        1.758        1.759        3.013
     960.000  -227382.867    23229.290    13644.818    44583.124       65.484  -348862.049    39956.466       25.539       25.912        2.613        2.575       15.454        8.672        2.563        2.593        2.702        2.637        2.671        2.601        2.678        2.556        2.516        2.564        2.696        2.560        0.488        0.000        0.000        0.000        1.000        4.000        3.000        0.000        0.000        0.000        0.000        0.000        0.000        0.000        0.000        0.000        0.000        0.000        0.000        0.000        0.000        1.000        0.000        0.000        0.000        0.000        0.000        1.000        1.000        2.000        7.000        3.000        0.000        0.000        0.000        0.000      100.000        0.000        0.000        1.761        1.761        3.042
     970.000  -227117.413    21867.967    14064.456    44629.684       63.475  -348954.931    41211.937       26.159       26.288        2.660        2.582       13.837        2.716        2.542        2.596        2.664        2.605        2.669        2.641        2.615        2.573        2.529        2.570        2.686        2.569        0.479        0.000        0.000        0.000        1.000        2.000        5.000        0.000        0.000        0.000        0.000        0.000        0.000        0.000        1.000        0.000        0.000        0.000        0.000        0.000        0.000        1.000        0.000        0.000        0.000        0.000        0.000        1.000        1.000        1.000        5.000        0.000        0.000        0.000        0.000        0.000      100.000        0.000        0.000        2.191        2.204        3.330
     980.000  -228253.043    23198.508    13880.428    44465.156       84.836  -349289.250    39407.279       25.963       25.914        2.661        2.660        8.543        2.673        2.557        2.590        2.689        2.588        2.648        2.640        2.673        2.514        2.512        2.614        2.675        2.569        0.467        0.000        0.000        0.000        1.000        3.000        4.000        0.000        0.000        0.000        0.000        0.000        0.000        0.000        0.000        0.000        0.000        0.000        0.000        0.000        0.000        1.000        0.000        0.000        0.000        0.000        0.000        1.000        0.000        1.000        9.000        0.000        0.000        0.000        0.000        0.000      100.000        0.000        0.000        1.922        1.924        3.234
     990.000  -227683.904    22561.848    13613.708    44796.574       78.844  -349970.384    41235.506       25.982       26.049        2.642        2.568        2.652        2.675        2.503        2.617        2.696        2.629        2.657        2.636        2.666        2.521        2.558        2.612        2.705        2.484        0.486        0.000        0.000        0.000        1.000        3.000        5.000        0.000        0.000        0.000        0.000        0.000        0.000        0.000        0.000        0.000        0.000        0.000        0.000        0.000        0.000        1.000        0.000        0.000        0.000        0.000        0.000        0.000        2.000        1.000       10.000        0.000        0.000        0.000        0.000        0.000      100.000        0.000        0.000        1.784        1.791        3.071
    1000.000  -227394.925    22860.033    13828.282    44984.882       75.254  -348627.143    39483.767       25.901       26.053        2.642        2.574        2.659        2.694        2.515        2.578        2.663        2.601        2.690        2.642        2.684        2.534        2.529        2.527        2.674        2.606        0.512        0.000        0.000        0.000        1.000        2.000        4.000        0.000        0.000        0.000        0.000        0.000        0.000        0.000        0.000        1.000        0.000        0.000        0.000        0.000        0.000        1.000        0.000        0.000        0.000        1.000        0.000        1.000        2.000        2.000        9.000        1.000        0.000        0.000        4.494        0.000       95.506        0.000        0.000        1.881        1.903        3.093
     Average  -229096.732    22910.662    13840.713    44885.992       76.381  -352052.307    41241.827       26.004       25.925        2.593        2.595        3.300        2.791        2.496        2.576        2.664        2.580        2.666        2.647        2.626        2.550        2.470        2.582        2.612        2.543        0.488        0.050        0.000        0.099        0.406        2.990        5.337        0.000        0.000        0.000        0.000        0.000        0.257        0.000        0.703        0.089        0.000        0.000        0.000        0.000        0.287        0.475        0.000        0.000        0.000        0.436        0.000        1.436        1.050        1.653        9.356        0.257        0.000        0.000        0.222        0.000       99.778        0.000        0.000        1.788        1.795        2.678

