____Time[ps] Energy[ kJ/mol ]_____Bond _______Angle ____Dihedral ___Planarity _____Coulomb _________VdW _Your result _Your result _Your result _Your result _Your result _Your result _Your result _Your result _Your result _Your result _Your result _Your result _Your result _Your result _Your result _Your result _Your result _Your result _Your result _Your result _Your result _Your result _Your result _Your result _Your result _Your result _Your result _Your result _Your result _Your result _Your result _Your result _Your result _Your result _Your result _Your result _Your result _Your result _Your result _Your result _Your result _Your result _Your result _Your result _Your result _Your result _Your result _Your result _Your result _Your result _Your result _Your result _Your result _Your result _Your result _Your result _Your result _RMSDs[A]:CA ____Backbone __HeavyAtoms
       0.000  -331301.966     6565.516     4384.520    43923.740       10.563  -450463.644    64277.340       25.424       25.257        3.016        3.107        3.121        3.203        3.190        3.009        2.602        2.541        2.596        2.625        2.536        2.604        3.008        2.925        3.085        3.026        0.487        1.000        1.000        0.000        0.000        2.000        3.000        0.000        0.000        0.000        0.000        0.000        0.000        0.000        1.000        0.000        0.000        0.000        0.000        0.000        0.000        0.000        0.000        0.000        0.000        0.000        0.000        0.000        1.000        0.000        7.000        0.000        0.000        0.000        4.494        0.000       95.506        0.000        0.000        0.446        0.497        0.611
      10.000  -248244.605    28515.817    15452.063    43798.398       93.331  -384847.064    48742.850       25.949       25.932        3.018        2.946        3.230        3.211        3.160        3.045        2.603        2.610        2.581        2.609        2.498        2.613        3.007        2.907        3.260        3.003        0.479        1.000        1.000        0.000        0.000        1.000        3.000        0.000        0.000        0.000        0.000        0.000        0.000        0.000        0.000        0.000        0.000        0.000        0.000        0.000        0.000        0.000        0.000        0.000        0.000        0.000        0.000        0.000        0.000        0.000       10.000        0.000        0.000        0.000        4.494        0.000       95.506        0.000        0.000        1.149        1.161        1.468
      20.000  -249240.746    28992.668    14809.845    43459.351       88.600  -384278.640    47687.432       26.111       25.839        3.123        3.007        3.083        3.183        3.252        2.964        2.610        2.536        2.569        2.655        2.490        2.706        3.134        2.929        3.269        2.947        0.474        2.000        1.000        0.000        0.000        1.000        4.000        0.000        0.000        0.000        1.000        0.000        0.000        1.000        1.000        0.000        0.000        0.000        0.000        0.000        0.000        0.000        0.000        0.000        0.000        0.000        2.000        0.000        0.000        1.000       11.000        0.000        0.000        0.000        0.000        0.000      100.000        0.000        0.000        1.394        1.398        1.693
      30.000  -248466.837    28315.254    14902.674    43408.969       94.801  -382534.085    47345.551       26.137       25.981        3.082        2.998        3.144        3.102        3.243        3.034        2.583        2.569        2.613        2.638        2.472        2.660        3.026        2.895        3.227        2.942        0.467        2.000        1.000        0.000        0.000        0.000        4.000        0.000        0.000        0.000        1.000        0.000        0.000        0.000        0.000        0.000        0.000        0.000        0.000        0.000        0.000        0.000        0.000        0.000        0.000        0.000        1.000        0.000        2.000        0.000        9.000        0.000        0.000        0.000        4.494        0.000       95.506        0.000        0.000        1.639        1.632        1.926
      40.000  -247549.073    27020.162    15338.598    43646.041       78.251  -381441.619    47809.494       25.920       25.982        3.021        3.002        3.143        3.143        3.243        3.106        2.628        2.562        2.598        2.573        2.474        2.576        3.060        2.960        3.180        3.017        0.509        2.000        1.000        0.000        1.000        1.000        5.000        0.000        0.000        0.000        1.000        0.000        0.000        1.000        1.000        0.000        0.000        0.000        0.000        0.000        0.000        0.000        0.000        0.000        0.000        0.000        1.000        0.000        1.000        0.000        7.000        0.000        0.000        0.000        0.000        0.000      100.000        0.000        0.000        1.659        1.646        1.938
      50.000  -248302.175    27747.864    15502.395    43619.426       98.872  -381700.419    46429.688       25.866       25.682        2.988        2.969        3.075        3.120        3.207        2.970        2.599        2.568        2.622        2.621        2.520        2.533        3.143        2.925        3.244        2.943        0.475        2.000        1.000        0.000        1.000        1.000        4.000        0.000        0.000        1.000        0.000        0.000        0.000        0.000        0.000        0.000        0.000        0.000        0.000        0.000        0.000        0.000        0.000        0.000        0.000        1.000        2.000        0.000        1.000        0.000        8.000        0.000        0.000        0.000        0.000        0.000      100.000        0.000        0.000        1.625        1.616        1.925
      60.000  -247617.578    27087.227    15411.124    43540.361       74.998  -380617.697    46886.410       26.084       25.771        2.971        2.963        3.144        3.175        3.215        2.995        2.587        2.564        2.620        2.624        2.521        2.504        3.061        2.949        3.197        2.943        0.497        2.000        1.000        0.000        1.000        1.000        4.000        0.000        0.000        0.000        0.000        0.000        0.000        0.000        0.000        0.000        0.000        0.000        0.000        0.000        0.000        0.000        0.000        0.000        0.000        0.000        2.000        0.000        2.000        0.000        8.000        0.000        0.000        0.000        0.000        0.000      100.000        0.000        0.000        1.800        1.788        2.099
      70.000  -247004.477    27593.625    15717.861    43550.801       77.407  -380568.624    46624.452       25.924       25.715        3.033        3.015        3.089        3.172        3.182        2.995        2.620        2.549        2.618        2.678        2.533        2.515        3.074        2.899        3.256        2.976        0.488        2.000        0.000        0.000        0.000        0.000        3.000        0.000        0.000        1.000        2.000        0.000        0.000        1.000        1.000        0.000        0.000        0.000        0.000        0.000        0.000        0.000        0.000        0.000        0.000        0.000        4.000        0.000        0.000        0.000        8.000        0.000        0.000        0.000        0.000        0.000      100.000        0.000        0.000        1.449        1.444        1.806
      80.000  -247313.648    27544.405    15606.411    43438.737       89.753  -379662.247    45669.293       26.157       25.898        3.085        2.973        3.181        3.199        3.149        2.969        2.594        2.587        2.602        2.645        2.540        2.457        2.989        2.915        3.254        2.977        0.466        2.000        0.000        0.000        1.000        0.000        1.000        0.000        0.000        0.000        2.000        0.000        0.000        0.000        0.000        0.000        0.000        0.000        0.000        0.000        0.000        0.000        0.000        0.000        0.000        2.000        3.000        0.000        2.000        0.000        8.000        0.000        0.000        0.000        0.000        0.000      100.000        0.000        0.000        1.619        1.621        1.980
      90.000  -247380.048    26539.617    15189.434    43417.292       82.246  -378083.109    45474.472       26.014       25.729        3.009        3.079        3.108        3.094        3.150        3.043        2.577        2.559        2.610        2.680        2.495        2.471        3.000        2.891        3.250        2.969        0.491        2.000        1.000        0.000        1.000        0.000        4.000        0.000        0.000        0.000        1.000        0.000        0.000        1.000        0.000        0.000        0.000        0.000        0.000        0.000        0.000        0.000        0.000        0.000        0.000        2.000        2.000        0.000        2.000        1.000        8.000        0.000        0.000        0.000        0.000        0.000      100.000        0.000        0.000        1.576        1.563        1.981
     100.000  -246049.095    26548.305    15133.716    43467.219       91.432  -376738.281    45448.514       25.886       25.801        3.074        3.003        3.108        3.142        3.195        3.025        2.625        2.540        2.607        2.628        2.506        2.498        3.132        2.994        3.269        2.920        0.479        2.000        1.000        0.000        1.000        1.000        3.000        0.000        0.000        0.000        0.000        0.000        0.000        0.000        2.000        0.000        0.000        0.000        0.000        0.000        0.000        0.000        0.000        0.000        0.000        1.000        4.000        0.000        2.000        0.000        3.000        0.000        0.000        0.000        0.000        0.000      100.000        0.000        0.000        1.540        1.543        1.927
     110.000  -246790.229    26023.216    15206.207    43444.546       75.734  -378896.026    47356.093       26.059       25.622        3.083        2.955        3.167        3.109        3.248        2.978        2.602        2.507        2.575        2.698        2.508        2.544        3.042        3.009        3.225        2.975        0.499        2.000        0.000        0.000        1.000        1.000        3.000        0.000        0.000        0.000        0.000        0.000        0.000        1.000        0.000        0.000        0.000        0.000        0.000        0.000        0.000        0.000        0.000        0.000        0.000        1.000        2.000        0.000        1.000        0.000        4.000        0.000        0.000        0.000        0.000        0.000      100.000        0.000        0.000        1.528        1.532        1.905
     120.000  -246515.940    25890.019    15044.788    43512.040       71.813  -376879.039    45844.439       26.029       25.634        3.070        2.989        3.112        3.121        3.213        3.014        2.567        2.542        2.661        2.665        2.503        2.463        3.092        2.960        3.227        2.968        0.489        2.000        0.000        0.000        1.000        1.000        3.000        0.000        0.000        0.000        0.000        0.000        0.000        0.000        1.000        0.000        0.000        0.000        0.000        0.000        0.000        0.000        0.000        0.000        0.000        1.000        0.000        0.000        3.000        0.000        9.000        0.000        0.000        0.000        0.000        0.000      100.000        0.000        0.000        1.673        1.655        1.980
     130.000  -245784.237    26823.849    15427.873    43474.253       90.604  -376511.143    44910.327       25.984       25.842        3.001        2.919        3.123        3.171        3.189        2.907        2.588        2.574        2.576        2.614        2.515        2.562        3.117        2.942        3.195        2.937        0.500        2.000        1.000        0.000        1.000        1.000        4.000        0.000        0.000        0.000        0.000        0.000        0.000        0.000        1.000        0.000        0.000        0.000        0.000        0.000        0.000        0.000        0.000        0.000        0.000        1.000        4.000        0.000        3.000        1.000        8.000        0.000        0.000        0.000        0.000        0.000      100.000        0.000        0.000        1.564        1.544        1.907
     140.000  -246462.578    25945.833    14819.412    43536.023       84.097  -376913.576    46065.632       25.932       25.508        2.993        3.006        3.167        3.199        3.208        3.025        2.609        2.518        2.604        2.671        2.466        2.506        3.066        2.882        3.301        2.922        0.480        2.000        0.000        0.000        1.000        0.000        4.000        0.000        0.000        0.000        0.000        0.000        0.000        0.000        1.000        0.000        0.000        0.000        0.000        0.000        0.000        0.000        0.000        0.000        0.000        2.000        4.000        0.000        0.000        1.000        8.000        0.000        0.000        0.000        0.000        0.000      100.000        0.000        0.000        1.576        1.565        1.873
     150.000  -246655.986    25950.356    15148.049    43693.670       82.053  -377694.068    46163.954       25.871       25.783        2.991        2.960        3.143        3.197        3.225        3.008        2.607        2.560        2.639        2.671        2.488        2.489        3.102        2.952        3.280        3.039        0.485        2.000        0.000        0.000        1.000        0.000        3.000        0.000        0.000        0.000        0.000        0.000        0.000        0.000        1.000        0.000        0.000        0.000        0.000        0.000        0.000        0.000        0.000        0.000        0.000        0.000        4.000        0.000        2.000        0.000       11.000        0.000        0.000        0.000        4.494        0.000       95.506        0.000        0.000        1.647        1.651        2.044
     160.000  -246235.919    25459.444    15149.607    43531.111       84.818  -376827.250    46366.351       25.918       25.918        2.902        2.965        3.105        3.169        3.204        3.025        2.614        2.535        2.580        2.657        2.501        2.543        3.155        3.156        3.162        2.968        0.482        1.000        0.000        0.000        1.000        0.000        5.000        0.000        0.000        0.000        1.000        0.000        0.000        0.000        2.000        0.000        0.000        0.000        0.000        0.000        0.000        0.000        0.000        0.000        0.000        1.000        2.000        0.000        2.000        0.000        5.000        0.000        0.000        0.000        0.000        0.000      100.000        0.000        0.000        1.815        1.831        2.276
     170.000  -245028.120    25558.040    14684.967    43909.762       89.239  -376192.226    46922.098       25.727       25.458        3.048        2.935        3.137        3.188        3.230        3.012        2.617        2.538        2.630        2.622        2.479        2.541        3.130        2.985        3.254        2.911        0.499        2.000        0.000        0.000        1.000        1.000        3.000        0.000        0.000        0.000        0.000        0.000        0.000        0.000        1.000        0.000        0.000        0.000        0.000        0.000        0.000        0.000        0.000        0.000        0.000        1.000        3.000        0.000        1.000        1.000        7.000        0.000        0.000        0.000        0.000        0.000      100.000        0.000        0.000        1.620        1.657        2.143
     180.000  -246233.708    25015.842    15146.951    43622.288       92.173  -376134.015    46023.053       26.225       25.822        3.048        2.955        3.206        3.177        3.240        3.092        2.618        2.504        2.623        2.656        2.479        2.495        3.038        2.960        3.209        2.924        0.504        2.000        0.000        0.000        1.000        0.000        4.000        0.000        0.000        0.000        1.000        0.000        0.000        0.000        2.000        0.000        0.000        0.000        0.000        0.000        0.000        0.000        0.000        0.000        0.000        1.000        1.000        0.000        0.000        1.000        9.000        0.000        0.000        0.000        4.494        0.000       95.506        0.000        0.000        1.745        1.781        2.131
     190.000  -245548.899    25689.627    14973.122    43539.204       81.285  -375524.861    45692.723       26.008       25.793        2.987        3.017        3.147        3.146        3.220        3.052        2.606        2.563        2.607        2.673        2.469        2.499        3.054        2.892        3.234        2.959        0.504        2.000        0.000        0.000        1.000        0.000        5.000        0.000        0.000        0.000        1.000        0.000        0.000        0.000        1.000        0.000        0.000        0.000        0.000        0.000        0.000        0.000        0.000        0.000        0.000        1.000        2.000        0.000        0.000        0.000        7.000        0.000        0.000        0.000        4.494        0.000       95.506        0.000        0.000        1.634        1.641        2.049
     200.000  -245508.347    25075.499    15167.361    43585.523       73.991  -375418.705    46007.984       25.751       25.562        3.087        2.928        3.116        3.175        3.210        3.061        2.669        2.537        2.647        2.609        2.471        2.531        3.038        2.960        3.272        2.947        0.489        2.000        0.000        0.000        1.000        0.000        5.000        0.000        0.000        0.000        1.000        0.000        0.000        0.000        1.000        0.000        0.000        0.000        0.000        0.000        0.000        0.000        0.000        0.000        0.000        1.000        1.000        0.000        1.000        0.000        7.000        0.000        0.000        0.000        0.000        0.000      100.000        0.000        0.000        1.344        1.368        1.898
     210.000  -244916.307    25664.392    14765.761    43308.843      100.026  -374451.596    45696.268       26.053       25.650        3.142        2.920        3.199        3.234        3.255        3.063        2.678        2.552        2.585        2.625        2.467        2.536        3.042        2.969        3.311        2.912        0.498        1.000        0.000        0.000        1.000        0.000        4.000        0.000        0.000        0.000        2.000        0.000        0.000        1.000        2.000        0.000        0.000        0.000        0.000        0.000        0.000        0.000        0.000        0.000        0.000        0.000        0.000        0.000        2.000        1.000        9.000        0.000        0.000        0.000        0.000        0.000      100.000        0.000        0.000        1.668        1.686        2.113
     220.000  -245770.717    24463.775    14705.075    43604.137       81.298  -374617.532    45992.529       26.167       25.963        2.983        2.988        3.057        3.111        3.197        3.053        2.696        2.562        2.610        2.611        2.499        2.530        3.048        2.949        3.276        2.948        0.476        2.000        1.000        0.000        1.000        0.000        4.000        0.000        0.000        0.000        1.000        0.000        0.000        0.000        1.000        0.000        0.000        0.000        0.000        0.000        0.000        0.000        0.000        0.000        0.000        0.000        1.000        0.000        1.000        0.000        7.000        0.000        0.000        0.000        0.000        0.000      100.000        0.000        0.000        1.705        1.712        2.113
     230.000  -245327.517    24590.668    14639.530    43438.539       67.443  -373513.694    45449.996       25.938       25.773        3.083        2.953        3.102        3.178        3.199        2.953        2.699        2.543        2.593        2.654        2.432        2.515        3.096        2.998        3.246        2.918        0.481        1.000        0.000        0.000        1.000        0.000        5.000        0.000        0.000        0.000        2.000        0.000        0.000        0.000        3.000        0.000        0.000        0.000        0.000        0.000        0.000        0.000        0.000        0.000        0.000        1.000        1.000        0.000        2.000        1.000        5.000        0.000        0.000        0.000        0.000        0.000      100.000        0.000        0.000        1.605        1.624        2.160
     240.000  -245509.381    26226.135    15273.576    43590.345       86.958  -375064.418    44378.023       26.165       25.896        3.020        3.022        3.071        3.112        3.194        2.958        2.686        2.551        2.602        2.612        2.441        2.443        2.990        2.967        3.268        2.961        0.492        1.000        1.000        0.000        1.000        0.000        4.000        0.000        0.000        0.000        0.000        0.000        0.000        0.000        1.000        0.000        0.000        0.000        0.000        0.000        0.000        0.000        0.000        0.000        0.000        1.000        1.000        0.000        2.000        1.000        7.000        0.000        0.000        0.000        0.000        0.000      100.000        0.000        0.000        1.827        1.846        2.302
     250.000  -244898.089    25017.308    14922.167    43569.216       80.786  -372881.646    44394.079       25.660       25.654        2.985        2.956        3.072        3.201        3.203        2.950        2.685        2.494        2.561        2.657        2.473        2.485        3.052        2.964        3.274        2.973        0.493        1.000        1.000        0.000        1.000        0.000        4.000        0.000        0.000        0.000        1.000        0.000        0.000        0.000        2.000        0.000        0.000        0.000        0.000        0.000        0.000        0.000        0.000        0.000        0.000        0.000        0.000        0.000        1.000        1.000        8.000        0.000        0.000        0.000        0.000        0.000      100.000        0.000        0.000        1.624        1.638        2.134
     260.000  -244260.159    25054.245    15156.162    43670.382       79.191  -373777.370    45557.230       25.766       25.782        3.038        3.019        3.205        3.118        3.223        2.904        2.685        2.477        2.612        2.620        2.467        2.505        3.041        2.998        3.275        2.967        0.481        1.000        1.000        0.000        1.000        0.000        4.000        0.000        0.000        0.000        0.000        0.000        0.000        0.000        2.000        0.000        0.000        0.000        0.000        0.000        0.000        0.000        0.000        0.000        0.000        0.000        2.000        0.000        1.000        0.000        5.000        0.000        0.000        0.000        0.000        0.000      100.000        0.000        0.000        1.760        1.786        2.195
     270.000  -245121.169    25113.348    15173.358    43564.174       69.414  -373110.237    44068.773       26.088       25.962        3.097        3.056        3.100        3.145        3.189        2.880        2.672        2.562        2.600        2.633        2.452        2.502        3.063        2.952        3.238        2.904        0.494        1.000        0.000        0.000        1.000        0.000        4.000        0.000        0.000        0.000        0.000        0.000        0.000        1.000        0.000        0.000        0.000        0.000        0.000        0.000        0.000        0.000        0.000        0.000        0.000        1.000        3.000        0.000        1.000        0.000        7.000        0.000        0.000        0.000        0.000        0.000      100.000        0.000        0.000        2.033        2.022        2.499
     280.000  -244025.510    25197.697    15199.832    43538.295       77.285  -373061.003    45022.384       25.946       25.841        2.989        2.964        3.152        3.135        3.176        3.107        2.674        2.479        2.630        2.655        2.438        2.497        3.077        3.003        3.229        2.950        0.478        2.000        1.000        0.000        1.000        1.000        5.000        0.000        0.000        0.000        0.000        0.000        0.000        0.000        3.000        0.000        0.000        0.000        0.000        0.000        0.000        0.000        0.000        0.000        0.000        1.000        2.000        0.000        1.000        0.000        7.000        0.000        0.000        0.000        0.000        0.000      100.000        0.000        0.000        2.347        2.367        2.852
     290.000  -244973.950    24201.305    14997.093    43800.841      114.310  -374011.674    45924.174       25.639       25.666        2.969        2.939        3.201        3.167        3.226        3.069        2.685        2.552        2.583        2.631        2.483        2.519        3.087        3.004        3.293        2.911        0.487        2.000        1.000        0.000        1.000        0.000        4.000        0.000        0.000        0.000        0.000        0.000        0.000        0.000        1.000        0.000        0.000        0.000        0.000        0.000        0.000        0.000        0.000        0.000        0.000        1.000        1.000        0.000        2.000        3.000       15.000        0.000        0.000        0.000        0.000        0.000      100.000        0.000        0.000        2.263        2.283        2.759
     300.000  -244724.888    24865.895    14695.129    43449.885       73.722  -373135.652    45326.133       25.931       25.980        3.069        2.964        3.088        3.173        3.183        2.982        2.689        2.472        2.646        2.615        2.443        2.520        3.113        3.016        3.255        2.988        0.485        2.000        1.000        0.000        1.000        0.000        3.000        0.000        0.000        0.000        0.000        0.000        0.000        1.000        3.000        0.000        0.000        0.000        0.000        0.000        0.000        0.000        0.000        0.000        0.000        1.000        0.000        0.000        3.000        1.000        5.000        0.000        0.000        0.000        0.000        0.000      100.000        0.000        0.000        2.120        2.102        2.684
     310.000  -244380.771    24112.086    14818.734    43541.482       76.038  -371803.140    44874.029       25.659       25.718        3.039        2.974        3.172        3.111        3.234        3.058        2.710        2.542        2.629        2.685        2.470        2.463        3.115        2.966        3.249        2.945        0.494        2.000        1.000        0.000        1.000        0.000        4.000        0.000        0.000        0.000        0.000        0.000        0.000        1.000        1.000        0.000        0.000        0.000        0.000        0.000        0.000        0.000        0.000        0.000        0.000        0.000        1.000        0.000        2.000        2.000        5.000        0.000        0.000        0.000        0.000        0.000      100.000        0.000        0.000        2.103        2.107        2.754
     320.000  -244305.703    25550.135    15241.832    43480.811       90.752  -371178.451    42509.220       25.798       25.793        2.986        2.907        3.201        3.141        3.188        3.013        2.708        2.547        2.659        2.719        2.444        2.511        3.040        3.023        3.320        3.007        0.470        1.000        1.000        0.000        1.000        0.000        4.000        0.000        0.000        0.000        0.000        0.000        0.000        1.000        2.000        0.000        0.000        0.000        0.000        0.000        0.000        0.000        0.000        0.000        0.000        1.000        0.000        0.000        3.000        0.000        4.000        0.000        0.000        0.000        4.494        0.000       95.506        0.000        0.000        1.974        1.978        2.523
     330.000  -244031.603    24952.022    14941.493    43940.314       92.833  -373141.239    45182.973       25.637       25.516        2.978        3.022        3.160        3.167        3.186        3.014        2.669        2.461        2.652        2.617        2.465        2.498        3.037        2.986        3.236        2.930        0.496        2.000        1.000        0.000        1.000        0.000        4.000        0.000        0.000        1.000        1.000        0.000        0.000        0.000        3.000        0.000        0.000        0.000        0.000        0.000        0.000        0.000        0.000        0.000        0.000        1.000        1.000        0.000        2.000        1.000       10.000        0.000        0.000        0.000        0.000        0.000      100.000        0.000        0.000        1.711        1.703        2.327
     340.000  -244830.441    25743.167    14789.327    43411.316       79.772  -372540.925    43686.903       25.884       25.598        3.089        3.029        3.108        3.218        3.259        3.018        2.723        2.481        2.615        2.667        2.439        2.558        3.113        3.013        3.289        2.985        0.484        2.000        1.000        0.000        1.000        0.000        4.000        0.000        0.000        1.000        0.000        0.000        0.000        0.000        1.000        0.000        0.000        0.000        0.000        0.000        0.000        0.000        0.000        0.000        0.000        1.000        1.000        0.000        1.000        1.000        5.000        0.000        0.000        0.000        0.000        0.000      100.000        0.000        0.000        1.746        1.748        2.361
     350.000  -243652.568    24321.260    15236.237    43877.700      101.772  -373218.923    46029.386       25.722       25.571        3.026        2.961        3.131        3.203        3.149        2.985        2.699        2.532        2.571        2.642        2.450        2.498        3.055        3.009        3.247        2.972        0.481        2.000        1.000        0.000        1.000        0.000        3.000        0.000        0.000        1.000        0.000        0.000        0.000        0.000        2.000        0.000        0.000        0.000        0.000        0.000        0.000        0.000        0.000        0.000        0.000        1.000        1.000        0.000        1.000        0.000        6.000        0.000        0.000        0.000        4.494        0.000       95.506        0.000        0.000        1.872        1.851        2.534
     360.000  -244223.019    23692.077    15230.649    43950.811      117.911  -373201.691    45987.225       25.721       25.654        3.006        2.960        3.174        3.192        3.227        2.928        2.672        2.523        2.680        2.671        2.468        2.504        3.060        2.995        3.235        2.982        0.477        2.000        1.000        0.000        1.000        0.000        5.000        0.000        0.000        0.000        1.000        0.000        0.000        0.000        2.000        0.000        0.000        0.000        0.000        0.000        0.000        0.000        0.000        0.000        0.000        1.000        4.000        0.000        0.000        2.000       10.000        0.000        0.000        0.000        0.000        0.000      100.000        0.000        0.000        1.963        1.948        2.620
     370.000  -244346.898    24819.100    14885.540    43749.241       81.275  -373209.947    45327.892       25.896       25.562        2.924        2.982        3.132        3.195        3.172        3.067        2.724        2.459        2.650        2.665        2.435        2.483        3.072        3.027        3.231        2.983        0.481        2.000        1.000        0.000        0.000        0.000        4.000        0.000        0.000        0.000        1.000        0.000        0.000        0.000        0.000        0.000        0.000        0.000        0.000        0.000        0.000        0.000        0.000        0.000        0.000        1.000        1.000        0.000        1.000        0.000        5.000        0.000        0.000        0.000        0.000        0.000      100.000        0.000        0.000        1.900        1.897        2.510
     380.000  -243763.890    24647.240    15167.528    43790.229       79.077  -371441.226    43993.261       25.695       25.690        2.932        2.920        3.168        3.237        3.262        3.005        2.702        2.557        2.599        2.675        2.441        2.555        3.067        3.011        3.265        2.957        0.477        2.000        1.000        0.000        0.000        0.000        4.000        0.000        0.000        0.000        0.000        0.000        0.000        0.000        0.000        0.000        0.000        0.000        0.000        0.000        0.000        0.000        0.000        0.000        0.000        0.000        0.000        0.000        1.000        1.000        8.000        0.000        0.000        0.000        0.000        0.000      100.000        0.000        0.000        1.988        1.961        2.603
     390.000  -243848.342    23912.147    15184.335    43703.071       87.582  -372316.949    45581.472       25.935       25.776        3.017        2.953        3.107        3.189        3.175        3.066        2.670        2.489        2.625        2.679        2.452        2.504        3.056        3.018        3.245        2.964        0.471        2.000        0.000        0.000        0.000        1.000        4.000        0.000        0.000        0.000        0.000        0.000        0.000        0.000        2.000        0.000        0.000        0.000        0.000        0.000        0.000        0.000        0.000        0.000        0.000        1.000        1.000        0.000        1.000        2.000        1.000        0.000        0.000        0.000        0.000        0.000      100.000        0.000        0.000        2.002        1.970        2.616
     400.000  -244030.412    25502.420    14784.688    43611.129       97.420  -371808.178    43782.109       25.518       25.650        3.006        2.967        3.133        3.179        3.284        2.894        2.688        2.498        2.652        2.722        2.430        2.538        3.113        3.002        3.251        2.958        0.471        1.000        0.000        0.000        1.000        0.000        6.000        0.000        0.000        0.000        0.000        0.000        0.000        0.000        2.000        0.000        0.000        0.000        0.000        0.000        0.000        0.000        0.000        0.000        0.000        1.000        2.000        0.000        2.000        1.000        5.000        0.000        0.000        0.000        0.000        0.000      100.000        0.000        0.000        1.888        1.873        2.424
     410.000  -243058.435    23794.485    14928.036    43784.315       79.273  -371305.237    45660.692       25.332       25.753        2.971        3.030        3.161        3.194        3.111        3.073        2.665        2.499        2.666        2.693        2.483        2.437        3.049        2.965        3.257        2.956        0.484        1.000        0.000        0.000        1.000        1.000        5.000        0.000        0.000        0.000        1.000        0.000        0.000        0.000        3.000        0.000        0.000        0.000        0.000        0.000        0.000        0.000        0.000        0.000        0.000        0.000        6.000        0.000        1.000        0.000        3.000        0.000        0.000        0.000        0.000        0.000      100.000        0.000        0.000        2.365        2.384        3.051
     420.000  -244487.523    24169.029    14737.975    43832.177       98.993  -372831.936    45506.240       25.695       25.782        3.040        2.990        3.149        3.136        3.245        2.940        2.715        2.531        2.591        2.698        2.464        2.576        3.088        3.006        3.224        2.958        0.494        1.000        0.000        0.000        1.000        1.000        5.000        0.000        0.000        1.000        0.000        0.000        0.000        0.000        2.000        0.000        0.000        0.000        0.000        0.000        0.000        0.000        0.000        0.000        0.000        1.000        3.000        0.000        1.000        0.000        9.000        0.000        0.000        0.000        0.000        0.000      100.000        0.000        0.000        2.518        2.569        2.953
     430.000  -244759.470    24837.436    14423.894    43773.826       98.513  -371067.442    43174.303       25.735       25.725        2.984        2.891        3.066        3.157        3.240        3.066        2.673        2.488        2.628        2.673        2.490        2.466        3.105        3.014        3.298        3.014        0.462        1.000        0.000        0.000        0.000        1.000        5.000        0.000        0.000        0.000        1.000        0.000        0.000        0.000        1.000        0.000        0.000        0.000        0.000        0.000        0.000        0.000        0.000        0.000        0.000        1.000        3.000        0.000        3.000        1.000        8.000        0.000        0.000        0.000        0.000        0.000      100.000        0.000        0.000        2.605        2.604        3.007
     440.000  -244614.961    24135.427    14707.642    43774.797       87.462  -372707.656    45387.366       25.622       25.534        3.011        2.922        3.139        3.152        3.199        2.964        2.683        2.529        2.646        2.713        2.461        2.495        3.095        3.016        3.206        2.918        0.468        1.000        0.000        0.000        1.000        1.000        5.000        0.000        0.000        0.000        0.000        0.000        0.000        0.000        2.000        0.000        0.000        0.000        0.000        0.000        0.000        0.000        0.000        0.000        0.000        0.000        0.000        0.000        3.000        1.000        6.000        0.000        0.000        0.000        0.000        0.000      100.000        0.000        0.000        2.168        2.196        2.601
     450.000  -243917.399    23958.912    14646.814    43683.720       79.073  -371186.492    44900.574       26.051       25.883        3.055        2.938        3.155        3.158        3.224        3.015        2.677        2.503        2.670        2.695        2.477        2.509        3.053        3.017        3.232        2.968        0.476        1.000        2.000        0.000        1.000        0.000        5.000        0.000        0.000        0.000        1.000        0.000        0.000        0.000        0.000        0.000        0.000        0.000        0.000        0.000        0.000        0.000        0.000        0.000        0.000        2.000        0.000        0.000        1.000        2.000       10.000        0.000        0.000        0.000        0.000        0.000      100.000        0.000        0.000        2.029        2.068        2.541
     460.000  -242823.484    23861.223    14531.400    43622.763       70.035  -369420.611    44511.706       25.713       25.679        2.971        3.008        3.141        3.155        3.180        3.044        2.685        2.603        2.626        2.674        2.492        2.490        3.041        3.060        3.256        2.949        0.462        1.000        1.000        0.000        1.000        1.000        6.000        0.000        0.000        0.000        0.000        0.000        0.000        0.000        2.000        0.000        0.000        0.000        0.000        0.000        0.000        0.000        0.000        0.000        0.000        0.000        2.000        0.000        2.000        1.000        9.000        0.000        0.000        0.000        4.494        0.000       95.506        0.000        0.000        1.996        2.025        2.462
     470.000  -244119.606    23842.934    14771.747    43918.994       76.801  -372422.807    45692.725       25.610       25.506        3.059        2.973        3.181        3.083        3.155        2.985        2.692        2.651        2.625        2.702        2.469        2.507        3.098        2.999        3.236        2.993        0.489        1.000        1.000        0.000        0.000        1.000        4.000        0.000        0.000        0.000        0.000        0.000        0.000        0.000        2.000        0.000        0.000        0.000        0.000        0.000        0.000        0.000        0.000        0.000        0.000        0.000        0.000        0.000        2.000        0.000       10.000        0.000        0.000        0.000        0.000        0.000      100.000        0.000        0.000        2.077        2.141        2.585
     480.000  -243783.126    25107.486    14648.581    43898.259       86.159  -371309.101    43785.489       25.937       25.611        2.989        2.944        3.100        3.147        3.187        2.997        2.675        2.601        2.622        2.680        2.439        2.532        3.050        3.039        3.254        2.957        0.478        1.000        1.000        0.000        0.000        2.000        4.000        0.000        0.000        0.000        1.000        0.000        0.000        0.000        2.000        0.000        0.000        0.000        0.000        0.000        0.000        0.000        0.000        0.000        0.000        0.000        2.000        0.000        2.000        1.000        6.000        0.000        0.000        0.000        4.494        0.000       95.506        0.000        0.000        2.555        2.639        3.054
     490.000  -244130.765    23747.371    14866.411    43622.981       86.041  -371502.149    45048.580       25.735       25.639        2.999        2.953        3.084        3.149        3.201        2.941        2.671        2.592        2.648        2.722        2.494        2.501        3.069        2.994        3.241        2.992        0.474        1.000        1.000        0.000        0.000        1.000        6.000        0.000        0.000        0.000        1.000        0.000        0.000        0.000        1.000        0.000        0.000        0.000        0.000        0.000        0.000        0.000        0.000        0.000        0.000        0.000        1.000        0.000        1.000        0.000        1.000        0.000        0.000        0.000        4.494        0.000       95.506        0.000        0.000        2.766        2.834        3.309
     500.000  -243325.685    23606.327    14759.521    43773.228       89.130  -370310.853    44756.963       25.552       25.494        3.069        2.958        3.107        3.174        3.185        2.940        2.638        2.556        2.622        2.669        2.506        2.506        3.070        3.032        3.228        2.970        0.487        1.000        2.000        0.000        1.000        2.000        5.000        0.000        0.000        0.000        0.000        0.000        0.000        0.000        1.000        0.000        0.000        0.000        0.000        0.000        0.000        0.000        0.000        0.000        0.000        0.000        1.000        0.000        1.000        0.000        6.000        0.000        0.000        0.000        4.494        0.000       95.506        0.000        0.000        2.675        2.719        3.149
     510.000  -243298.456    24858.149    14631.478    43635.729       81.042  -370435.506    43930.653       25.571       25.485        3.004        2.905        3.090        3.147        3.198        2.898        2.657        2.614        2.602        2.690        2.498        2.514        3.047        3.087        3.275        2.916        0.490        1.000        2.000        0.000        1.000        1.000        5.000        0.000        0.000        0.000        1.000        0.000        0.000        0.000        1.000        0.000        0.000        0.000        0.000        0.000        0.000        0.000        0.000        0.000        0.000        1.000        2.000        0.000        0.000        2.000        6.000        0.000        0.000        0.000        4.494        0.000       95.506        0.000        0.000        2.807        2.861        3.280
     520.000  -243672.969    25113.320    14398.144    43612.329      113.306  -370492.573    43582.505       25.679       25.618        3.053        3.020        3.082        3.185        3.247        2.941        2.690        2.567        2.583        2.696        2.460        2.479        3.005        3.056        3.286        3.011        0.494        0.000        1.000        0.000        1.000        1.000        4.000        0.000        0.000        0.000        1.000        0.000        0.000        0.000        1.000        0.000        0.000        0.000        0.000        0.000        0.000        0.000        0.000        0.000        0.000        1.000        3.000        0.000        1.000        1.000        3.000        0.000        0.000        0.000        0.000        0.000      100.000        0.000        0.000        2.907        2.984        3.526
     530.000  -243219.612    24607.813    14887.431    43731.399       93.871  -371505.193    44965.067       25.430       25.420        3.066        2.947        3.151        3.167        3.146        3.019        2.651        2.623        2.629        2.688        2.463        2.499        3.048        3.068        3.208        2.877        0.486        1.000        1.000        0.000        1.000        2.000        5.000        0.000        0.000        0.000        3.000        0.000        0.000        0.000        1.000        0.000        0.000        0.000        0.000        0.000        0.000        0.000        0.000        0.000        0.000        1.000        0.000        0.000        0.000        1.000        6.000        0.000        0.000        0.000        4.494        0.000       95.506        0.000        0.000        2.542        2.621        3.108
     540.000  -244127.399    24194.367    14595.397    43840.280       72.389  -370660.005    43830.174       25.609       25.661        2.997        2.966        3.119        3.144        3.132        3.042        2.721        2.589        2.627        2.707        2.474        2.533        3.012        3.030        3.243        2.931        0.475        1.000        1.000        0.000        0.000        1.000        5.000        0.000        0.000        0.000        0.000        0.000        0.000        0.000        1.000        0.000        0.000        0.000        0.000        0.000        0.000        0.000        0.000        0.000        0.000        0.000        0.000        0.000        1.000        1.000        8.000        0.000        0.000        0.000        0.000        0.000      100.000        0.000        0.000        2.335        2.428        2.927
     550.000  -243322.769    23957.677    14613.542    43740.544      111.664  -369712.415    43966.218       25.765       25.757        3.005        3.015        3.116        3.215        3.137        3.002        2.712        2.577        2.596        2.666        2.477        2.488        3.092        3.065        3.224        2.966        0.482        1.000        1.000        0.000        1.000        2.000        3.000        0.000        0.000        0.000        0.000        0.000        0.000        0.000        0.000        0.000        0.000        0.000        0.000        0.000        0.000        0.000        0.000        0.000        0.000        1.000        1.000        0.000        0.000        0.000       12.000        0.000        0.000        0.000        0.000        0.000      100.000        0.000        0.000        2.403        2.492        2.863
     560.000  -244055.876    25023.017    14727.455    43530.227       93.649  -371345.000    43914.776       25.531       25.588        3.037        2.974        3.126        3.200        3.166        3.061        2.672        2.582        2.603        2.702        2.466        2.484        3.047        3.017        3.240        2.961        0.466        1.000        0.000        0.000        1.000        2.000        3.000        0.000        0.000        0.000        1.000        0.000        0.000        0.000        2.000        0.000        0.000        0.000        0.000        0.000        0.000        0.000        0.000        0.000        0.000        0.000        2.000        0.000        0.000        0.000        6.000        0.000        0.000        0.000        4.494        0.000       95.506        0.000        0.000        2.461        2.539        2.976
     570.000  -243434.007    24442.789    14609.873    43705.860       80.393  -369334.869    43061.946       25.868       26.001        2.921        3.008        3.048        3.125        3.153        3.005        2.715        2.561        2.586        2.733        2.398        2.461        3.143        3.030        3.251        2.953        0.510        1.000        0.000        0.000        0.000        2.000        3.000        0.000        0.000        0.000        0.000        0.000        0.000        0.000        3.000        0.000        0.000        0.000        0.000        0.000        0.000        0.000        0.000        0.000        0.000        0.000        1.000        0.000        2.000        1.000       10.000        0.000        0.000        0.000        0.000        0.000      100.000        0.000        0.000        2.410        2.508        2.904
     580.000  -243600.461    25374.617    14715.804    43813.715      105.247  -370130.216    42520.373       25.517       25.516        3.043        3.002        3.052        3.159        3.178        2.962        2.713        2.608        2.661        2.697        2.460        2.480        3.069        3.041        3.296        2.987        0.479        1.000        1.000        0.000        1.000        2.000        4.000        0.000        0.000        0.000        2.000        0.000        0.000        0.000        1.000        0.000        0.000        0.000        0.000        0.000        0.000        0.000        0.000        0.000        0.000        0.000        1.000        0.000        0.000        1.000       12.000        0.000        0.000        0.000        0.000        0.000      100.000        0.000        0.000        2.346        2.446        2.839
     590.000  -243331.093    24023.520    15224.666    43644.534       75.527  -370587.746    44288.406       25.842       25.710        2.986        2.988        3.148        3.135        3.173        3.009        2.707        2.554        2.597        2.690        2.461        2.498        3.103        3.058        3.256        2.984        0.464        1.000        1.000        0.000        0.000        2.000        5.000        0.000        0.000        0.000        0.000        0.000        0.000        0.000        0.000        0.000        0.000        0.000        0.000        0.000        0.000        0.000        0.000        0.000        0.000        1.000        0.000        0.000        1.000        0.000        7.000        0.000        0.000        0.000        0.000        0.000      100.000        0.000        0.000        2.407        2.522        2.798
     600.000  -243634.575    23391.647    14266.245    44004.620       89.071  -370798.070    45411.911       25.581       25.654        3.043        2.982        3.130        3.126        3.146        2.920        2.676        2.624        2.609        2.649        2.422        2.474        3.046        3.077        3.273        2.937        0.502        0.000        1.000        0.000        0.000        1.000        5.000        0.000        0.000        0.000        0.000        0.000        0.000        0.000        2.000        0.000        0.000        0.000        0.000        0.000        0.000        0.000        0.000        0.000        0.000        1.000        3.000        0.000        1.000        2.000        9.000        0.000        0.000        0.000        0.000        0.000      100.000        0.000        0.000        2.350        2.459        2.741
     610.000  -244024.997    25057.566    14867.231    43742.370       97.262  -372168.514    44379.089       25.594       25.889        3.016        3.014        3.145        3.164        3.169        3.004        2.726        2.554        2.594        2.747        2.431        2.521        3.108        3.037        3.303        2.966        0.471        1.000        2.000        0.000        0.000        2.000        4.000        0.000        0.000        0.000        0.000        0.000        0.000        0.000        1.000        0.000        0.000        0.000        0.000        0.000        0.000        0.000        0.000        0.000        0.000        0.000        1.000        0.000        1.000        0.000        7.000        0.000        0.000        0.000        4.494        0.000       95.506        0.000        0.000        2.120        2.229        2.547
     620.000  -244044.035    24251.914    14884.758    43871.366       98.796  -371402.487    44251.618       25.472       25.840        3.030        2.936        3.120        3.215        3.200        3.012        2.693        2.576        2.600        2.680        2.472        2.527        3.065        2.970        3.233        2.978        0.480        1.000        2.000        0.000        0.000        2.000        4.000        0.000        0.000        0.000        1.000        0.000        0.000        0.000        2.000        0.000        0.000        0.000        0.000        0.000        0.000        0.000        0.000        0.000        0.000        1.000        0.000        0.000        0.000        2.000        6.000        0.000        0.000        0.000        4.494        0.000       95.506        0.000        0.000        2.159        2.258        2.592
     630.000  -243157.257    23421.682    15061.397    43702.278       79.480  -370424.392    45002.299       25.589       25.819        2.908        2.976        3.158        3.200        3.179        3.015        2.651        2.598        2.623        2.678        2.455        2.501        2.964        2.949        3.253        3.005        0.477        2.000        2.000        0.000        0.000        1.000        4.000        0.000        0.000        0.000        0.000        0.000        0.000        0.000        1.000        0.000        0.000        0.000        0.000        0.000        0.000        0.000        0.000        0.000        0.000        2.000        1.000        0.000        0.000        0.000        6.000        0.000        0.000        0.000        0.000        0.000      100.000        0.000        0.000        2.074        2.172        2.506
     640.000  -243499.011    24616.208    14618.797    43771.555       88.121  -370758.051    44164.359       25.779       25.905        3.008        2.934        3.111        3.224        3.231        3.102        2.675        2.599        2.635        2.665        2.524        2.517        3.083        3.073        3.254        2.991        0.469        1.000        1.000        0.000        0.000        0.000        4.000        0.000        0.000        0.000        0.000        0.000        0.000        0.000        0.000        0.000        0.000        0.000        0.000        0.000        0.000        0.000        0.000        0.000        0.000        1.000        2.000        0.000        0.000        1.000        8.000        0.000        0.000        0.000        0.000        0.000      100.000        0.000        0.000        1.834        1.899        2.355
     650.000  -243214.198    23646.846    14878.481    43686.305      104.318  -369863.831    44333.684       25.537       25.610        3.059        2.965        3.124        3.121        3.219        3.120        2.704        2.584        2.641        2.653        2.458        2.530        3.100        3.029        3.303        2.951        0.499        1.000        1.000        0.000        0.000        0.000        4.000        0.000        0.000        0.000        1.000        0.000        0.000        0.000        1.000        0.000        0.000        0.000        0.000        0.000        0.000        0.000        0.000        0.000        0.000        1.000        2.000        0.000        0.000        1.000        9.000        0.000        0.000        0.000        0.000        0.000      100.000        0.000        0.000        1.671        1.733        2.200
     660.000  -243343.112    23845.203    14873.445    43689.455       63.767  -371012.835    45197.854       25.875       25.798        3.065        2.959        3.093        3.152        3.216        3.055        2.675        2.598        2.585        2.633        2.466        2.520        2.989        3.038        3.271        2.935        0.474        2.000        1.000        0.000        0.000        0.000        4.000        0.000        0.000        0.000        0.000        0.000        0.000        0.000        2.000        0.000        0.000        0.000        0.000        0.000        0.000        0.000        0.000        0.000        0.000        1.000        1.000        0.000        0.000        0.000        9.000        0.000        0.000        0.000        0.000        0.000      100.000        0.000        0.000        1.827        1.848        2.342
     670.000  -243928.955    24889.169    14392.861    43839.407       95.231  -371325.762    44180.139       25.875       25.746        2.981        3.008        3.125        3.173        3.191        3.053        2.681        2.559        2.660        2.654        2.445        2.461        3.090        2.982        3.226        2.986        0.517        2.000        1.000        0.000        0.000        1.000        3.000        0.000        0.000        0.000        0.000        0.000        0.000        0.000        2.000        0.000        0.000        0.000        0.000        0.000        0.000        0.000        0.000        0.000        0.000        0.000        2.000        0.000        0.000        1.000        8.000        0.000        0.000        0.000        0.000        0.000      100.000        0.000        0.000        1.930        1.970        2.438
     680.000  -243219.719    23879.798    14713.827    43765.072       84.786  -370775.025    45111.823       25.825       25.676        3.044        2.913        3.100        3.137        3.202        3.075        2.660        2.594        2.630        2.665        2.494        2.496        3.027        3.043        3.238        2.982        0.492        1.000        1.000        0.000        0.000        2.000        4.000        0.000        0.000        0.000        0.000        0.000        0.000        0.000        1.000        0.000        0.000        0.000        0.000        0.000        0.000        0.000        0.000        0.000        0.000        0.000        1.000        0.000        1.000        0.000       11.000        0.000        0.000        0.000        0.000        0.000      100.000        0.000        0.000        1.834        1.860        2.306
     690.000  -243383.497    24581.186    14783.127    44027.195       89.269  -372536.130    45671.856       25.821       25.637        3.096        2.931        3.150        3.149        3.150        3.072        2.686        2.552        2.626        2.666        2.455        2.488        3.090        3.035        3.231        2.951        0.475        1.000        1.000        0.000        0.000        2.000        3.000        0.000        0.000        0.000        0.000        0.000        0.000        0.000        1.000        0.000        0.000        0.000        0.000        0.000        0.000        0.000        0.000        0.000        0.000        3.000        1.000        0.000        3.000        1.000        8.000        0.000        0.000        0.000        0.000        0.000      100.000        0.000        0.000        1.762        1.800        2.285
     700.000  -243849.781    24263.652    14756.099    43772.517       72.327  -370639.856    43925.479       25.954       25.701        2.994        2.976        3.154        3.190        3.203        3.000        2.756        2.554        2.640        2.680        2.455        2.577        3.010        3.022        3.238        3.003        0.493        1.000        1.000        0.000        0.000        2.000        5.000        0.000        0.000        0.000        1.000        0.000        0.000        0.000        1.000        0.000        0.000        0.000        0.000        0.000        0.000        0.000        0.000        0.000        0.000        1.000        2.000        0.000        0.000        2.000        4.000        0.000        0.000        0.000        0.000        0.000      100.000        0.000        0.000        2.087        2.123        2.635
     710.000  -243822.085    24307.898    14678.063    43719.868       74.441  -370282.714    43680.359       25.830       25.448        3.012        2.938        3.115        3.160        3.195        2.953        2.668        2.588        2.684        2.647        2.475        2.546        3.062        2.980        3.244        2.925        0.494        1.000        1.000        0.000        0.000        2.000        5.000        0.000        0.000        0.000        0.000        0.000        0.000        0.000        1.000        0.000        0.000        0.000        0.000        0.000        0.000        0.000        0.000        0.000        0.000        1.000        1.000        0.000        0.000        1.000        9.000        0.000        0.000        0.000        0.000        0.000      100.000        0.000        0.000        2.366        2.420        2.849
     720.000  -243114.620    24191.715    14475.438    44056.520       99.928  -371745.934    45807.713       25.614       25.273        3.063        3.074        3.111        3.180        3.235        3.049        2.686        2.597        2.643        2.691        2.510        2.513        3.056        2.957        3.282        3.051        0.477        1.000        1.000        0.000        0.000        2.000        4.000        0.000        0.000        0.000        1.000        0.000        0.000        0.000        4.000        0.000        0.000        0.000        0.000        0.000        0.000        0.000        0.000        0.000        0.000        0.000        2.000        0.000        1.000        0.000        0.000        0.000        0.000        0.000        0.000        0.000      100.000        0.000        0.000        1.922        1.975        2.500
     730.000  -244007.733    23504.531    14759.491    43777.927       90.874  -370984.668    44844.112       25.960       25.459        3.007        2.993        3.140        3.139        3.238        3.113        2.658        2.542        2.642        2.692        2.468        2.493        3.043        2.971        3.269        2.943        0.501        1.000        1.000        0.000        0.000        2.000        3.000        0.000        0.000        0.000        1.000        0.000        0.000        0.000        0.000        0.000        0.000        0.000        0.000        0.000        0.000        0.000        0.000        0.000        0.000        0.000        0.000        0.000        0.000        0.000        5.000        0.000        0.000        0.000        0.000        0.000      100.000        0.000        0.000        2.101        2.155        2.618
     740.000  -243375.697    23938.393    14702.509    43799.523       85.702  -371490.214    45588.391       25.771       25.410        3.053        3.000        3.101        3.138        3.190        3.072        2.664        2.534        2.642        2.612        2.492        2.488        3.094        3.004        3.309        2.978        0.491        1.000        1.000        0.000        0.000        2.000        3.000        0.000        0.000        0.000        0.000        0.000        0.000        0.000        1.000        0.000        0.000        0.000        0.000        0.000        0.000        0.000        0.000        0.000        0.000        0.000        0.000        0.000        0.000        0.000        8.000        0.000        0.000        0.000        0.000        0.000      100.000        0.000        0.000        1.841        1.872        2.360
     750.000  -243434.184    25355.825    14625.861    43508.315       93.970  -369774.191    42756.036       26.144       25.764        3.064        2.998        3.143        3.158        3.227        3.107        2.677        2.544        2.667        2.696        2.493        2.469        3.063        3.080        3.223        2.976        0.494        1.000        0.000        0.000        0.000        2.000        2.000        0.000        0.000        0.000        0.000        0.000        0.000        0.000        0.000        0.000        0.000        0.000        0.000        0.000        0.000        0.000        0.000        0.000        0.000        0.000        3.000        0.000        0.000        1.000       14.000        0.000        0.000        0.000        0.000        0.000      100.000        0.000        0.000        1.945        1.984        2.446
     760.000  -243575.895    25113.299    14541.573    43788.838       91.459  -371217.144    44106.081       25.917       25.651        3.045        3.028        3.206        3.066        3.180        3.064        2.701        2.572        2.652        2.657        2.451        2.539        3.053        2.974        3.272        2.927        0.486        1.000        1.000        0.000        0.000        2.000        4.000        0.000        0.000        0.000        0.000        0.000        0.000        0.000        1.000        0.000        0.000        0.000        0.000        0.000        0.000        0.000        0.000        0.000        0.000        0.000        2.000        0.000        1.000        0.000       12.000        0.000        0.000        0.000        0.000        0.000      100.000        0.000        0.000        1.532        1.593        2.339
     770.000  -242747.890    24886.696    14813.540    43824.130       94.851  -369751.923    43384.816       26.034       25.790        3.045        3.006        3.047        3.058        3.202        2.974        2.651        2.536        2.633        2.698        2.453        2.463        3.083        2.968        3.236        2.930        0.500        1.000        1.000        0.000        0.000        2.000        2.000        0.000        0.000        1.000        1.000        0.000        0.000        0.000        1.000        0.000        0.000        0.000        0.000        0.000        0.000        0.000        0.000        0.000        0.000        1.000        1.000        0.000        0.000        0.000        6.000        0.000        0.000        0.000        0.000        0.000      100.000        0.000        0.000        1.500        1.524        2.210
     780.000  -243646.434    24123.532    14448.461    43846.548       86.467  -370134.437    43982.994       25.861       25.877        3.128        3.003        3.101        3.034        3.181        3.059        2.679        2.443        2.634        2.621        2.454       16.338        3.145        3.009        3.210        2.954        0.493        1.000        2.000        0.000        0.000        1.000        4.000        0.000        0.000        0.000        1.000        0.000        0.000        0.000        1.000        0.000        0.000        0.000        0.000        0.000        0.000        0.000        0.000        0.000        0.000        2.000        2.000        0.000        1.000        0.000        8.000        0.000        0.000        0.000        0.000        0.000      100.000        0.000        0.000        1.534        1.554        2.347
     790.000  -243473.022    23628.343    14435.046    43837.159       68.467  -369746.892    44304.856       25.951       25.871        3.033        2.929        3.035        3.016        3.168        3.052        2.716        2.553        2.674        2.708        2.422       13.319        3.075        2.936        3.294        2.939        0.487        0.000        2.000        0.000        0.000        2.000        4.000        0.000        0.000        0.000        1.000        0.000        0.000        0.000        1.000        0.000        0.000        0.000        0.000        0.000        0.000        0.000        0.000        0.000        0.000        0.000        0.000        0.000        1.000        0.000        7.000        0.000        0.000        0.000        0.000        0.000      100.000        0.000        0.000        1.714        1.743        2.328
     800.000  -243814.131    24565.285    14509.349    43581.888       70.712  -371830.640    45289.275       25.936       25.771        3.071        2.975        3.093        3.076        3.194        3.097        2.670        2.565        2.631        2.625        2.499       15.186        3.096        2.967        3.270        2.985        0.472        0.000        1.000        0.000        0.000        2.000        2.000        0.000        0.000        0.000        0.000        0.000        0.000        0.000        2.000        0.000        0.000        0.000        0.000        0.000        0.000        0.000        0.000        0.000        0.000        0.000        0.000        0.000        2.000        1.000        2.000        0.000        0.000        0.000        0.000        0.000      100.000        0.000        0.000        1.701        1.721        2.371
     810.000  -243533.416    24093.848    14710.163    43718.670       81.957  -371468.259    45330.205       25.883       25.523        3.009        2.968        3.112        3.072        3.199        3.079        2.694        2.534        2.644        2.708        2.462        2.528        3.133        2.938        3.232        2.951        0.480        1.000        1.000        0.000        0.000        1.000        3.000        0.000        0.000        1.000        0.000        0.000        0.000        0.000        1.000        0.000        0.000        0.000        0.000        0.000        0.000        0.000        0.000        0.000        0.000        0.000        1.000        0.000        1.000        1.000        6.000        0.000        0.000        0.000        0.000        0.000      100.000        0.000        0.000        2.124        2.148        2.769
     820.000  -243051.868    24998.170    14548.676    43693.232      100.494  -369566.015    43173.577       26.079       25.877        3.062        2.933        3.143        3.097        3.216        2.963        2.623        2.547        2.641        2.698        2.502       13.616        3.053        2.952        3.240        2.939        0.494        0.000        1.000        0.000        0.000        2.000        2.000        0.000        0.000        0.000        1.000        0.000        0.000        0.000        1.000        0.000        0.000        0.000        0.000        0.000        0.000        0.000        0.000        0.000        0.000        0.000        4.000        0.000        1.000        0.000        6.000        0.000        0.000        0.000        0.000        0.000      100.000        0.000        0.000        2.171        2.203        2.881
     830.000  -243861.231    25045.034    14429.072    43511.557      104.440  -370667.073    43715.740       26.053       25.791        3.159        2.939        3.078        3.099        3.224        3.077        2.653        2.536        2.668        2.669        2.467        2.527        3.101        2.991        3.293        3.019        0.509        1.000        1.000        0.000        0.000        2.000        2.000        0.000        0.000        0.000        0.000        0.000        0.000        0.000        1.000        0.000        0.000        0.000        0.000        0.000        0.000        0.000        0.000        0.000        0.000        1.000        3.000        0.000        0.000        1.000        6.000        0.000        0.000        0.000        0.000        0.000      100.000        0.000        0.000        2.240        2.284        2.696
     840.000  -243082.665    24518.252    14816.109    43730.921      100.045  -370829.798    44581.805       26.111       25.802        3.077        3.024        3.093        3.085        3.206        2.987        2.632        2.477        2.624        2.641        2.463        2.541        3.092        2.905        3.227        2.972        0.507        0.000        1.000        0.000        0.000        2.000        2.000        0.000        0.000        0.000        1.000        0.000        0.000        0.000        1.000        0.000        0.000        0.000        0.000        0.000        0.000        0.000        0.000        0.000        0.000        0.000        0.000        0.000        1.000        1.000        7.000        0.000        0.000        0.000        0.000        0.000      100.000        0.000        0.000        2.383        2.425        2.798
     850.000  -243727.906    23620.050    14376.132    43673.558       98.307  -370289.026    44793.072       26.241       25.902        3.084        2.919        3.213        3.131        3.218        2.986        2.636        2.507        2.658        2.725        2.442        2.513        3.117        2.993        3.240        2.962        0.487        0.000        1.000        0.000        0.000        2.000        2.000        0.000        0.000        0.000        0.000        0.000        0.000        0.000        2.000        0.000        0.000        0.000        0.000        0.000        0.000        0.000        0.000        0.000        0.000        0.000        1.000        0.000        0.000        1.000        8.000        0.000        0.000        0.000        0.000        0.000      100.000        0.000        0.000        2.038        2.066        2.563
     860.000  -243116.318    25104.009    14411.588    44126.028       98.987  -371299.300    44442.370       26.206       25.869        2.916        3.067        3.207        3.112        3.177        3.037        2.606        2.582        2.602        2.667        2.497        2.517        3.076        2.977        3.228        3.026        0.479        0.000        1.000        0.000        0.000        2.000        3.000        0.000        0.000        0.000        0.000        0.000        0.000        1.000        3.000        0.000        0.000        0.000        0.000        0.000        0.000        0.000        0.000        0.000        0.000        0.000        3.000        0.000        0.000        0.000       10.000        0.000        0.000        0.000        0.000        0.000      100.000        0.000        0.000        2.042        2.077        2.656
     870.000  -243634.553    24478.215    14304.703    43843.587       96.887  -370810.155    44452.211       25.998       25.749        3.034        3.006        3.158        3.107        3.199        2.931        2.610        2.501        2.672        2.662        2.455        2.508        3.115        2.912        3.235        2.999        0.482        1.000        1.000        0.000        0.000        2.000        2.000        0.000        0.000        0.000        0.000        0.000        0.000        0.000        3.000        0.000        0.000        0.000        0.000        0.000        0.000        0.000        0.000        0.000        0.000        1.000        0.000        0.000        0.000        1.000        8.000        0.000        0.000        0.000        0.000        0.000      100.000        0.000        0.000        1.622        1.650        2.339
     880.000  -243449.431    24415.189    14640.301    43675.750       99.162  -370786.403    44506.571       25.874       25.844        2.998        2.983        3.174        3.181        3.212        3.020        2.607        2.598        2.602        2.694        2.516        2.542        3.081        2.977        3.256        3.015        0.474        1.000        1.000        0.000        0.000        2.000        1.000        0.000        0.000        0.000        1.000        0.000        0.000        0.000        2.000        0.000        0.000        0.000        0.000        0.000        0.000        0.000        0.000        0.000        0.000        1.000        1.000        0.000        2.000        2.000        7.000        0.000        0.000        0.000        0.000        0.000      100.000        0.000        0.000        1.820        1.853        2.367
     890.000  -243414.434    24543.380    14801.133    43845.541       89.686  -369873.175    43179.000       26.079       25.956        3.011        3.031        3.206        3.160        3.232        3.029        2.590        2.573        2.657        2.679        2.443        2.485        3.159        2.988        3.235        2.935        0.493        1.000        1.000        0.000        0.000        1.000        3.000        0.000        0.000        0.000        1.000        0.000        0.000        0.000        0.000        0.000        0.000        0.000        0.000        0.000        0.000        0.000        0.000        0.000        0.000        1.000        2.000        0.000        1.000        1.000        6.000        0.000        0.000        0.000        0.000        0.000      100.000        0.000        0.000        1.987        2.013        2.570
     900.000  -243270.335    23556.198    14832.371    43812.238       95.754  -370637.292    45070.395       25.928       25.898        3.088        3.026        3.135        3.163        3.256        3.005        2.640        2.564        2.649        2.679        2.508        2.532        3.110        3.021        3.252        2.974        0.475        1.000        1.000        0.000        0.000        2.000        2.000        0.000        0.000        0.000        1.000        0.000        0.000        0.000        1.000        0.000        0.000        0.000        0.000        0.000        0.000        0.000        0.000        0.000        0.000        0.000        0.000        0.000        2.000        1.000        9.000        0.000        0.000        0.000        0.000        0.000      100.000        0.000        0.000        1.881        1.874        2.536
     910.000  -243566.366    24038.381    14522.079    43699.774       86.963  -370545.868    44632.305       26.106       25.899        2.983        3.071        3.076        3.137        3.227        2.957        2.585        2.550        2.627        2.680        2.469        2.469        3.101        2.965        3.263        2.969        0.473        1.000        1.000        0.000        0.000        2.000        3.000        0.000        0.000        0.000        0.000        0.000        0.000        1.000        2.000        0.000        0.000        0.000        0.000        0.000        0.000        0.000        0.000        0.000        0.000        1.000        3.000        0.000        2.000        1.000        9.000        0.000        0.000        0.000        0.000        0.000      100.000        0.000        0.000        1.667        1.677        2.563
     920.000  -242767.838    23545.501    14744.502    43729.438       72.848  -368963.821    44103.694       26.248       25.971        3.057        3.061        3.165        3.155        3.178        3.112        2.556        2.579        2.661        2.667        2.487        2.500        3.086        2.972        3.216        2.910        0.490        0.000        2.000        0.000        0.000        2.000        3.000        0.000        0.000        0.000        1.000        0.000        0.000        1.000        1.000        0.000        0.000        0.000        0.000        0.000        0.000        0.000        0.000        0.000        0.000        0.000        1.000        0.000        0.000        0.000        9.000        0.000        0.000        0.000        0.000        0.000      100.000        0.000        0.000        1.800        1.830        2.591
     930.000  -244271.033    23214.692    14481.886    43507.312       68.803  -371972.030    46428.304       26.230       25.752        3.035        3.018        3.151        3.160        3.150        3.018        2.603        2.552        2.577        2.688        2.480        2.505        3.059        2.957        3.226        3.020        0.489        0.000        1.000        0.000        0.000        2.000        2.000        0.000        0.000        0.000        0.000        0.000        0.000        0.000        1.000        0.000        0.000        0.000        0.000        0.000        0.000        0.000        0.000        0.000        0.000        0.000        3.000        0.000        1.000        1.000        9.000        0.000        0.000        0.000        0.000        0.000      100.000        0.000        0.000        1.918        1.948        2.654
     940.000  -243750.120    24191.356    14584.035    43684.450       86.998  -370225.828    43928.869       26.125       25.719        3.058        3.029        3.150        3.148        3.147        3.069        2.613        2.592        2.561        2.675        2.457        2.567        3.012        3.022        3.243        2.974        0.472        0.000        1.000        0.000        0.000        2.000        3.000        0.000        0.000        0.000        1.000        0.000        0.000        0.000        2.000        0.000        0.000        0.000        0.000        0.000        0.000        0.000        0.000        0.000        0.000        0.000        2.000        0.000        1.000        1.000       14.000        0.000        0.000        0.000        0.000        0.000      100.000        0.000        0.000        1.955        1.991        2.687
     950.000  -243240.102    24273.746    14532.687    43940.049       77.874  -369520.471    43456.013       26.162       25.729        3.067        3.010        3.184        3.170        3.226        2.996        2.610        2.520        2.614        2.720        2.487        2.529        3.006        2.992        3.247        3.015        0.475        0.000        1.000        0.000        0.000        2.000        3.000        0.000        0.000        0.000        0.000        0.000        0.000        0.000        1.000        0.000        0.000        0.000        0.000        0.000        0.000        0.000        0.000        0.000        0.000        1.000        1.000        0.000        0.000        0.000        9.000        0.000        0.000        0.000        0.000        0.000      100.000        0.000        0.000        2.007        2.041        2.783
     960.000  -243411.876    23893.348    14522.793    43778.112       86.184  -370059.633    44367.320       26.247       25.679        3.087        3.004        3.160        3.133        3.201        3.089        2.564        2.531        2.656        2.666        2.440        2.486        3.100        2.992        3.264        2.967        0.474        1.000        1.000        0.000        0.000        1.000        2.000        0.000        0.000        0.000        0.000        0.000        0.000        0.000        1.000        0.000        0.000        0.000        0.000        0.000        0.000        0.000        0.000        0.000        0.000        1.000        0.000        0.000        0.000        2.000        7.000        0.000        0.000        0.000        0.000        0.000      100.000        0.000        0.000        1.922        1.964        2.746
     970.000  -243400.257    24132.389    14551.986    43960.617       92.449  -370545.951    44408.253       25.934       25.474        3.057        3.083        3.172        3.171        3.202        3.108        2.599        2.562        2.639        2.676        2.475        2.503        3.076        2.991        3.273        3.006        0.490        0.000        1.000        0.000        0.000        2.000        2.000        0.000        0.000        0.000        0.000        0.000        0.000        0.000        2.000        0.000        0.000        0.000        0.000        0.000        0.000        0.000        0.000        0.000        0.000        0.000        0.000        0.000        0.000        2.000        5.000        0.000        0.000        0.000        0.000        0.000      100.000        0.000        0.000        1.697        1.716        2.454
     980.000  -243029.226    24110.731    14592.923    44083.533       73.629  -370869.867    44979.825       26.057       25.501        2.971        3.109        3.180        3.119        3.165        2.975        2.596        2.543        2.646        2.628        2.470        2.482        3.070        2.999        3.198        3.012        0.491        0.000        1.000        0.000        0.000        1.000        3.000        0.000        0.000        0.000        0.000        0.000        0.000        0.000        3.000        0.000        0.000        0.000        0.000        0.000        0.000        0.000        0.000        0.000        0.000        1.000        1.000        0.000        1.000        1.000        7.000        0.000        0.000        0.000        0.000        0.000      100.000        0.000        0.000        1.452        1.454        2.432
     990.000  -243699.038    24021.705    14360.676    43999.566       80.431  -369606.484    43445.068       26.101       25.589        3.067        2.974        3.092        3.068        3.192        3.007        2.604        2.545        2.671        2.738        2.464        2.461        3.072        2.977        3.238        2.999        0.482        0.000        1.000        0.000        0.000        0.000        3.000        0.000        0.000        0.000        0.000        0.000        0.000        0.000        1.000        0.000        0.000        0.000        0.000        0.000        0.000        0.000        0.000        0.000        0.000        3.000        1.000        0.000        1.000        1.000        6.000        0.000        0.000        0.000        0.000        0.000      100.000        0.000        0.000        1.651        1.646        2.520
    1000.000  -242373.595    24845.143    14621.872    43752.589       74.874  -368734.991    43066.918       26.307       25.823        3.020        2.935        3.104        3.109        3.188        3.005        2.577        2.569        2.681        2.699        2.490        2.540        3.045        3.039        3.307        3.011        0.489        1.000        1.000        0.000        0.000        2.000        3.000        0.000        0.000        0.000        0.000        0.000        0.000        0.000        1.000        0.000        0.000        0.000        0.000        0.000        0.000        0.000        0.000        0.000        0.000        0.000        1.000        0.000        2.000        1.000        8.000        0.000        0.000        0.000        0.000        0.000      100.000        0.000        0.000        1.456        1.467        2.427
     Average  -245279.417    24696.082    14722.001    43703.253       86.194  -373600.146    45113.200       25.876       25.718        3.028        2.983        3.131        3.151        3.199        3.016        2.654        2.550        2.624        2.668        2.473        2.993        3.070        2.990        3.249        2.966        0.485        1.178        0.861        0.000        0.446        1.050        3.693        0.000        0.000        0.079        0.485        0.000        0.000        0.129        1.307        0.000        0.000        0.000        0.000        0.000        0.000        0.000        0.000        0.000        0.000        0.644        1.485        0.000        1.050        0.683        7.386        0.000        0.000        0.000        0.756        0.000       99.244        0.000        0.000        1.922        1.951        2.455

