____Time[ps] Energy[ kJ/mol ]_____Bond _______Angle ____Dihedral ___Planarity _____Coulomb _________VdW _Your result _Your result _Your result _Your result _Your result _Your result _Your result _Your result _Your result _Your result _Your result _Your result _Your result _Your result _Your result _Your result _Your result _Your result _Your result _Your result _Your result _Your result _Your result _Your result _Your result _Your result _Your result _Your result _Your result _Your result _Your result _Your result _Your result _Your result _Your result _Your result _Your result _Your result _Your result _Your result _Your result _Your result _Your result _Your result _Your result _Your result _Your result _Your result _Your result _Your result _Your result _Your result _Your result _Your result _Your result _Your result _Your result _RMSDs[A]:CA ____Backbone __HeavyAtoms
       0.000  -334274.679     8416.366     4882.733    44674.402       11.153  -457866.088    65606.756       25.542       25.386        2.524        2.569        2.568        2.643        3.178        3.081        3.219        2.953        3.242        3.199        3.102        3.184        2.392        2.505        2.505        2.545        0.488        1.000        0.000        1.000        1.000        0.000        6.000        0.000        0.000        0.000        0.000        0.000        0.000        0.000        6.000        0.000        0.000        0.000        0.000        0.000        1.000        0.000        0.000        0.000        0.000        0.000        0.000        3.000        1.000        0.000        4.000        1.000        0.000        0.000        4.494        0.000       95.506        0.000        0.000        0.542        0.574        0.617
      10.000  -251950.972    29767.287    15029.066    44201.011       68.621  -389698.272    48681.315       26.245       26.415        2.568        2.601        2.575        2.565        3.182        3.080        3.246        2.903        3.244        3.205        3.086        3.169        2.374        2.502        2.620        2.489        0.496        1.000        0.000        1.000        1.000        0.000        6.000        0.000        0.000        1.000        0.000        1.000        0.000        0.000        2.000        0.000        0.000        0.000        0.000        0.000        1.000        0.000        0.000        0.000        0.000        1.000        0.000        0.000        0.000        2.000        5.000        1.000        0.000        0.000        7.865        0.000       92.135        0.000        0.000        1.406        1.420        1.510
      20.000  -250748.681    28445.115    15318.742    44368.514       83.234  -387457.619    48493.334       26.129       26.149        2.485        2.591        2.526        2.667        3.176        3.022        3.257        2.957        3.237        3.226        3.116        3.240        2.314        2.436        2.687        2.483        0.492        1.000        0.000        1.000        1.000        0.000        4.000        0.000        0.000        0.000        0.000        0.000        0.000        0.000        2.000        0.000        0.000        0.000        0.000        0.000        1.000        0.000        0.000        0.000        0.000        0.000        0.000        1.000        0.000        0.000        3.000        0.000        0.000        0.000        0.000        0.000      100.000        0.000        0.000        1.287        1.323        1.438
      30.000  -250568.473    28441.914    15235.857    44252.257       75.559  -387012.122    48438.061       26.066       26.182        2.545        2.557        2.630        2.641        3.172        3.011        3.246        3.019        3.197        3.256        3.032        3.214        2.392        2.469        2.606        2.510        0.491        1.000        0.000        1.000        1.000        0.000        4.000        0.000        0.000        0.000        0.000        0.000        0.000        0.000        1.000        0.000        0.000        0.000        0.000        0.000        1.000        0.000        0.000        0.000        0.000        0.000        0.000        0.000        1.000        0.000        6.000        0.000        0.000        0.000        0.000        0.000      100.000        0.000        0.000        1.425        1.450        1.718
      40.000  -250243.687    27492.589    15717.710    44312.527       94.823  -387271.167    49409.832       25.883       25.873        2.541        2.585        2.600        2.578        3.232        3.038        3.250        3.041        3.235        3.285        2.990        3.230        2.372        2.563        2.623        2.471        0.505        1.000        0.000        0.000        1.000        0.000        5.000        0.000        0.000        0.000        0.000        0.000        0.000        0.000        1.000        0.000        0.000        0.000        0.000        0.000        1.000        0.000        0.000        0.000        0.000        1.000        0.000        0.000        0.000        2.000        6.000        0.000        0.000        0.000        0.000        0.000      100.000        0.000        0.000        1.158        1.193        1.530
      50.000  -250340.502    28239.882    15581.209    43918.875       72.449  -384937.482    46784.565       25.880       25.974        2.490        2.609        2.582        2.698        3.247        2.986        3.217        3.119        3.293        3.237        3.025        3.210        2.386        2.541        2.640        2.444        0.496        1.000        0.000        1.000        1.000        0.000        2.000        0.000        0.000        0.000        0.000        0.000        0.000        0.000        0.000        0.000        0.000        0.000        0.000        0.000        1.000        0.000        0.000        0.000        0.000        1.000        0.000        1.000        1.000        0.000        7.000        0.000        0.000        0.000        0.000        0.000      100.000        0.000        0.000        1.237        1.276        1.677
      60.000  -249833.334    27001.892    15525.983    44109.694       73.902  -385111.943    48567.140       26.001       25.925        2.559        2.682        2.567        2.727        3.267        3.117        3.304        2.939        3.276        3.223        3.044        3.246        2.349        2.575        2.643        2.494        0.480        1.000        0.000        1.000        1.000        0.000        2.000        0.000        0.000        0.000        0.000        0.000        0.000        0.000        2.000        0.000        0.000        0.000        0.000        0.000        1.000        0.000        0.000        0.000        0.000        1.000        0.000        0.000        2.000        0.000        8.000        0.000        0.000        0.000        0.000        0.000      100.000        0.000        0.000        1.283        1.320        1.718
      70.000  -248396.321    27416.541    15451.946    44492.950       67.052  -383376.704    47551.894       25.646       25.692        2.498        2.587        2.619        2.683        3.280        2.986        3.245        2.921        3.247        3.272        3.050        3.192        2.427        2.520        2.649        2.479        0.481        1.000        0.000        1.000        1.000        0.000        2.000        0.000        0.000        0.000        0.000        0.000        0.000        0.000        1.000        0.000        0.000        0.000        0.000        0.000        1.000        0.000        0.000        0.000        0.000        0.000        0.000        0.000        1.000        1.000       10.000        0.000        0.000        0.000        0.000        0.000      100.000        0.000        0.000        1.295        1.315        1.852
      80.000  -248865.994    26289.010    15841.089    44130.873       70.515  -382165.143    46967.663       26.104       26.115        2.487        2.607        2.585        2.718        3.234        2.950        3.272        2.994        3.232        3.234        3.062        3.157        2.392        2.532        2.648        2.519        0.514        1.000        0.000        1.000        1.000        0.000        3.000        0.000        0.000        0.000        0.000        0.000        0.000        0.000        1.000        0.000        0.000        0.000        0.000        0.000        1.000        0.000        0.000        0.000        0.000        2.000        0.000        0.000        1.000        2.000        9.000        0.000        0.000        0.000        4.494        0.000       95.506        0.000        0.000        1.818        1.862        2.145
      90.000  -249258.447    26334.853    15818.314    44404.907       68.759  -382858.948    46973.667       25.554       25.912        2.586        2.589        2.518        2.692        3.231        2.984        3.241        2.995        3.239        3.261        3.050        3.173        2.455        2.536        2.633        2.476        0.499        1.000        0.000        1.000        1.000        0.000        4.000        0.000        0.000        0.000        0.000        0.000        0.000        0.000        2.000        0.000        0.000        0.000        0.000        0.000        1.000        0.000        0.000        0.000        0.000        1.000        0.000        0.000        0.000        2.000       14.000        1.000        0.000        0.000        0.000        0.000      100.000        0.000        0.000        1.976        2.044        2.315
     100.000  -248303.596    26275.371    15745.030    44481.294       77.517  -382755.499    47872.692       25.453       25.673        2.519        2.594        2.581        2.686        3.169        3.039        3.271        2.927        3.201        3.246        3.062        3.137        2.428        2.576        2.640        2.462        0.465        1.000        0.000        1.000        1.000        0.000        4.000        0.000        0.000        0.000        0.000        0.000        0.000        0.000        1.000        0.000        0.000        0.000        0.000        0.000        1.000        0.000        0.000        0.000        0.000        2.000        0.000        1.000        0.000        3.000       11.000        0.000        0.000        0.000        0.000        0.000      100.000        0.000        0.000        1.828        1.892        2.304
     110.000  -247643.622    25639.414    15513.978    44231.340       66.350  -380268.983    47174.279       25.719       25.673        2.559        2.598        2.610        2.702        3.219        3.035        3.227        3.027        3.140        3.275        3.030        3.159        2.463        2.520        2.616        2.510        0.472        0.000        0.000        0.000        1.000        0.000        5.000        0.000        0.000        1.000        0.000        0.000        0.000        0.000        0.000        0.000        0.000        0.000        0.000        0.000        1.000        0.000        0.000        0.000        0.000        1.000        0.000        0.000        1.000        3.000       13.000        0.000        0.000        0.000        0.000        0.000      100.000        0.000        0.000        1.791        1.838        2.190
     120.000  -247929.363    25654.685    14987.910    44384.241       86.267  -380200.011    47157.544       25.789       25.945        2.501        2.643        2.573        2.715        3.257        3.115        3.283        3.033        3.163        3.300        2.934        3.151        2.423        2.544        2.628        2.505        0.512        1.000        0.000        1.000        1.000        0.000        5.000        0.000        0.000        1.000        0.000        0.000        0.000        0.000        0.000        0.000        0.000        0.000        0.000        0.000        1.000        0.000        0.000        0.000        0.000        1.000        0.000        0.000        0.000        2.000        8.000        0.000        0.000        0.000        0.000        0.000      100.000        0.000        0.000        1.581        1.621        2.076
     130.000  -248504.569    26948.343    15357.912    43977.321       92.308  -380237.207    45356.755       25.482       25.588        2.522        2.621        2.581        2.713        3.207        3.037        3.261        3.032        3.159        3.294        3.017        3.219        2.404        2.554        2.668        2.523        0.490        1.000        0.000        1.000        1.000        0.000        4.000        0.000        0.000        0.000        0.000        0.000        0.000        0.000        3.000        0.000        0.000        0.000        0.000        0.000        1.000        0.000        0.000        0.000        0.000        2.000        0.000        0.000        3.000        0.000        6.000        0.000        0.000        0.000        0.000        0.000      100.000        0.000        0.000        1.419        1.444        2.006
     140.000  -247814.271    24904.149    15153.980    44418.685       75.316  -379140.900    46774.499       25.421       25.521        2.603        2.634        2.596        2.697        3.176        3.112        3.266        2.985        3.226        3.305        2.949        3.238        2.422        2.522        2.667        2.461        0.502        1.000        0.000        1.000        1.000        0.000        6.000        0.000        0.000        1.000        0.000        0.000        0.000        0.000        1.000        1.000        0.000        0.000        0.000        0.000        1.000        0.000        0.000        0.000        0.000        0.000        0.000        1.000        2.000        2.000        6.000        0.000        0.000        0.000        0.000        0.000      100.000        0.000        0.000        1.295        1.302        1.917
     150.000  -247571.514    25210.709    15402.397    44462.819       82.804  -379451.682    46721.439       25.736       25.918        2.550        2.643        2.585        2.685        3.140        3.004        3.286        3.010        3.175        3.261        3.046        3.157        2.396        2.559        2.632        2.470        0.482        2.000        0.000        1.000        1.000        0.000        5.000        0.000        0.000        0.000        0.000        0.000        0.000        0.000        2.000        0.000        0.000        0.000        0.000        0.000        1.000        0.000        0.000        0.000        0.000        0.000        0.000        1.000        0.000        0.000       16.000        0.000        0.000        0.000        4.494        0.000       95.506        0.000        0.000        1.367        1.364        2.038
     160.000  -247108.049    26264.367    15500.780    44120.050       90.016  -378853.849    45770.588       25.966       25.901        2.538        2.671        2.603        2.703        3.189        2.916        3.225        3.061        3.173        3.241        3.029        3.258        2.447        2.549        2.636        2.461        0.473        1.000        0.000        1.000        1.000        0.000        5.000        0.000        0.000        0.000        0.000        0.000        0.000        0.000        3.000        0.000        0.000        0.000        0.000        0.000        1.000        0.000        0.000        0.000        0.000        0.000        0.000        0.000        0.000        2.000        9.000        0.000        0.000        0.000        0.000        0.000      100.000        0.000        0.000        1.960        1.985        2.542
     170.000  -247393.715    26791.968    15246.209    44248.976       82.284  -378363.288    44600.137       25.805       25.826        2.531        2.636        2.597        2.683        3.176        2.964        3.253        3.027        3.292        3.250        3.108        3.206        2.406        2.598        2.633        2.494        0.472        2.000        0.000        1.000        1.000        0.000        3.000        0.000        0.000        0.000        0.000        0.000        0.000        0.000        2.000        0.000        0.000        0.000        0.000        0.000        1.000        0.000        0.000        0.000        0.000        0.000        0.000        1.000        1.000        1.000       13.000        0.000        0.000        0.000        0.000        0.000      100.000        0.000        0.000        1.623        1.629        2.277
     180.000  -247103.713    26074.958    15526.683    44087.804       82.533  -376606.510    43730.818       26.045       25.927        2.500        2.655        2.572        2.707        3.224        2.945        3.214        3.000        3.214        3.259        3.028        3.231        2.485        2.570        2.627        2.511        0.491        2.000        0.000        1.000        1.000        0.000        6.000        0.000        0.000        0.000        0.000        0.000        0.000        0.000        1.000        0.000        0.000        0.000        0.000        0.000        1.000        0.000        0.000        0.000        0.000        0.000        0.000        0.000        1.000        1.000       10.000        0.000        0.000        0.000        0.000        0.000      100.000        0.000        0.000        1.761        1.808        2.350
     190.000  -247649.045    25396.324    15068.622    44197.998       82.037  -378095.449    45701.424       25.639       25.588        2.493        2.609        2.582        2.699        3.309        2.967        3.230        3.055        3.251        3.242        3.020        3.212        2.441        2.559        2.659        2.531        0.491        2.000        0.000        1.000        1.000        0.000        4.000        0.000        0.000        0.000        0.000        0.000        0.000        0.000        1.000        0.000        0.000        0.000        0.000        0.000        1.000        0.000        0.000        0.000        0.000        0.000        0.000        1.000        2.000        2.000       11.000        2.000        0.000        0.000        0.000        0.000      100.000        0.000        0.000        1.528        1.559        2.159
     200.000  -246496.527    25603.701    15390.106    44190.012       55.708  -376697.969    44961.914       25.478       25.446        2.581        2.636        2.603        2.615        3.249        2.923        3.214        3.025        3.262        3.232        2.978        3.162        2.458        2.545        2.625        2.576        0.470        2.000        0.000        0.000        1.000        1.000        5.000        0.000        0.000        0.000        0.000        0.000        0.000        0.000        2.000        0.000        0.000        0.000        0.000        0.000        1.000        0.000        0.000        0.000        0.000        1.000        0.000        1.000        1.000        2.000        8.000        0.000        0.000        0.000        0.000        0.000      100.000        0.000        0.000        1.782        1.794        2.241
     210.000  -246660.100    26534.549    15294.153    44240.496       70.699  -376910.357    44110.360       25.744       25.650        2.515        2.637        2.606        2.645        3.271        2.930        3.220        2.984        3.162        3.275        3.092        3.218        2.503        2.559        2.624        2.550        0.504        2.000        0.000        0.000        1.000        1.000        4.000        0.000        0.000        0.000        0.000        0.000        0.000        0.000        2.000        0.000        0.000        0.000        0.000        0.000        1.000        0.000        0.000        0.000        0.000        0.000        0.000        0.000        0.000        0.000       12.000        0.000        0.000        0.000        4.494        0.000       95.506        0.000        0.000        1.634        1.660        2.289
     220.000  -247059.542    25743.609    15061.134    44110.463       82.532  -377207.286    45150.006       25.732       25.656        2.568        2.681        2.592        2.679        3.220        2.961        3.218        3.041        3.246        3.261        3.067        3.224        2.395        2.577        2.634        2.549        0.475        2.000        0.000        0.000        1.000        1.000        5.000        0.000        0.000        1.000        0.000        0.000        0.000        0.000        1.000        0.000        0.000        0.000        0.000        0.000        1.000        0.000        0.000        0.000        0.000        0.000        0.000        1.000        1.000        1.000        9.000        0.000        0.000        0.000        0.000        0.000      100.000        0.000        0.000        1.904        1.918        2.561
     230.000  -246288.403    24994.623    14645.913    44404.666       78.894  -375062.304    44649.805       25.786       25.658        2.593        2.585        2.573        2.668        3.182        2.909        3.252        3.022        3.264        3.309        3.032        3.097        2.391        2.561        2.635        2.518        0.481        2.000        0.000        0.000        1.000        1.000        8.000        0.000        0.000        0.000        0.000        0.000        0.000        0.000        2.000        0.000        0.000        0.000        0.000        0.000        1.000        0.000        0.000        0.000        0.000        1.000        0.000        0.000        0.000        1.000       10.000        0.000        0.000        0.000        4.494        0.000       95.506        0.000        0.000        1.912        1.918        2.471
     240.000  -246335.099    25624.846    15153.036    44339.747       78.255  -375865.919    44334.936       25.579       25.870        2.660        2.619        2.597        2.668        3.228        2.933        3.301        2.975        3.207        3.235        3.023        3.146        2.435        2.555        2.635        2.514        0.488        2.000        0.000        0.000        1.000        0.000        5.000        0.000        0.000        0.000        0.000        0.000        0.000        0.000        0.000        0.000        0.000        0.000        0.000        0.000        0.000        0.000        0.000        0.000        0.000        0.000        0.000        0.000        1.000        3.000        8.000        0.000        0.000        0.000        0.000        0.000      100.000        0.000        0.000        1.748        1.772        2.511
     250.000  -246323.768    26062.245    14503.507    44351.082       92.420  -375643.697    44310.676       25.933       25.871        2.587        2.620        2.602        2.595        3.248        2.912        3.207        3.038        3.194        3.199        3.005        3.192        2.395        2.584        2.596        2.532        0.465        2.000        0.000        0.000        1.000        1.000        6.000        0.000        0.000        0.000        0.000        0.000        0.000        0.000        3.000        0.000        0.000        0.000        0.000        0.000        1.000        0.000        0.000        0.000        0.000        1.000        0.000        1.000        1.000        2.000        8.000        0.000        0.000        0.000        0.000        0.000      100.000        0.000        0.000        2.017        2.061        2.702
     260.000  -247058.302    25179.278    15137.292    44172.364       83.826  -376519.087    44888.024       25.885       25.694        2.596        2.624        2.587        2.619        3.210        2.942        3.247        2.983        3.210        3.201        3.110        3.231        2.436        2.553        2.637        2.495        0.486        2.000        0.000        0.000        1.000        1.000        8.000        0.000        0.000        0.000        0.000        0.000        0.000        0.000        3.000        0.000        0.000        0.000        0.000        0.000        1.000        0.000        0.000        0.000        0.000        0.000        0.000        1.000        1.000        0.000        5.000        0.000        0.000        0.000        0.000        0.000      100.000        0.000        0.000        1.972        2.028        2.677
     270.000  -246245.839    25320.644    14763.477    44452.756       57.108  -375868.764    45028.940       25.697       25.765        2.629        2.624        2.563        2.642        3.277        2.991        3.280        2.987        3.169        3.222        3.041        3.134        2.499        2.544        2.669        2.439        0.489        1.000        0.000        0.000        1.000        1.000        7.000        0.000        0.000        0.000        0.000        0.000        0.000        0.000        2.000        0.000        0.000        0.000        0.000        0.000        1.000        0.000        0.000        0.000        0.000        0.000        0.000        1.000        1.000        0.000        6.000        0.000        0.000        0.000        0.000        0.000      100.000        0.000        0.000        1.638        1.692        2.388
     280.000  -246756.067    24835.618    15146.560    44347.290       71.661  -375921.137    44763.940       25.669       25.608        2.614        2.607        2.553        2.615        3.271        2.887        3.253        3.022        3.225        3.237        3.130        3.200        2.449        2.537        2.606        2.492        0.477        1.000        0.000        0.000        1.000        1.000        8.000        0.000        0.000        0.000        0.000        0.000        0.000        0.000        2.000        0.000        0.000        0.000        0.000        0.000        1.000        0.000        0.000        0.000        0.000        1.000        0.000        2.000        1.000        0.000        6.000        0.000        0.000        0.000        0.000        0.000      100.000        0.000        0.000        1.575        1.614        2.436
     290.000  -246094.671    24494.762    14867.945    44557.945       75.052  -375760.529    45670.154       25.660       25.816        2.537        2.601        2.579        2.625        3.274        2.889        3.267        3.037        3.166        3.212        3.085        3.209        2.436        2.591        2.586        2.509        0.484        2.000        0.000        0.000        1.000        1.000        8.000        0.000        0.000        0.000        0.000        0.000        0.000        0.000        0.000        0.000        0.000        0.000        0.000        0.000        0.000        0.000        0.000        0.000        0.000        0.000        0.000        1.000        1.000        1.000        4.000        0.000        0.000        0.000        0.000        0.000      100.000        0.000        0.000        1.786        1.821        2.567
     300.000  -244944.483    24155.318    14700.111    44561.768       80.829  -372803.931    44361.422       25.614       25.581        2.610        2.629        2.605        2.662        3.242        2.990        3.218        2.980        3.157        3.228        3.075        3.196        2.448        2.548        2.609        2.537        0.477        1.000        0.000        0.000        1.000        1.000        6.000        0.000        0.000        0.000        0.000        0.000        0.000        0.000        2.000        0.000        0.000        0.000        0.000        0.000        1.000        0.000        0.000        0.000        0.000        0.000        0.000        1.000        1.000        2.000       10.000        1.000        0.000        0.000        0.000        0.000      100.000        0.000        0.000        1.784        1.835        2.542
     310.000  -246656.517    24250.183    14771.394    44155.088       77.174  -376241.596    46331.240       25.965       25.918        2.597        2.607        2.579        2.637        3.241        3.048        3.254        2.997        3.234        3.234        3.086        3.090        2.475        2.559        2.589        2.555        0.483        2.000        0.000        0.000        1.000        1.000        7.000        0.000        0.000        0.000        0.000        0.000        0.000        0.000        2.000        0.000        0.000        0.000        0.000        0.000        0.000        0.000        0.000        0.000        0.000        0.000        0.000        0.000        1.000        1.000        7.000        1.000        0.000        0.000        0.000        0.000      100.000        0.000        0.000        1.759        1.794        2.399
     320.000  -245344.050    24370.241    14685.993    44266.616      100.864  -373433.033    44665.269       25.816       26.156        2.580        2.613        2.598        2.619        3.231        2.970        3.254        2.961        3.214        3.248        3.083        3.204        2.490        2.543        2.596        2.595        0.476        2.000        0.000        0.000        1.000        1.000        6.000        0.000        0.000        0.000        0.000        0.000        0.000        0.000        0.000        0.000        0.000        0.000        0.000        0.000        1.000        0.000        0.000        0.000        0.000        1.000        0.000        1.000        3.000        1.000        7.000        0.000        0.000        0.000        4.494        0.000       95.506        0.000        0.000        1.695        1.758        2.244
     330.000  -245139.866    24652.319    14710.074    44054.316       85.397  -373606.760    44964.788       25.921       26.136        2.589        2.634        2.584        2.669        3.240        2.935        3.242        2.912        3.206        3.176        3.096        3.246        2.464        2.564        2.587        2.537        0.473        2.000        0.000        0.000        1.000        1.000        7.000        0.000        0.000        1.000        0.000        0.000        0.000        0.000        1.000        0.000        0.000        0.000        0.000        0.000        1.000        0.000        0.000        0.000        0.000        1.000        0.000        1.000        3.000        1.000        7.000        0.000        0.000        0.000        0.000        0.000      100.000        0.000        0.000        1.938        1.980        2.472
     340.000  -245498.123    24389.929    14891.385    44193.395      100.989  -374562.292    45488.471       25.790       26.346        2.562        2.575        2.571        2.680        3.209        2.904        3.274        3.033        3.180        3.157        3.074        3.162        2.418        2.573        2.616        2.523        0.505        2.000        0.000        0.000        1.000        1.000        7.000        0.000        0.000        0.000        0.000        0.000        0.000        0.000        3.000        0.000        0.000        0.000        0.000        0.000        1.000        0.000        0.000        0.000        0.000        0.000        0.000        1.000        2.000        1.000       14.000        1.000        0.000        0.000        0.000        0.000      100.000        0.000        0.000        2.104        2.157        2.635
     350.000  -245143.913    25232.322    14670.851    44143.246       79.156  -373295.105    44025.617       25.622       26.123        2.606        2.615        2.552        2.632        3.269        2.868        3.284        3.030        3.200        3.295        3.084        3.178        2.483        2.575        2.653        2.538        0.487        2.000        0.000        0.000        1.000        1.000        6.000        0.000        0.000        0.000        0.000        0.000        0.000        0.000        2.000        0.000        0.000        0.000        0.000        0.000        1.000        0.000        0.000        0.000        0.000        0.000        0.000        0.000        2.000        2.000        8.000        0.000        0.000        0.000        0.000        0.000      100.000        0.000        0.000        2.282        2.328        2.779
     360.000  -244829.892    24573.425    14921.101    44194.620       95.991  -374707.851    46092.823       25.519       26.007        2.593        2.552        2.589        2.628        3.255        2.946        3.221        3.007        3.191        3.248        3.134        3.193        2.481        2.579        2.615        2.565        0.481        1.000        0.000        0.000        1.000        1.000        7.000        0.000        0.000        0.000        0.000        0.000        0.000        0.000        3.000        0.000        0.000        0.000        0.000        0.000        1.000        0.000        0.000        0.000        0.000        1.000        0.000        1.000        1.000        0.000       11.000        1.000        0.000        0.000        4.494        0.000       95.506        0.000        0.000        2.236        2.269        2.773
     370.000  -245722.733    24524.199    14667.014    44342.655       82.594  -372983.227    43644.032       25.478       25.911        2.621        2.630        2.603        2.656        3.251        2.994        3.271        3.046        3.184        3.249        3.109        3.135        2.455        2.594        2.632        2.534        0.485        2.000        0.000        0.000        1.000        1.000        6.000        0.000        0.000        0.000        0.000        0.000        0.000        0.000        1.000        0.000        0.000        0.000        0.000        0.000        1.000        0.000        0.000        0.000        0.000        0.000        0.000        1.000        3.000        1.000        9.000        1.000        0.000        0.000        0.000        0.000      100.000        0.000        0.000        2.347        2.403        2.996
     380.000  -244944.724    23708.004    14423.971    44397.502       77.235  -373494.604    45943.168       25.413       25.748        2.524        2.605        2.544        2.673        3.241        3.026        3.183        2.954        3.143        3.208        3.121        3.211        2.456        2.546        2.627        2.559        0.462        2.000        0.000        0.000        1.000        1.000        7.000        0.000        0.000        0.000        0.000        0.000        0.000        0.000        1.000        0.000        0.000        0.000        0.000        0.000        1.000        0.000        0.000        0.000        0.000        1.000        0.000        0.000        1.000        0.000       15.000        0.000        0.000        0.000        0.000        0.000      100.000        0.000        0.000        2.005        2.049        2.602
     390.000  -245664.461    24725.705    14991.509    44111.592       84.156  -374167.380    44589.957       25.360       25.788        2.592        2.613        2.567        2.643        3.264        3.013        3.230        3.004        3.169        3.275        3.108        3.224        2.413        2.607        2.676        2.525        0.502        2.000        0.000        0.000        1.000        2.000        6.000        0.000        0.000        0.000        0.000        0.000        0.000        0.000        2.000        0.000        0.000        0.000        0.000        0.000        1.000        0.000        0.000        0.000        0.000        1.000        0.000        1.000        1.000        0.000       13.000        0.000        0.000        0.000        0.000        0.000      100.000        0.000        0.000        2.016        2.037        2.716
     400.000  -244561.200    23903.247    14766.498    44084.098       79.618  -371820.813    44426.153       25.674       26.167        2.561        2.602        2.553        2.679        3.257        3.001        3.214        2.952        3.203        3.184        3.143        3.238        2.478        2.562        2.654        2.543        0.466        2.000        0.000        0.000        1.000        1.000        6.000        0.000        0.000        2.000        0.000        0.000        0.000        0.000        1.000        0.000        0.000        0.000        0.000        0.000        1.000        0.000        0.000        0.000        0.000        0.000        0.000        1.000        1.000        0.000       15.000        0.000        0.000        0.000        0.000        0.000      100.000        0.000        0.000        1.999        2.031        2.734
     410.000  -245615.546    24263.288    14793.194    44148.114       70.318  -374139.300    45248.839       25.663       25.929        2.496        2.591        2.549        2.717        3.290        2.976        3.213        2.997        3.204        3.170        3.104        3.154        2.483        2.575        2.644        2.490        0.493        2.000        0.000        1.000        0.000        1.000        6.000        0.000        0.000        0.000        0.000        0.000        0.000        0.000        3.000        0.000        0.000        0.000        0.000        0.000        0.000        0.000        0.000        0.000        0.000        0.000        0.000        0.000        3.000        1.000       10.000        0.000        0.000        0.000        0.000        0.000      100.000        0.000        0.000        1.722        1.717        2.592
     420.000  -245389.158    24459.296    14728.674    44110.599       81.362  -373144.441    44375.352       25.530       25.430        2.505        2.599        2.576        2.711        3.246        3.002        3.252        2.988        3.187        3.245        3.002        3.197        2.466        2.575        2.622        2.540        0.483        2.000        0.000        1.000        1.000        2.000        7.000        0.000        0.000        0.000        0.000        0.000        0.000        0.000        1.000        0.000        0.000        0.000        0.000        0.000        1.000        0.000        0.000        0.000        0.000        1.000        0.000        0.000        2.000        1.000       10.000        0.000        0.000        0.000        0.000        0.000      100.000        0.000        0.000        1.701        1.696        2.692
     430.000  -245317.981    24637.902    14681.318    43931.283       95.840  -374373.325    45709.001       25.911       25.891        2.522        2.576        2.574        2.672        3.240        3.047        3.235        3.042        3.181        3.229        3.050        3.171        2.423        2.600        2.649        2.546        0.479        2.000        0.000        1.000        1.000        2.000        8.000        0.000        0.000        1.000        0.000        0.000        0.000        0.000        3.000        0.000        0.000        0.000        0.000        0.000        1.000        0.000        0.000        0.000        0.000        0.000        0.000        0.000        1.000        1.000       11.000        0.000        0.000        0.000        0.000        0.000      100.000        0.000        0.000        1.857        1.870        2.705
     440.000  -245610.796    23671.264    14370.522    44402.221      111.790  -373730.859    45564.266       25.878       25.691        2.502        2.560        2.547        2.694        3.242        2.957        3.233        3.035        3.222        3.190        3.059        3.168        2.476        2.541        2.654        2.535        0.514        2.000        0.000        1.000        1.000        1.000        7.000        0.000        0.000        0.000        0.000        0.000        0.000        0.000        1.000        0.000        0.000        0.000        0.000        0.000        1.000        0.000        0.000        0.000        0.000        0.000        0.000        0.000        3.000        1.000        6.000        0.000        0.000        0.000        4.494        0.000       95.506        0.000        0.000        1.889        1.897        2.734
     450.000  -245761.067    24927.311    14797.852    44144.979       81.857  -373178.927    43465.861       25.734       25.432        2.578        2.595        2.594        2.701        3.280        2.912        3.216        3.031        3.205        3.210        3.087        3.190        2.413        2.546        2.666        2.531        0.491        2.000        0.000        1.000        1.000        1.000        8.000        0.000        0.000        0.000        0.000        0.000        0.000        0.000        1.000        0.000        0.000        0.000        0.000        0.000        1.000        0.000        0.000        0.000        0.000        0.000        0.000        0.000        1.000        0.000       10.000        0.000        0.000        0.000        0.000        0.000      100.000        0.000        0.000        1.898        1.928        2.691
     460.000  -244859.166    23927.542    14544.603    44420.974       98.386  -372669.962    44819.291       25.693       25.528        2.518        2.604        2.593        2.691        3.280        2.976        3.224        3.059        3.232        3.215        3.027        3.180        2.379        2.528        2.660        2.442        0.474        2.000        0.000        1.000        1.000        0.000        6.000        0.000        0.000        0.000        0.000        0.000        0.000        0.000        0.000        0.000        0.000        0.000        0.000        0.000        1.000        0.000        0.000        0.000        0.000        0.000        0.000        1.000        1.000        0.000       14.000        0.000        0.000        0.000        0.000        0.000      100.000        0.000        0.000        2.264        2.291        3.039
     470.000  -244513.604    23426.722    14607.627    44345.105       81.421  -372051.775    45077.297       25.677       25.676        2.565        2.584        2.574        2.688        3.225        2.992        3.253        3.093        3.194        3.275        3.035        3.148        2.461        2.580        2.647        2.487        0.490        2.000        0.000        1.000        1.000        2.000        6.000        0.000        0.000        0.000        0.000        0.000        0.000        0.000        1.000        0.000        0.000        0.000        0.000        0.000        1.000        0.000        0.000        0.000        0.000        1.000        0.000        0.000        1.000        0.000        7.000        0.000        0.000        0.000        0.000        0.000      100.000        0.000        0.000        2.253        2.322        2.992
     480.000  -244470.617    24144.220    14604.457    44338.827       65.242  -372304.629    44681.266       25.638       25.503        2.607        2.611        2.578        2.711        3.212        3.030        3.187        3.022        3.230        3.241        3.073        3.182        2.421        2.598        2.619        2.504        0.477        2.000        0.000        1.000        1.000        1.000        8.000        0.000        0.000        0.000        0.000        0.000        0.000        0.000        1.000        0.000        0.000        0.000        0.000        0.000        0.000        0.000        0.000        0.000        0.000        0.000        0.000        0.000        2.000        1.000       10.000        0.000        0.000        0.000        0.000        0.000      100.000        0.000        0.000        2.603        2.667        3.332
     490.000  -244949.634    24762.363    14840.578    44041.004       87.538  -372583.178    43902.060       25.714       25.615        2.582        2.607        2.581        2.721        3.257        2.996        3.272        2.994        3.269        3.202        3.061        3.205        2.464        2.598        2.638        2.532        0.501        2.000        0.000        1.000        1.000        0.000        9.000        0.000        0.000        0.000        0.000        0.000        0.000        0.000        1.000        0.000        0.000        0.000        0.000        0.000        1.000        0.000        0.000        0.000        0.000        0.000        0.000        1.000        1.000        0.000        8.000        0.000        0.000        0.000        0.000        0.000      100.000        0.000        0.000        2.786        2.851        3.395
     500.000  -244864.181    24448.864    14898.493    44103.046       79.800  -372787.463    44393.080       25.610       25.880        2.592        2.617        2.598        2.722        3.191        2.904        3.256        3.023        3.249        3.177        3.115        3.222        2.441        2.562        2.690        2.499        0.482        1.000        0.000        1.000        1.000        0.000        8.000        0.000        0.000        0.000        0.000        0.000        0.000        0.000        2.000        0.000        0.000        0.000        0.000        0.000        1.000        0.000        0.000        0.000        0.000        0.000        0.000        0.000        1.000        1.000        9.000        0.000        0.000        0.000        0.000        0.000      100.000        0.000        0.000        2.270        2.315        3.259
     510.000  -245124.677    24176.283    14348.044    44265.622       95.822  -372465.680    44455.232       25.631       25.664        2.515        2.605        2.567        2.727        3.231        2.913        3.269        2.991        3.232        3.273        3.152        3.224        2.405        2.551        2.663        2.466        0.495        2.000        0.000        1.000        1.000        1.000        8.000        0.000        0.000        2.000        0.000        0.000        0.000        0.000        1.000        0.000        0.000        0.000        0.000        0.000        1.000        0.000        0.000        0.000        0.000        0.000        0.000        0.000        1.000        1.000       13.000        0.000        0.000        0.000        4.494        0.000       95.506        0.000        0.000        2.456        2.498        3.423
     520.000  -245184.267    23551.218    14682.028    44318.856       84.402  -372743.886    44923.115       25.655       25.424        2.539        2.583        2.565        2.686        3.213        3.023        3.170        3.035        3.212        3.217        3.045        3.181        2.433        2.593        2.623        2.549        0.475        1.000        0.000        1.000        1.000        2.000        8.000        0.000        0.000        0.000        0.000        0.000        0.000        1.000        4.000        0.000        0.000        0.000        0.000        0.000        1.000        0.000        0.000        0.000        0.000        0.000        0.000        0.000        3.000        0.000       10.000        0.000        0.000        0.000        0.000        0.000      100.000        0.000        0.000        2.364        2.395        3.535
     530.000  -245364.512    24358.469    14833.159    44244.379       58.479  -373682.833    44823.836       24.996       25.403        2.532        2.608        2.552        2.706        3.269        3.100        3.185        2.968        3.239        3.214        3.097        3.191        2.465        2.543        2.606        2.529        0.469        2.000        0.000        1.000        1.000        0.000        6.000        0.000        0.000        1.000        0.000        0.000        0.000        0.000        1.000        0.000        0.000        0.000        0.000        0.000        1.000        0.000        0.000        0.000        0.000        0.000        0.000        0.000        1.000        0.000        7.000        0.000        0.000        0.000        0.000        0.000      100.000        0.000        0.000        2.360        2.412        3.398
     540.000  -245494.332    25391.056    14303.258    44002.773       73.566  -373148.572    43883.588       25.655       25.879        2.536        2.632        2.599        2.723        3.279        2.973        3.211        3.034        3.166        3.201        3.028        3.249        2.504        2.545        2.674        2.572        0.512        2.000        0.000        1.000        1.000        2.000        6.000        0.000        0.000        0.000        0.000        0.000        0.000        0.000        1.000        0.000        0.000        0.000        0.000        0.000        0.000        0.000        0.000        0.000        0.000        0.000        0.000        0.000        1.000        2.000       15.000        0.000        0.000        0.000        0.000        0.000      100.000        0.000        0.000        2.599        2.665        3.608
     550.000  -245712.716    24447.238    14777.502    43997.456       88.388  -374772.696    45749.396       25.430       25.666        2.592        2.618        2.575        2.715        3.288        3.038        3.214        3.035        3.255        3.246        3.098        3.217        2.502        2.528        2.677        2.510        0.507        2.000        0.000        1.000        1.000        2.000        7.000        0.000        0.000        0.000        0.000        0.000        0.000        0.000        1.000        0.000        0.000        0.000        0.000        0.000        1.000        0.000        0.000        0.000        0.000        1.000        0.000        0.000        3.000        0.000        9.000        0.000        0.000        0.000        0.000        0.000      100.000        0.000        0.000        2.454        2.455        3.527
     560.000  -245238.298    25112.854    14972.220    44059.590       70.684  -373059.019    43605.373       25.489       25.620        2.611        2.602        2.586        2.669        3.240        2.915        3.269        3.058        3.222        3.197        3.086        3.225        2.400        2.554        2.638        2.509        0.490        2.000        0.000        1.000        1.000        2.000        7.000        0.000        0.000        0.000        0.000        0.000        0.000        0.000        1.000        1.000        0.000        0.000        0.000        0.000        1.000        0.000        0.000        0.000        0.000        0.000        0.000        0.000        1.000        1.000        5.000        0.000        0.000        0.000        0.000        0.000      100.000        0.000        0.000        2.429        2.431        3.463
     570.000  -246052.711    24654.718    14473.890    44203.528       64.507  -373465.339    44015.985       25.436       25.449        2.544        2.567        2.563        2.688        3.248        2.925        3.202        2.978        3.245        3.253        3.025        3.237        2.404        2.609        2.634        2.484        0.488        2.000        0.000        1.000        1.000        1.000        6.000        0.000        0.000        1.000        0.000        0.000        0.000        0.000        3.000        0.000        0.000        0.000        0.000        0.000        1.000        0.000        0.000        0.000        0.000        0.000        0.000        0.000        2.000        1.000       10.000        0.000        0.000        0.000        0.000        0.000      100.000        0.000        0.000        2.191        2.205        3.306
     580.000  -245882.387    24436.600    14466.780    44246.428       80.509  -374087.301    44974.597       25.358       25.588        2.529        2.632        2.595        2.729        3.255        2.988        3.229        2.956        3.190        3.215        3.022        3.206        2.465        2.548        2.699        2.511        0.488        2.000        0.000        1.000        1.000        2.000        4.000        0.000        0.000        1.000        0.000        0.000        0.000        0.000        1.000        0.000        0.000        0.000        0.000        0.000        1.000        0.000        0.000        0.000        0.000        0.000        0.000        0.000        2.000        1.000       13.000        0.000        0.000        0.000        0.000        0.000      100.000        0.000        0.000        2.243        2.247        3.276
     590.000  -245117.227    24009.544    14448.327    44118.235       75.689  -372028.944    44259.922       25.322       25.466        2.573        2.649        2.564        2.672        3.278        2.913        3.276        2.920        3.226        3.207        3.090        3.202        2.492        2.578        2.657        2.478        0.487        2.000        0.000        1.000        1.000        3.000        5.000        0.000        0.000        0.000        0.000        0.000        0.000        0.000        1.000        0.000        0.000        0.000        0.000        0.000        1.000        0.000        0.000        0.000        0.000        0.000        0.000        0.000        3.000        1.000       12.000        0.000        0.000        0.000        0.000        0.000      100.000        0.000        0.000        2.360        2.370        3.312
     600.000  -245470.298    24776.140    14410.672    44022.192       64.281  -371860.366    43116.783       25.664       25.775        2.649        2.642        2.576        2.683        3.242        2.976        3.299        3.020        3.217        3.157        3.132        3.189        2.452        2.530        2.642        2.552        0.485        2.000        0.000        0.000        1.000        2.000        4.000        0.000        0.000        0.000        0.000        0.000        0.000        0.000        3.000        0.000        0.000        0.000        0.000        0.000        1.000        0.000        0.000        0.000        0.000        1.000        0.000        0.000        1.000        1.000        7.000        0.000        0.000        0.000        0.000        0.000      100.000        0.000        0.000        2.155        2.138        3.184
     610.000  -245993.893    25007.096    14780.734    43941.170       85.175  -373415.736    43607.668       25.664       25.670        2.636        2.591        2.617        2.716        3.281        2.967        3.284        2.941        3.246        3.242        3.078        3.215        2.482        2.568        2.696        2.513        0.489        2.000        0.000        1.000        1.000        2.000        5.000        0.000        0.000        0.000        0.000        0.000        0.000        0.000        5.000        1.000        0.000        0.000        0.000        0.000        1.000        0.000        0.000        0.000        0.000        0.000        0.000        0.000        2.000        2.000       20.000        0.000        0.000        0.000        0.000        0.000      100.000        0.000        0.000        1.925        1.900        3.025
     620.000  -244739.261    25024.277    14804.695    43969.097       71.084  -372058.251    43449.837       25.541       25.876        2.578        2.594        2.531        2.727        3.247        3.023        3.251        3.075        3.220        3.199        3.089        3.224        2.446        2.558        2.662        2.534        0.483        2.000        0.000        1.000        1.000        1.000        6.000        0.000        0.000        0.000        0.000        0.000        0.000        0.000        0.000        0.000        0.000        0.000        0.000        0.000        1.000        0.000        0.000        0.000        0.000        0.000        0.000        0.000        0.000        1.000        9.000        0.000        0.000        0.000        0.000        0.000      100.000        0.000        0.000        1.909        1.874        3.135
     630.000  -245783.544    24713.292    14915.651    44200.798       77.724  -374040.667    44349.657       25.571       25.580        2.623        2.603        2.566        2.711        3.171        2.974        3.254        3.078        3.187        3.198        3.107        3.209        2.451        2.529        2.669        2.495        0.480        2.000        0.000        1.000        1.000        1.000        8.000        0.000        0.000        0.000        0.000        0.000        0.000        0.000        2.000        0.000        0.000        0.000        0.000        0.000        1.000        0.000        0.000        0.000        0.000        1.000        0.000        0.000        2.000        2.000       11.000        0.000        0.000        0.000        0.000        0.000      100.000        0.000        0.000        1.685        1.653        2.975
     640.000  -245492.629    24426.518    14728.360    44123.459       82.616  -373243.494    44389.914       25.340       25.565        2.586        2.596        2.588        2.775        3.273        3.026        3.262        3.013        3.163        3.223        3.089        3.253        2.422        2.608        2.627        2.531        0.490        2.000        0.000        1.000        1.000        1.000        8.000        0.000        0.000        1.000        0.000        0.000        0.000        0.000        2.000        0.000        0.000        0.000        0.000        0.000        1.000        0.000        0.000        0.000        0.000        1.000        0.000        0.000        1.000        2.000       16.000        0.000        0.000        0.000        0.000        0.000      100.000        0.000        0.000        1.634        1.596        2.903
     650.000  -244883.588    24084.563    14819.233    44216.441       75.855  -372907.260    44827.581       25.426       25.616        2.644        2.593        2.548        2.710        3.262        2.960        3.229        2.912        3.216        3.226        3.126        3.178        2.440        2.619        2.624        2.533        0.519        2.000        0.000        1.000        1.000        0.000        5.000        0.000        0.000        0.000        0.000        0.000        0.000        0.000        2.000        0.000        0.000        0.000        0.000        0.000        1.000        0.000        0.000        0.000        0.000        0.000        0.000        0.000        3.000        1.000       14.000        0.000        0.000        0.000        4.494        0.000       95.506        0.000        0.000        1.747        1.768        2.894
     660.000  -245921.531    24397.958    14915.947    43911.802       70.337  -373729.948    44512.374       25.813       25.916        2.618        2.608        2.580        2.723        3.249        2.935        3.239        2.980        3.220        3.247        3.107        3.217        2.470        2.572        2.654        2.567        0.486        2.000        0.000        1.000        1.000        1.000        6.000        0.000        0.000        0.000        0.000        0.000        0.000        0.000        3.000        0.000        0.000        0.000        0.000        0.000        0.000        0.000        0.000        0.000        0.000        0.000        0.000        0.000        2.000        1.000        9.000        2.000        0.000        0.000        8.989        0.000       91.011        0.000        0.000        1.910        1.926        3.085
     670.000  -245939.215    24266.138    14395.157    44074.189       83.213  -372864.998    44107.087       25.564       25.796        2.645        2.623        2.577        2.731        3.230        2.907        3.291        3.069        3.294        3.195        3.147        3.228        2.487        2.537        2.617        2.592        0.492        2.000        0.000        1.000        1.000        3.000        6.000        0.000        0.000        0.000        0.000        0.000        0.000        1.000        2.000        1.000        0.000        0.000        0.000        0.000        1.000        0.000        0.000        0.000        0.000        1.000        0.000        0.000        3.000        2.000        5.000        0.000        0.000        0.000        0.000        0.000      100.000        0.000        0.000        2.321        2.348        3.426
     680.000  -246085.975    24134.496    14567.007    44171.960      101.044  -374345.077    45284.595       25.465       25.588        2.665        2.572        2.544        2.684        3.247        2.933        3.249        3.042        3.276        3.221        3.128        3.247        2.453        2.539        2.650        2.554        0.487        2.000        0.000        1.000        1.000        1.000        6.000        0.000        0.000        1.000        0.000        0.000        0.000        0.000        3.000        0.000        0.000        0.000        0.000        0.000        1.000        0.000        0.000        0.000        0.000        0.000        0.000        0.000        2.000        2.000        8.000        0.000        0.000        0.000        0.000        0.000      100.000        0.000        0.000        2.492        2.536        3.497
     690.000  -245418.524    23371.974    14776.226    44130.480       78.451  -374849.531    47073.875       25.435       25.597        2.652        2.610        2.582        2.675        3.240        2.967        3.227        3.029        3.148        3.175        3.113        3.196        2.428        2.574        2.684        2.572        0.473        2.000        0.000        1.000        1.000        1.000        7.000        0.000        0.000        0.000        0.000        0.000        0.000        0.000        3.000        0.000        0.000        0.000        0.000        0.000        1.000        0.000        0.000        0.000        0.000        0.000        0.000        0.000        2.000        1.000        6.000        0.000        0.000        0.000        4.494        0.000       95.506        0.000        0.000        2.474        2.529        3.540
     700.000  -244987.218    23650.420    14599.439    44224.834       82.375  -373567.429    46023.144       25.313       25.873        2.640        2.578        2.603        2.693        3.241        2.960        3.198        3.009        3.168        3.273        3.213        3.181        2.467        2.541        2.675        2.496        0.499        2.000        0.000        1.000        1.000        0.000        5.000        0.000        0.000        0.000        0.000        0.000        0.000        0.000        0.000        0.000        0.000        0.000        0.000        0.000        1.000        0.000        0.000        0.000        0.000        1.000        0.000        0.000        2.000        1.000       14.000        1.000        0.000        0.000        4.494        0.000       95.506        0.000        0.000        2.366        2.440        3.304
     710.000  -245127.843    24636.059    14338.636    44252.852       77.816  -373580.034    45146.828       25.256       25.402        2.661        2.558        2.582        2.726        3.251        2.999        3.220        2.971        3.191        3.259        3.113        3.203        2.487        2.592        2.641        2.565        0.471        1.000        0.000        1.000        1.000        1.000        8.000        0.000        0.000        0.000        0.000        0.000        0.000        0.000        2.000        0.000        0.000        0.000        0.000        0.000        1.000        0.000        0.000        0.000        0.000        0.000        0.000        0.000        3.000        1.000       12.000        0.000        0.000        0.000        0.000        0.000      100.000        0.000        0.000        1.984        2.030        3.049
     720.000  -245737.949    24151.424    14600.276    44250.044       74.940  -373406.122    44591.489       25.663       25.835        2.662        2.599        2.604        2.688        3.232        2.996        3.238        2.999        3.186        3.198        3.000        3.181        2.441        2.522        2.673        2.589        0.483        2.000        0.000        1.000        1.000        0.000        7.000        0.000        0.000        0.000        0.000        0.000        0.000        0.000        3.000        1.000        0.000        0.000        0.000        0.000        1.000        0.000        0.000        0.000        0.000        0.000        0.000        0.000        2.000        1.000       11.000        0.000        0.000        0.000        0.000        0.000      100.000        0.000        0.000        2.491        2.526        3.459
     730.000  -246118.978    25049.933    14581.442    44122.694       87.856  -374557.449    44596.545       25.478       25.536        2.669        2.513        2.571        2.692        3.258        3.057        3.246        3.080        3.197        3.196        3.018        3.235        2.417        2.558        2.672        2.589        0.491        2.000        0.000        1.000        1.000        0.000        7.000        0.000        0.000        0.000        0.000        0.000        0.000        0.000        1.000        0.000        0.000        0.000        0.000        0.000        1.000        0.000        0.000        0.000        0.000        0.000        0.000        1.000        2.000        1.000        8.000        0.000        0.000        0.000        0.000        0.000      100.000        0.000        0.000        2.162        2.214        3.198
     740.000  -245145.702    24872.562    14676.388    44270.181       84.763  -373729.130    44679.534       25.724       25.693        2.691        2.555        2.573        2.666        3.224        3.051        3.292        2.936        3.183        3.239        3.029        3.151        2.474        2.589        2.642        2.603        0.495        2.000        0.000        1.000        1.000        1.000        8.000        0.000        0.000        0.000        0.000        0.000        0.000        0.000        0.000        1.000        0.000        0.000        0.000        0.000        1.000        0.000        0.000        0.000        0.000        1.000        0.000        0.000        2.000        1.000       10.000        0.000        0.000        0.000        0.000        0.000      100.000        0.000        0.000        2.099        2.120        3.101
     750.000  -245251.495    23887.106    15241.040    44259.872       94.674  -372940.602    44206.415       25.595       25.706        2.610        2.571        2.560        2.713        3.260        3.010        3.240        3.027        3.195        3.233        3.046        3.231        2.446        2.593        2.634        2.532        0.490        1.000        0.000        1.000        1.000        0.000        6.000        0.000        0.000        0.000        0.000        0.000        0.000        0.000        2.000        0.000        0.000        0.000        0.000        0.000        1.000        0.000        0.000        0.000        0.000        1.000        0.000        0.000        2.000        2.000        7.000        0.000        0.000        0.000        4.494        0.000       95.506        0.000        0.000        1.899        1.952        3.009
     760.000  -245066.565    25074.060    14616.419    44391.827       67.130  -373054.171    43838.169       25.350       25.543        2.642        2.616        2.543        2.700        3.178        2.932        3.245        3.029        3.165        3.215        3.114        3.194        2.403        2.596        2.633        2.556        0.480        1.000        0.000        1.000        1.000        0.000        5.000        0.000        0.000        0.000        0.000        0.000        0.000        0.000        1.000        1.000        0.000        0.000        0.000        0.000        1.000        0.000        0.000        0.000        0.000        0.000        0.000        0.000        3.000        0.000        6.000        0.000        0.000        0.000        0.000        0.000      100.000        0.000        0.000        2.201        2.266        3.282
     770.000  -245728.703    24960.228    14743.300    44009.683       63.292  -372707.984    43202.779       25.594       25.604        2.535        2.588        2.543        2.700        3.258        2.930        3.242        3.006        3.207        3.234        3.055        3.221        2.445        2.542        2.614        2.560        0.488        1.000        0.000        1.000        1.000        0.000        6.000        0.000        0.000        0.000        0.000        0.000        0.000        0.000        1.000        0.000        0.000        0.000        0.000        0.000        1.000        0.000        0.000        0.000        0.000        1.000        0.000        0.000        1.000        1.000       10.000        0.000        0.000        0.000        4.494        0.000       95.506        0.000        0.000        2.212        2.242        3.292
     780.000  -245299.079    25348.030    14250.978    44125.967       71.561  -372879.260    43783.645       25.724       25.612        2.566        2.627        2.572        2.674        3.278        2.960        3.259        3.047        3.218        3.219        3.026        3.245        2.432        2.562        2.617        2.554        0.481        2.000        0.000        1.000        1.000        1.000        8.000        0.000        0.000        0.000        0.000        0.000        0.000        0.000        4.000        0.000        0.000        0.000        0.000        0.000        1.000        0.000        0.000        0.000        0.000        0.000        0.000        0.000        2.000        1.000       14.000        0.000        0.000        0.000        4.494        0.000       95.506        0.000        0.000        1.665        1.688        2.927
     790.000  -244745.691    24350.821    14720.961    44208.249       95.546  -371930.659    43809.390       25.680       25.541        2.511        2.623        2.568        2.630        3.193        3.020        3.259        3.010        3.269        3.191        3.048        3.230        2.435        2.548        2.557        2.548        0.471        2.000        0.000        0.000        1.000        1.000        8.000        0.000        0.000        0.000        0.000        0.000        0.000        0.000        2.000        2.000        0.000        0.000        0.000        0.000        1.000        0.000        0.000        0.000        0.000        0.000        0.000        1.000        1.000        0.000        5.000        0.000        0.000        0.000        0.000        0.000      100.000        0.000        0.000        1.694        1.689        3.095
     800.000  -245303.227    24786.758    14664.604    44151.642       98.180  -373710.424    44706.012       25.717       25.720        2.556        2.622        2.602        2.651        3.213        2.957        3.212        3.043        3.201        3.193        3.028        3.238        2.433        2.577        2.600        2.479        0.488        2.000        0.000        0.000        1.000        0.000        9.000        0.000        0.000        0.000        0.000        0.000        0.000        0.000        1.000        0.000        0.000        0.000        0.000        0.000        1.000        0.000        0.000        0.000        0.000        0.000        0.000        1.000        2.000        0.000        7.000        0.000        0.000        0.000        0.000        0.000      100.000        0.000        0.000        1.471        1.471        2.924
     810.000  -244443.460    24484.633    14912.012    44081.998       89.040  -371656.580    43645.438       25.730       25.779        2.592        2.639        2.548        2.653        3.229        2.975        3.286        3.027        3.188        3.172        3.073        3.200        2.411        2.605        2.539        2.533        0.480        2.000        0.000        0.000        1.000        0.000        6.000        0.000        0.000        0.000        0.000        0.000        0.000        0.000        0.000        1.000        0.000        0.000        0.000        0.000        1.000        0.000        0.000        0.000        0.000        1.000        0.000        1.000        1.000        1.000        7.000        0.000        0.000        0.000        0.000        0.000      100.000        0.000        0.000        1.614        1.621        2.940
     820.000  -245286.174    24361.520    14955.899    44057.815       84.659  -372881.309    44135.243       25.703       25.647        2.661        2.616        2.568        2.704        3.189        3.013        3.271        2.997        3.203        3.231        3.025        3.197        2.437        2.548        2.620        2.585        0.481        2.000        0.000        1.000        1.000        1.000        9.000        0.000        0.000        0.000        0.000        0.000        0.000        0.000        0.000        2.000        0.000        0.000        0.000        0.000        1.000        0.000        0.000        0.000        0.000        0.000        0.000        0.000        1.000        0.000       10.000        0.000        0.000        0.000        0.000        0.000      100.000        0.000        0.000        1.726        1.750        3.075
     830.000  -245055.604    23072.819    14673.815    44225.390       74.609  -371880.484    44778.246       25.557       25.701        2.622        2.664        2.546        2.628        3.265        2.936        3.177        3.040        3.218        3.191        3.004        3.225        2.439        2.548        2.599        2.557        0.504        1.000        0.000        0.000        1.000        2.000       10.000        0.000        0.000        0.000        0.000        0.000        0.000        0.000        0.000        1.000        0.000        0.000        0.000        0.000        1.000        0.000        0.000        0.000        0.000        0.000        0.000        1.000        0.000        0.000        8.000        0.000        0.000        0.000        0.000        0.000      100.000        0.000        0.000        2.064        2.068        3.411
     840.000  -245408.283    23262.283    14413.418    44427.872      100.103  -373742.889    46130.930       25.581       25.938        2.541        2.595        2.557        2.629        3.241        2.969        3.164        2.985        3.189        3.191        3.001        3.209        2.488        2.555        2.619        2.540        0.471        2.000        0.000        0.000        1.000        2.000        7.000        0.000        0.000        0.000        0.000        0.000        0.000        0.000        0.000        0.000        0.000        0.000        0.000        0.000        1.000        0.000        0.000        0.000        0.000        0.000        0.000        1.000        2.000        1.000        7.000        0.000        0.000        0.000        0.000        0.000      100.000        0.000        0.000        2.212        2.224        3.582
     850.000  -245543.552    24219.574    14615.758    44041.663       75.091  -373615.551    45119.913       25.633       26.095        2.568        2.630        2.576        2.636        3.258        3.027        3.189        2.942        3.196        3.180        3.033        3.223        2.439        2.587        2.661        2.588        0.482        2.000        0.000        0.000        1.000        1.000        7.000        0.000        0.000        1.000        0.000        0.000        0.000        0.000        2.000        1.000        0.000        0.000        0.000        0.000        1.000        0.000        0.000        0.000        0.000        0.000        0.000        1.000        1.000        1.000        7.000        0.000        0.000        0.000        0.000        0.000      100.000        0.000        0.000        2.499        2.538        3.715
     860.000  -245382.808    24869.439    14471.006    44172.325       86.174  -372630.110    43648.358       25.363       25.887        2.576        2.604        2.553        2.625        3.221        2.990        3.199        3.030        3.242        3.241        2.989        3.182        2.417        2.607        2.687        2.568        0.494        1.000        0.000        0.000        0.000        2.000        9.000        0.000        0.000        0.000        0.000        0.000        0.000        0.000        2.000        1.000        0.000        0.000        0.000        0.000        0.000        0.000        0.000        0.000        0.000        0.000        0.000        1.000        1.000        0.000        5.000        0.000        0.000        0.000        0.000        0.000      100.000        0.000        0.000        2.618        2.692        3.988
     870.000  -245544.026    25791.834    14709.993    44347.883       94.433  -374688.871    44200.701       25.380       25.903        2.611        2.617        2.554        2.657        3.200        2.994        3.201        2.974        3.240        3.188        3.109        3.200        2.402        2.540        2.644        2.598        0.475        2.000        0.000        0.000        1.000        0.000        7.000        0.000        0.000        0.000        0.000        0.000        0.000        0.000        1.000        1.000        0.000        0.000        0.000        0.000        1.000        0.000        0.000        0.000        0.000        0.000        0.000        1.000        0.000        0.000       11.000        0.000        0.000        0.000        0.000        0.000      100.000        0.000        0.000        2.477        2.516        4.016
     880.000  -245832.191    24543.080    14702.189    44054.352       79.294  -373812.199    44601.093       25.557       25.857        2.639        2.600        2.526        2.668        3.245        2.965        3.205        3.021        3.308        3.185        3.165        3.202        2.461        2.597        2.576        2.590        0.479        2.000        0.000        0.000        1.000        1.000        7.000        0.000        0.000        0.000        0.000        0.000        0.000        1.000        4.000        0.000        0.000        0.000        0.000        0.000        1.000        0.000        0.000        0.000        0.000        0.000        0.000        0.000        3.000        0.000        9.000        1.000        0.000        0.000        0.000        0.000      100.000        0.000        0.000        2.552        2.581        4.101
     890.000  -245710.975    23689.859    14817.020    44046.570       76.493  -372547.289    44206.373       25.512       26.107        2.620        2.604        2.571        2.614        3.242        2.990        3.246        3.050        3.244        3.190        3.178        3.213        2.464        2.545        2.595        2.578        0.500        1.000        0.000        0.000        1.000        1.000        7.000        0.000        0.000        0.000        0.000        0.000        0.000        0.000        2.000        0.000        0.000        0.000        0.000        0.000        1.000        0.000        0.000        0.000        0.000        0.000        2.000        0.000        3.000        2.000       11.000        0.000        0.000        0.000        0.000        0.000      100.000        0.000        0.000        2.827        2.866        4.203
     900.000  -245484.037    25253.090    14973.930    44130.223       76.446  -372830.376    42912.651       25.526       25.734        2.593        2.634        2.588        2.629        3.235        2.973        3.286        3.089        3.245        3.269        3.130        3.175        2.471        2.594        2.633        2.558        0.488        2.000        0.000        0.000        0.000        2.000        5.000        0.000        0.000        0.000        0.000        0.000        0.000        0.000        0.000        0.000        0.000        0.000        0.000        0.000        1.000        0.000        0.000        0.000        0.000        0.000        0.000        2.000        2.000        3.000       12.000        0.000        0.000        0.000        0.000        0.000      100.000        0.000        0.000        2.904        2.940        4.465
     910.000  -245024.084    24062.727    14718.778    44276.332       77.780  -373559.940    45400.239       25.576       25.644        2.600        2.586        2.586        2.683        3.291        3.024        3.278        3.095        3.213        3.147        3.070        3.164        2.440        2.519        2.645        2.537        0.503        2.000        0.000        1.000        1.000        1.000        6.000        0.000        0.000        1.000        0.000        0.000        0.000        0.000        3.000        0.000        0.000        0.000        0.000        0.000        1.000        0.000        0.000        0.000        0.000        0.000        0.000        0.000        1.000        1.000        9.000        0.000        0.000        0.000        0.000        0.000      100.000        0.000        0.000        2.704        2.732        4.180
     920.000  -245705.131    25257.810    14544.505    44261.272       96.376  -372781.473    42916.379       25.823       25.468        2.583        2.620        2.566        2.646        3.228        2.985        3.210        2.992        3.254        3.218        3.101        3.174        2.436        2.511        2.637        2.511        0.487        2.000        0.000        0.000        1.000        1.000        6.000        0.000        0.000        0.000        0.000        0.000        0.000        0.000        3.000        1.000        0.000        0.000        0.000        0.000        1.000        0.000        0.000        0.000        0.000        0.000        1.000        2.000        0.000        0.000        9.000        2.000        0.000        0.000        0.000        0.000      100.000        0.000        0.000        2.916        2.958        4.198
     930.000  -245431.186    24618.898    15008.061    43998.800       84.882  -372966.177    43824.351       25.693       25.650        2.611        2.562        2.525        2.688        3.269        2.988        3.236        2.998        3.241        3.213        3.089        3.150        2.430        2.541        2.616        2.539        0.485        2.000        0.000        1.000        1.000        2.000        6.000        0.000        0.000        1.000        0.000        0.000        0.000        0.000        4.000        1.000        0.000        0.000        0.000        0.000        1.000        0.000        0.000        0.000        0.000        0.000        0.000        0.000        3.000        1.000        9.000        1.000        0.000        0.000        0.000        0.000      100.000        0.000        0.000        3.355        3.441        4.421
     940.000  -245370.351    24215.725    14908.851    44097.388       93.902  -373702.427    45016.211       25.205       25.402        2.568        2.579        2.527        2.684        3.255        2.996        3.271        3.023        3.192        3.199        3.057        3.137        2.425        2.552        2.637        2.543        0.472        2.000        0.000        0.000        1.000        1.000        6.000        0.000        0.000        0.000        0.000        0.000        0.000        0.000        0.000        0.000        0.000        0.000        0.000        0.000        1.000        0.000        0.000        0.000        0.000        1.000        1.000        1.000        3.000        1.000        2.000        0.000        0.000        0.000        0.000        0.000      100.000        0.000        0.000        3.574        3.676        4.664
     950.000  -244851.732    25964.412    14747.570    44169.564       77.069  -373239.150    43428.803       25.109       25.438        2.573        2.578        2.550        2.624        3.279        2.965        3.167        3.058        3.302        3.191        3.081        3.124        2.445        2.578        2.582        2.526        0.503        2.000        0.000        0.000        1.000        2.000        8.000        0.000        0.000        0.000        0.000        0.000        0.000        0.000        2.000        0.000        0.000        0.000        0.000        0.000        1.000        0.000        0.000        0.000        0.000        0.000        1.000        1.000        1.000        0.000       10.000        1.000        0.000        0.000        0.000        0.000      100.000        0.000        0.000        3.506        3.616        4.594
     960.000  -244875.880    25119.749    14452.474    44079.753       78.897  -371667.569    43060.816       25.289       25.742        2.590        2.607        2.595        2.672        3.184        2.982        3.257        3.028        3.280        3.196        3.168        3.220        2.379        2.565        2.639        2.556        0.488        2.000        0.000        0.000        1.000        1.000        7.000        0.000        0.000        0.000        0.000        0.000        0.000        1.000        2.000        0.000        0.000        0.000        0.000        0.000        1.000        0.000        0.000        0.000        0.000        1.000        0.000        1.000        2.000        2.000        6.000        0.000        0.000        0.000        0.000        0.000      100.000        0.000        0.000        3.018        3.099        4.270
     970.000  -245640.103    25037.822    14716.387    44226.842      100.454  -373973.399    44251.790       25.297       25.557        2.686        2.670        2.571        2.648        3.245        2.988        3.239        3.038        3.241        3.211        3.008        3.144        2.415        2.562        2.657        2.505        0.470        2.000        0.000        0.000        0.000        0.000        5.000        0.000        0.000        0.000        0.000        0.000        0.000        0.000        3.000        0.000        0.000        0.000        0.000        0.000        1.000        0.000        0.000        0.000        0.000        0.000        1.000        0.000        1.000        1.000        8.000        0.000        0.000        0.000        0.000        0.000      100.000        0.000        0.000        2.748        2.834        3.924
     980.000  -245777.984    24527.135    14598.504    44082.813       70.567  -374118.837    45061.834       25.476       25.670        2.549        2.615        2.568        2.601        3.169        2.975        3.284        2.981        3.289        3.167        3.065        3.205        2.420        2.550        2.621        2.585        0.488        2.000        0.000        0.000        1.000        1.000        4.000        0.000        0.000        0.000        0.000        0.000        0.000        0.000        0.000        0.000        0.000        0.000        0.000        0.000        1.000        0.000        0.000        0.000        0.000        0.000        0.000        0.000        1.000        3.000       10.000        0.000        0.000        0.000        0.000        0.000      100.000        0.000        0.000        2.588        2.667        3.819
     990.000  -245067.085    25345.338    14364.916    44084.809      100.045  -372282.865    43320.672       25.389       25.795        2.560        2.641        2.598        2.665        3.265        2.951        3.233        3.020        3.247        3.228        3.032        3.134        2.456        2.568        2.638        2.561        0.485        2.000        0.000        0.000        1.000        2.000        6.000        0.000        0.000        0.000        0.000        0.000        0.000        0.000        1.000        0.000        0.000        0.000        0.000        0.000        1.000        0.000        0.000        0.000        0.000        0.000        0.000        0.000        2.000        0.000       14.000        1.000        0.000        0.000        4.494        0.000       95.506        0.000        0.000        2.416        2.498        3.687
    1000.000  -245149.028    24311.168    14515.412    44176.486       65.853  -373363.913    45145.966       25.581       26.024        2.569        2.621        2.562        2.697        3.277        2.999        3.278        3.132        3.171        3.199        3.121        3.118        2.472        2.582        2.636        2.515        0.503        1.000        0.000        1.000        1.000        2.000        7.000        0.000        0.000        0.000        0.000        0.000        0.000        0.000        2.000        0.000        0.000        0.000        0.000        0.000        1.000        0.000        0.000        0.000        0.000        0.000        0.000        0.000        1.000        2.000        9.000        0.000        0.000        0.000        0.000        0.000      100.000        0.000        0.000        2.465        2.529        3.606
     Average  -246996.221    24848.218    14754.548    44204.563       80.290  -376099.412    45215.572       25.624       25.752        2.577        2.608        2.575        2.675        3.237        2.982        3.242        3.011        3.216        3.224        3.069        3.195        2.438        2.559        2.635        2.528        0.487        1.693        0.000        0.584        0.960        0.871        6.168        0.000        0.000        0.188        0.000        0.010        0.000        0.040        1.663        0.178        0.000        0.000        0.000        0.000        0.921        0.000        0.000        0.000        0.000        0.356        0.059        0.436        1.446        0.990        9.287        0.188        0.000        0.000        0.879        0.000       99.121        0.000        0.000        2.056        2.090        2.946

