____Time[ps] Energy[ kJ/mol ]_____Bond _______Angle ____Dihedral ___Planarity _____Coulomb _________VdW _Your result _Your result _Your result _Your result _Your result _Your result _Your result _Your result _Your result _Your result _Your result _Your result _Your result _Your result _Your result _Your result _Your result _Your result _Your result _Your result _Your result _Your result _Your result _Your result _Your result _Your result _Your result _Your result _Your result _Your result _Your result _Your result _Your result _Your result _Your result _Your result _Your result _Your result _Your result _Your result _Your result _Your result _Your result _Your result _Your result _Your result _Your result _Your result _Your result _Your result _Your result _Your result _Your result _Your result _Your result _Your result _Your result _RMSDs[A]:CA ____Backbone __HeavyAtoms
       0.000  -384601.080     8594.958     5354.299    43699.021       15.370  -517374.275    75109.546       25.361       25.272        3.046        3.005        3.188        3.226        3.264        2.966        3.245        3.069        3.180        3.132        3.138        3.220        2.489        2.586        2.643        2.615        0.488        1.000        3.000        0.000        0.000        0.000        5.000        0.000        0.000        1.000        0.000        0.000        0.000        0.000        4.000        0.000        0.000        0.000        0.000        0.000        0.000        0.000        0.000        0.000        0.000        0.000        3.000        0.000        0.000        0.000        5.000        0.000        0.000        0.000        0.000        0.000      100.000        0.000        0.000        0.459        0.493        0.584
      10.000  -289524.857    33126.158    16896.400    43500.480       90.082  -439655.028    56517.050       25.741       25.969        2.949        3.083        3.144        3.164        3.251        2.953        3.260        3.040        3.199        3.161        3.208        3.207        2.492        2.593        2.561        2.573        0.495        1.000        2.000        0.000        0.000        1.000        4.000        0.000        0.000        1.000        0.000        0.000        0.000        0.000        1.000        0.000        0.000        0.000        0.000        0.000        0.000        0.000        0.000        0.000        0.000        0.000        5.000        0.000        0.000        0.000        4.000        0.000        0.000        0.000        0.000        0.000      100.000        0.000        0.000        1.183        1.201        1.339
      20.000  -289043.396    33635.276    17321.827    43205.722       76.259  -439091.211    55808.730       25.971       26.145        3.081        3.021        3.070        3.233        3.268        2.994        3.213        3.036        3.155        3.213        3.155        3.157        2.514        2.573        2.574        2.614        0.495        1.000        3.000        0.000        0.000        0.000        4.000        0.000        0.000        1.000        1.000        0.000        0.000        0.000        3.000        0.000        0.000        0.000        0.000        0.000        0.000        0.000        0.000        0.000        0.000        0.000        2.000        0.000        0.000        0.000        4.000        0.000        0.000        0.000        4.494        0.000       95.506        0.000        0.000        1.384        1.416        1.614
      30.000  -289548.897    31104.841    16918.803    43514.114       93.059  -439516.228    58336.514       26.011       26.153        2.754        3.045        3.031        3.228        3.298        3.005        3.206        3.110        3.178        3.136        3.187        3.182        2.488        2.568        2.579        2.616        0.511        0.000        3.000        0.000        0.000        0.000        4.000        0.000        0.000        0.000        1.000        0.000        0.000        0.000        1.000        0.000        0.000        0.000        0.000        0.000        0.000        0.000        0.000        0.000        0.000        1.000        2.000        0.000        0.000        0.000        5.000        0.000        0.000        0.000        0.000        0.000      100.000        0.000        0.000        1.310        1.344        1.525
      40.000  -287550.023    31422.170    17600.056    43476.855       98.914  -435630.656    55482.640       26.028       26.028        2.936        3.008        3.058        3.230        3.274        2.991        3.207        2.995        3.204        3.063        3.203        3.227        2.609        2.590        2.582        2.589        0.460        0.000        2.000        0.000        0.000        0.000        5.000        0.000        0.000        0.000        0.000        0.000        0.000        0.000        3.000        0.000        0.000        0.000        0.000        0.000        0.000        0.000        0.000        0.000        0.000        1.000        4.000        0.000        0.000        0.000        6.000        0.000        0.000        0.000        0.000        0.000      100.000        0.000        0.000        1.360        1.389        1.701
      50.000  -287532.281    31370.736    17683.028    43512.979       80.814  -436265.003    56085.165       25.971       25.960        2.967        3.046        2.981        3.221        3.260        2.937        3.265        3.015        3.148        3.094        3.183        3.137        2.461        2.612        2.582        2.598        0.484        0.000        3.000        0.000        0.000        0.000        4.000        0.000        0.000        0.000        0.000        0.000        0.000        0.000        2.000        0.000        0.000        0.000        0.000        0.000        0.000        0.000        0.000        0.000        0.000        1.000        5.000        0.000        0.000        0.000        6.000        0.000        0.000        0.000        0.000        0.000      100.000        0.000        0.000        1.584        1.618        1.829
      60.000  -287321.810    31034.296    17420.113    43509.244       97.322  -434598.048    55215.263       25.954       26.172        3.004        3.097        3.079        3.207        3.313        2.941        3.180        3.022        3.150        3.164        3.169        3.166        2.511        2.581        2.585        2.552        0.481        1.000        3.000        0.000        0.000        0.000        5.000        0.000        0.000        2.000        1.000        0.000        0.000        0.000        1.000        0.000        0.000        0.000        0.000        0.000        0.000        0.000        0.000        0.000        0.000        0.000        3.000        0.000        0.000        0.000        6.000        0.000        0.000        0.000        0.000        0.000      100.000        0.000        0.000        1.435        1.450        1.787
      70.000  -287860.138    32006.536    17210.477    43360.300       82.941  -434258.676    53738.284       26.156       26.331        3.101        3.105        3.038        3.215        3.301        3.016        3.242        3.002        3.153        3.118        3.200        3.212        2.535        2.644        2.603        2.566        0.490        0.000        3.000        0.000        0.000        0.000        3.000        0.000        0.000        1.000        2.000        0.000        0.000        0.000        1.000        0.000        0.000        0.000        0.000        0.000        0.000        0.000        0.000        0.000        0.000        1.000        3.000        0.000        1.000        0.000        8.000        0.000        0.000        0.000        0.000        0.000      100.000        0.000        0.000        1.895        1.917        2.101
      80.000  -286595.792    31136.792    16935.269    43461.058      108.798  -433072.493    54834.785       25.983       26.061        3.069        3.012        3.062        3.252        3.267        3.004        3.247        2.964        3.222        3.131        3.158        3.221        2.567        2.577        2.588        2.623        0.493        1.000        3.000        0.000        0.000        0.000        4.000        0.000        0.000        0.000        1.000        0.000        0.000        0.000        3.000        0.000        0.000        0.000        0.000        0.000        0.000        0.000        0.000        0.000        0.000        1.000        1.000        0.000        0.000        0.000        4.000        0.000        0.000        0.000        0.000        0.000      100.000        0.000        0.000        1.746        1.772        1.972
      90.000  -286299.211    29744.222    17223.683    43461.197       77.018  -431559.978    54754.646       26.021       25.883        3.084        3.005        3.140        3.260        3.304        3.059        3.205        3.015        3.213        3.169        3.187        3.132        2.508        2.628        2.612        2.609        0.529        1.000        3.000        0.000        0.000        0.000        4.000        0.000        0.000        2.000        1.000        0.000        0.000        0.000        1.000        0.000        0.000        0.000        0.000        0.000        0.000        0.000        0.000        0.000        0.000        2.000        5.000        0.000        0.000        0.000        7.000        0.000        0.000        0.000        0.000        0.000      100.000        0.000        0.000        1.500        1.520        1.686
     100.000  -287278.882    30989.663    16961.018    43415.554       86.389  -432779.110    54047.605       25.909       25.750        2.974        3.019        3.053        3.221        3.258        3.044        3.247        2.971        3.188        3.192        3.124        3.190        2.490        2.573        2.591        2.614        0.478        1.000        3.000        0.000        0.000        0.000        3.000        0.000        0.000        1.000        1.000        0.000        0.000        0.000        0.000        0.000        0.000        0.000        0.000        0.000        0.000        0.000        0.000        0.000        0.000        1.000        6.000        0.000        0.000        0.000        4.000        0.000        0.000        0.000        0.000        0.000      100.000        0.000        0.000        1.632        1.640        1.769
     110.000  -286251.402    30083.215    17452.323    43297.773       67.392  -431268.843    54116.739       25.641       25.876        3.069        2.991        3.074        3.251        3.210        3.003        3.204        3.023        3.225        3.166        3.170        3.215        2.564        2.616        2.575        2.584        0.507        0.000        3.000        0.000        0.000        0.000        5.000        0.000        0.000        1.000        1.000        0.000        0.000        0.000        2.000        0.000        0.000        0.000        0.000        0.000        0.000        0.000        0.000        0.000        0.000        1.000        2.000        0.000        0.000        0.000        3.000        0.000        0.000        0.000        4.494        0.000       95.506        0.000        0.000        1.870        1.876        2.037
     120.000  -286091.710    29349.511    17296.402    43464.415       65.986  -431853.067    55585.043       25.837       25.749        3.062        3.043        3.094        3.207        3.266        2.975        3.228        3.001        3.226        3.183        3.061        3.199        2.464        2.556        2.578        2.578        0.486        1.000        3.000        0.000        0.000        0.000        2.000        0.000        0.000        0.000        1.000        0.000        0.000        0.000        0.000        0.000        0.000        0.000        0.000        0.000        0.000        0.000        0.000        0.000        0.000        2.000        0.000        0.000        0.000        1.000        7.000        0.000        0.000        0.000        0.000        0.000      100.000        0.000        0.000        1.789        1.796        1.935
     130.000  -285024.843    30551.115    17371.584    43398.931       67.189  -429373.376    52959.714       25.884       25.701        3.172        3.053        3.001        3.239        3.320        2.970        3.262        3.081        3.200        3.260        3.124        3.195        2.516        2.582        2.596        2.614        0.479        0.000        3.000        0.000        0.000        0.000        3.000        0.000        0.000        1.000        0.000        0.000        0.000        0.000        0.000        0.000        0.000        0.000        0.000        0.000        0.000        0.000        0.000        0.000        0.000        1.000        6.000        0.000        0.000        0.000        2.000        0.000        0.000        0.000        4.494        0.000       95.506        0.000        0.000        1.647        1.661        1.857
     140.000  -284236.450    29410.835    17580.642    43566.509       99.399  -428693.385    53799.550       25.617       25.777        3.000        3.169        3.058        3.163        3.307        2.962        3.235        3.005        3.212        3.149        3.134        3.219        2.503        2.632        2.593        2.644        0.476        0.000        3.000        0.000        0.000        1.000        4.000        0.000        0.000        1.000        1.000        0.000        0.000        0.000        3.000        0.000        0.000        0.000        0.000        0.000        0.000        0.000        0.000        0.000        0.000        1.000        5.000        0.000        0.000        0.000        5.000        0.000        0.000        0.000        0.000        0.000      100.000        0.000        0.000        1.615        1.625        1.856
     150.000  -284674.598    29150.878    17657.707    43580.181       74.787  -430119.083    54980.931       25.762       25.945        3.019        2.979        3.103        3.233        3.290        2.998        3.185        2.957        3.202        3.248        3.081        3.237        2.548        2.578        2.617        2.617        0.473        0.000        2.000        0.000        0.000        1.000        4.000        0.000        0.000        1.000        0.000        0.000        0.000        0.000        1.000        0.000        0.000        0.000        0.000        0.000        0.000        0.000        0.000        0.000        0.000        1.000        2.000        0.000        0.000        1.000        7.000        0.000        0.000        0.000        0.000        0.000      100.000        0.000        0.000        1.647        1.676        1.988
     160.000  -284948.031    29925.556    17469.447    43409.731       91.535  -429685.325    53841.025       25.936       25.944        3.015        2.974        3.059        3.255        3.195        3.011        3.133        2.975        3.189        3.210        3.102        3.219        2.510        2.579        2.620        2.584        0.489        0.000        3.000        0.000        0.000        1.000        4.000        0.000        0.000        0.000        1.000        0.000        0.000        0.000        0.000        0.000        0.000        0.000        0.000        0.000        0.000        0.000        0.000        0.000        0.000        2.000        7.000        0.000        0.000        0.000        3.000        0.000        0.000        0.000        0.000        0.000      100.000        0.000        0.000        1.638        1.639        1.956
     170.000  -285085.987    30284.347    16850.076    43436.561      105.894  -427964.377    52201.512       25.893       25.811        2.994        3.030        3.049        3.219        3.212        2.998        3.209        2.990        3.258        3.164        3.050        3.243        2.555        2.588        2.575        2.634        0.482        0.000        3.000        0.000        0.000        1.000        4.000        0.000        0.000        0.000        0.000        0.000        0.000        0.000        1.000        0.000        0.000        0.000        0.000        0.000        0.000        0.000        0.000        0.000        0.000        1.000        3.000        0.000        0.000        0.000        6.000        0.000        0.000        0.000        0.000        0.000      100.000        0.000        0.000        1.550        1.567        1.973
     180.000  -285003.263    29732.310    16976.701    43334.196       73.755  -428136.725    53016.499       25.764       25.875        3.047        2.945        3.141        3.222        3.245        2.965        3.203        3.018        3.209        3.214        3.039        3.270        2.592        2.594        2.582        2.606        0.482        0.000        3.000        0.000        0.000        1.000        4.000        0.000        0.000        1.000        0.000        0.000        0.000        0.000        0.000        0.000        0.000        0.000        0.000        0.000        0.000        0.000        0.000        0.000        0.000        2.000        3.000        0.000        0.000        0.000        6.000        0.000        0.000        0.000        0.000        0.000      100.000        0.000        0.000        1.432        1.433        1.862
     190.000  -284566.187    29601.067    16811.761    43315.672       87.149  -426837.791    52455.955       26.071       26.072        3.060        3.017        3.056        3.203        3.197        2.985        3.210        3.012        3.198        3.204        3.122        3.223        2.509        2.586        2.574        2.601        0.469        0.000        3.000        0.000        0.000        1.000        4.000        0.000        0.000        1.000        0.000        0.000        0.000        0.000        2.000        0.000        0.000        0.000        0.000        0.000        0.000        0.000        0.000        0.000        0.000        1.000        3.000        0.000        0.000        0.000        6.000        0.000        0.000        0.000        0.000        0.000      100.000        0.000        0.000        1.402        1.394        1.847
     200.000  -284923.985    28023.242    17035.259    43524.968       90.970  -429038.057    55439.634       25.983       26.097        2.987        3.073        3.020        3.210        3.213        2.981        3.173        3.024        3.173        3.232        3.111        3.231        2.524        2.547        2.614        2.564        0.496        0.000        2.000        0.000        0.000        1.000        3.000        0.000        0.000        1.000        0.000        0.000        0.000        0.000        2.000        0.000        0.000        0.000        0.000        0.000        0.000        0.000        0.000        0.000        0.000        1.000        4.000        0.000        0.000        0.000        4.000        0.000        0.000        0.000        0.000        0.000      100.000        0.000        0.000        1.401        1.456        1.844
     210.000  -284314.906    30046.422    17273.383    43596.845       70.881  -427425.141    52122.704       25.829       25.810        3.027        3.024        3.049        3.231        3.208        3.027        3.181        2.999        3.184        3.152        3.105        3.249        2.541        2.552        2.587        2.584        0.491        0.000        3.000        0.000        0.000        1.000        3.000        0.000        0.000        0.000        1.000        0.000        0.000        0.000        0.000        0.000        0.000        0.000        0.000        0.000        0.000        0.000        0.000        0.000        0.000        1.000        2.000        0.000        0.000        0.000        5.000        0.000        0.000        0.000        4.494        0.000       95.506        0.000        0.000        1.558        1.584        2.037
     220.000  -283940.411    28364.816    17004.621    43399.522       83.912  -427206.675    54413.393       25.813       25.743        3.057        2.989        3.019        3.306        3.263        3.039        3.261        3.060        3.212        3.244        3.011        3.224        2.513        2.565        2.569        2.596        0.498        0.000        2.000        0.000        0.000        1.000        3.000        0.000        0.000        0.000        0.000        0.000        0.000        0.000        1.000        0.000        0.000        0.000        0.000        0.000        0.000        0.000        0.000        0.000        0.000        1.000        5.000        0.000        0.000        1.000        5.000        0.000        0.000        0.000        0.000        0.000      100.000        0.000        0.000        1.552        1.604        2.119
     230.000  -284281.804    29607.900    16816.383    43523.087       87.862  -426584.749    52267.713       26.034       26.072        3.018        3.047        3.067        3.269        3.263        3.002        3.194        2.976        3.188        3.207        3.083        3.205        2.462        2.569        2.569        2.580        0.510        0.000        2.000        0.000        0.000        1.000        3.000        0.000        0.000        1.000        0.000        0.000        0.000        0.000        3.000        0.000        0.000        0.000        0.000        0.000        0.000        0.000        0.000        0.000        0.000        2.000        4.000        0.000        0.000        0.000        4.000        0.000        0.000        0.000        4.494        0.000       95.506        0.000        0.000        1.733        1.773        2.280
     240.000  -283591.858    27892.188    16871.652    43556.744       71.969  -425348.599    53364.188       25.932       25.978        3.041        3.023        3.047        3.159        3.176        3.001        3.230        3.043        3.231        3.180        3.109        3.163        2.454        2.528        2.547        2.577        0.494        0.000        2.000        0.000        0.000        1.000        3.000        0.000        0.000        0.000        1.000        0.000        0.000        0.000        0.000        0.000        0.000        0.000        0.000        0.000        0.000        0.000        0.000        0.000        0.000        2.000        3.000        0.000        0.000        0.000        7.000        0.000        0.000        0.000        0.000        0.000      100.000        0.000        0.000        1.673        1.728        2.231
     250.000  -283549.981    29193.749    16942.115    43518.316       92.958  -424529.838    51232.719       25.855       26.068        3.068        3.024        3.073        3.211        3.273        3.040        3.245        3.017        3.177        3.201        3.128        3.213        2.474        2.557        2.583        2.608        0.485        0.000        3.000        0.000        0.000        1.000        5.000        0.000        0.000        1.000        1.000        0.000        0.000        0.000        1.000        0.000        0.000        0.000        0.000        0.000        0.000        0.000        0.000        0.000        0.000        3.000        3.000        0.000        0.000        0.000        5.000        0.000        0.000        0.000        0.000        0.000      100.000        0.000        0.000        1.835        1.859        2.357
     260.000  -283289.370    28699.016    16856.984    43330.381       90.521  -423447.689    51181.416       26.033       26.153        3.003        2.977        3.076        3.247        3.178        2.975        3.266        3.047        3.222        3.230        3.064        3.191        2.460        2.496        2.573        2.578        0.471        0.000        3.000        0.000        0.000        1.000        4.000        0.000        0.000        0.000        0.000        0.000        0.000        0.000        1.000        0.000        0.000        0.000        0.000        0.000        0.000        0.000        0.000        0.000        0.000        2.000        1.000        0.000        0.000        0.000        5.000        0.000        0.000        0.000        0.000        0.000      100.000        0.000        0.000        1.904        1.956        2.389
     270.000  -283976.336    28294.032    17072.831    43317.617       80.871  -425694.078    52952.392       26.263       26.377        2.979        2.965        3.129        3.303        3.244        2.988        3.246        3.077        3.201        3.154        3.116        3.151        2.501        2.544        2.643        2.605        0.476        0.000        2.000        0.000        0.000        1.000        5.000        0.000        0.000        0.000        0.000        0.000        0.000        0.000        0.000        0.000        0.000        0.000        0.000        0.000        0.000        0.000        0.000        0.000        0.000        1.000        4.000        0.000        0.000        0.000        4.000        0.000        0.000        0.000        0.000        0.000      100.000        0.000        0.000        1.856        1.872        2.374
     280.000  -283058.227    28805.117    16750.358    43371.365       77.151  -423173.987    51111.769       25.726       26.075        3.074        2.961        3.057        3.267        3.198        3.044        3.266        2.994        3.163        3.201        3.114        3.235        2.500        2.558        2.558        2.597        0.505        0.000        3.000        0.000        0.000        1.000        4.000        0.000        0.000        0.000        0.000        0.000        0.000        0.000        1.000        0.000        0.000        0.000        0.000        0.000        0.000        0.000        0.000        0.000        0.000        1.000        4.000        0.000        0.000        0.000        4.000        0.000        0.000        0.000        0.000        0.000      100.000        0.000        0.000        1.943        1.930        2.390
     290.000  -283557.979    28457.309    16672.828    43614.539       75.093  -424397.655    52019.908       26.088       25.845        3.056        3.001        3.087        3.278        3.234        2.937        3.269        3.001        3.169        3.195        3.011        3.206        2.480        2.565        2.562        2.590        0.507        0.000        2.000        0.000        0.000        1.000        6.000        0.000        0.000        0.000        2.000        0.000        0.000        0.000        1.000        0.000        0.000        0.000        0.000        0.000        0.000        0.000        0.000        0.000        0.000        2.000        3.000        0.000        0.000        0.000        3.000        0.000        0.000        0.000        0.000        0.000      100.000        0.000        0.000        1.876        1.881        2.368
     300.000  -282569.158    28455.964    16884.187    43352.756       76.755  -422237.806    50898.987       26.175       26.030        3.019        3.019        3.013        3.258        3.192        2.961        3.296        3.078        3.221        3.210        3.035        3.236        2.430        2.566        2.549        2.506        0.493        0.000        3.000        0.000        0.000        1.000        5.000        0.000        0.000        1.000        0.000        0.000        0.000        0.000        0.000        0.000        0.000        0.000        0.000        0.000        0.000        0.000        0.000        0.000        0.000        0.000        3.000        0.000        0.000        0.000        5.000        0.000        0.000        0.000        0.000        0.000      100.000        0.000        0.000        1.964        1.980        2.424
     310.000  -283278.991    29007.322    16969.545    43246.407       84.220  -425048.570    52462.086       25.899       25.848        3.010        3.027        3.086        3.226        3.274        2.962        3.263        2.952        3.237        3.207        3.090        3.208        2.464        2.558        2.594        2.573        0.486        0.000        2.000        0.000        0.000        1.000        5.000        0.000        0.000        1.000        1.000        0.000        0.000        0.000        1.000        0.000        0.000        0.000        0.000        0.000        0.000        0.000        0.000        0.000        0.000        2.000        1.000        0.000        0.000        0.000        4.000        0.000        0.000        0.000        0.000        0.000      100.000        0.000        0.000        1.852        1.874        2.218
     320.000  -282650.734    28737.653    16759.848    43432.378       92.779  -423006.890    51333.499       25.802       25.738        3.030        3.035        3.061        3.214        3.222        3.000        3.264        3.089        3.206        3.215        3.118        3.226        2.466        2.588        2.609        2.549        0.479        0.000        3.000        0.000        0.000        0.000        5.000        0.000        0.000        0.000        1.000        0.000        0.000        0.000        0.000        0.000        0.000        0.000        0.000        0.000        0.000        0.000        0.000        0.000        0.000        1.000        4.000        0.000        0.000        0.000        5.000        0.000        0.000        0.000        0.000        0.000      100.000        0.000        0.000        1.584        1.578        2.120
     330.000  -283325.211    28877.880    16642.527    43376.022       63.721  -424076.494    51791.133       25.793       25.752        3.012        2.983        3.167        3.187        3.178        2.979        3.278        3.034        3.149        3.146        3.159        3.159        2.487        2.580        2.592        2.568        0.498        0.000        2.000        0.000        0.000        1.000        5.000        0.000        0.000        1.000        1.000        0.000        0.000        0.000        0.000        0.000        0.000        0.000        0.000        0.000        0.000        0.000        0.000        0.000        0.000        2.000        3.000        0.000        0.000        0.000        3.000        0.000        0.000        0.000        0.000        0.000      100.000        0.000        0.000        2.120        2.133        2.382
     340.000  -283891.176    27850.125    17136.407    43581.812       83.900  -425199.269    52655.848       25.698       26.048        3.077        3.006        3.102        3.151        3.224        2.980        3.261        3.058        3.131        3.142        3.097        3.246        2.438        2.521        2.579        2.603        0.490        0.000        3.000        0.000        0.000        1.000        5.000        0.000        0.000        1.000        1.000        0.000        0.000        0.000        1.000        0.000        0.000        0.000        0.000        0.000        0.000        0.000        0.000        0.000        0.000        0.000        2.000        0.000        0.000        0.000        4.000        0.000        0.000        0.000        0.000        0.000      100.000        0.000        0.000        1.824        1.818        2.176
     350.000  -282610.622    29295.925    16730.774    43355.191       79.294  -422886.030    50814.223       25.791       25.853        3.041        3.010        3.030        3.207        3.214        3.065        3.263        3.070        3.205        3.130        3.087        3.254        2.424        2.530        2.581        2.653        0.485        0.000        3.000        0.000        0.000        0.000        5.000        0.000        0.000        1.000        0.000        0.000        0.000        0.000        1.000        0.000        0.000        0.000        0.000        0.000        0.000        0.000        0.000        0.000        0.000        1.000        0.000        0.000        0.000        0.000        4.000        0.000        0.000        0.000        0.000        0.000      100.000        0.000        0.000        1.590        1.572        2.083
     360.000  -283776.984    27953.874    16959.351    43325.502       82.241  -425142.784    53044.831       26.056       26.018        2.957        2.946        3.050        3.160        3.235        2.962        3.198        3.015        3.219        3.241        3.077        3.211        2.464        2.578        2.580        2.626        0.539        0.000        3.000        0.000        0.000        1.000        5.000        0.000        0.000        0.000        0.000        0.000        0.000        0.000        1.000        0.000        0.000        0.000        0.000        0.000        0.000        0.000        0.000        0.000        0.000        2.000        0.000        0.000        0.000        0.000        5.000        0.000        0.000        0.000        0.000        0.000      100.000        0.000        0.000        1.737        1.748        2.331
     370.000  -282684.004    27826.568    16814.099    43294.664       99.184  -423703.566    52985.046       25.861       25.875        2.980        2.993        3.068        3.185        3.239        2.977        3.237        2.991        3.228        3.186        3.128        3.233        2.453        2.564        2.612        2.623        0.487        0.000        3.000        0.000        0.000        1.000        5.000        0.000        0.000        1.000        0.000        0.000        0.000        0.000        1.000        0.000        0.000        0.000        0.000        0.000        0.000        0.000        0.000        0.000        0.000        1.000        3.000        0.000        0.000        0.000        3.000        0.000        0.000        0.000        0.000        0.000      100.000        0.000        0.000        1.648        1.633        2.341
     380.000  -282127.353    26859.652    16761.284    43829.588       77.031  -423597.865    53942.958       25.931       25.896        2.870        2.971        3.064        3.213        3.233        2.971        3.276        3.034        3.179        3.199        3.018        3.234        2.438        2.564        2.550        2.579        0.488        0.000        3.000        0.000        0.000        1.000        4.000        0.000        0.000        0.000        0.000        0.000        0.000        0.000        0.000        0.000        0.000        0.000        0.000        0.000        0.000        0.000        0.000        0.000        0.000        1.000        3.000        0.000        0.000        0.000        9.000        0.000        0.000        0.000        0.000        0.000      100.000        0.000        0.000        2.076        2.074        2.576
     390.000  -283274.521    27327.507    16457.376    43782.337       96.515  -423462.193    52523.937       26.075       25.966        2.949        3.063        3.113        3.201        3.190        2.993        3.280        3.014        3.191        3.204        3.099        3.234        2.462        2.556        2.576        2.642        0.482        0.000        3.000        0.000        0.000        1.000        4.000        0.000        0.000        1.000        0.000        0.000        0.000        0.000        2.000        0.000        0.000        0.000        0.000        0.000        0.000        0.000        0.000        0.000        0.000        2.000        1.000        0.000        0.000        0.000        6.000        0.000        0.000        0.000        0.000        0.000      100.000        0.000        0.000        1.889        1.868        2.583
     400.000  -282720.402    27015.631    16417.509    43804.323       93.627  -423241.826    53190.333       25.979       25.961        3.023        3.028        3.086        3.159        3.143        3.007        3.250        3.014        3.210        3.199        3.013        3.236        2.492        2.542        2.577        2.568        0.492        0.000        3.000        0.000        0.000        1.000        4.000        0.000        0.000        0.000        0.000        0.000        0.000        0.000        2.000        0.000        0.000        0.000        0.000        0.000        0.000        0.000        0.000        0.000        0.000        2.000        3.000        0.000        0.000        0.000        5.000        0.000        0.000        0.000        0.000        0.000      100.000        0.000        0.000        1.727        1.716        2.404
     410.000  -282218.856    27369.402    16664.660    43674.239       85.873  -422472.485    52459.456       26.305       26.247        3.079        3.065        3.089        3.237        3.188        2.994        3.284        3.025        3.173        3.186        3.074        3.172        2.450        2.576        2.585        2.550        0.476        0.000        2.000        0.000        0.000        1.000        3.000        0.000        0.000        0.000        2.000        0.000        0.000        0.000        3.000        0.000        0.000        0.000        0.000        0.000        0.000        0.000        0.000        0.000        0.000        1.000        4.000        0.000        0.000        0.000        2.000        0.000        0.000        0.000        0.000        0.000      100.000        0.000        0.000        2.025        2.035        2.624
     420.000  -282821.663    29107.078    16823.004    43432.451       86.417  -423921.001    51650.389       26.010       26.158        2.991        3.066        3.105        3.209        3.198        2.953        3.269        3.008        3.176        3.173        3.122        3.148        2.453        2.547        2.587        2.604        0.506        0.000        3.000        0.000        0.000        1.000        3.000        0.000        0.000        0.000        0.000        0.000        0.000        0.000        1.000        0.000        0.000        0.000        0.000        0.000        0.000        0.000        0.000        0.000        0.000        1.000        2.000        0.000        0.000        0.000        4.000        0.000        0.000        0.000        0.000        0.000      100.000        0.000        0.000        1.953        1.958        2.759
     430.000  -282262.333    27706.571    16771.801    43433.416       84.269  -421712.700    51454.309       26.339       26.459        2.951        2.992        3.115        3.251        3.215        2.983        3.248        2.989        3.193        3.159        3.086        3.180        2.466        2.563        2.597        2.587        0.485        0.000        3.000        0.000        0.000        1.000        3.000        0.000        0.000        1.000        1.000        0.000        0.000        0.000        0.000        0.000        0.000        0.000        0.000        0.000        0.000        0.000        0.000        0.000        0.000        1.000        3.000        0.000        0.000        0.000        4.000        0.000        0.000        0.000        0.000        0.000      100.000        0.000        0.000        2.145        2.139        2.952
     440.000  -282441.937    29054.447    16470.816    43353.125       80.263  -422461.743    51061.155       26.399       26.592        3.023        3.066        3.005        3.250        3.216        3.030        3.274        3.036        3.246        3.197        3.142        3.306        2.466        2.572        2.577        2.596        0.486        0.000        3.000        0.000        0.000        1.000        3.000        0.000        0.000        0.000        0.000        0.000        0.000        0.000        2.000        0.000        0.000        0.000        0.000        0.000        0.000        0.000        0.000        0.000        0.000        1.000        3.000        0.000        0.000        0.000        3.000        0.000        0.000        0.000        0.000        0.000      100.000        0.000        0.000        2.285        2.292        3.038
     450.000  -282653.043    28515.966    16659.203    43438.936       72.826  -422236.652    50896.678       26.101       26.481        3.039        2.999        3.033        3.249        3.215        3.035        3.221        2.944        3.132        3.277        3.159        3.105        2.426        2.537        2.570        2.579        0.501        0.000        3.000        0.000        0.000        1.000        3.000        0.000        0.000        1.000        1.000        0.000        0.000        0.000        0.000        0.000        0.000        0.000        0.000        0.000        0.000        0.000        0.000        0.000        0.000        2.000        3.000        0.000        0.000        0.000        4.000        0.000        0.000        0.000        0.000        0.000      100.000        0.000        0.000        2.240        2.240        3.067
     460.000  -282451.112    27442.483    17071.173    43575.552       72.790  -422656.593    52043.483       26.129       26.504        3.001        3.041        3.111        3.237        3.192        3.043        3.229        3.064        3.207        3.235        3.123        3.160        2.441        2.595        2.570        2.563        0.489        0.000        2.000        0.000        0.000        1.000        2.000        0.000        0.000        0.000        0.000        0.000        0.000        0.000        1.000        0.000        0.000        0.000        0.000        0.000        0.000        0.000        0.000        0.000        0.000        1.000        2.000        0.000        0.000        0.000        4.000        0.000        0.000        0.000        0.000        0.000      100.000        0.000        0.000        2.211        2.214        3.034
     470.000  -282490.963    28145.729    16635.150    43360.468       96.842  -423197.875    52468.723       26.251       26.543        3.007        3.082        3.118        3.155        3.266        2.984        3.189        3.038        3.207        3.232        3.211        3.098        2.482        2.599        2.524        2.612        0.475        0.000        2.000        0.000        0.000        1.000        2.000        0.000        0.000        0.000        2.000        0.000        0.000        0.000        0.000        0.000        0.000        0.000        0.000        0.000        0.000        0.000        0.000        0.000        0.000        2.000        1.000        0.000        0.000        1.000        4.000        0.000        0.000        0.000        0.000        0.000      100.000        0.000        0.000        2.461        2.479        3.154
     480.000  -282032.088    27180.940    16928.377    43601.450       93.943  -422846.777    53009.977       26.186       26.260        2.999        2.980        3.098        3.210        3.186        3.029        3.248        3.109        3.176        3.150        3.189        3.087        2.457        2.554        2.588        2.575        0.495        0.000        2.000        0.000        0.000        0.000        2.000        0.000        0.000        0.000        0.000        0.000        0.000        0.000        0.000        0.000        0.000        0.000        0.000        0.000        0.000        0.000        0.000        0.000        0.000        1.000        4.000        0.000        0.000        0.000        8.000        0.000        0.000        0.000        0.000        0.000      100.000        0.000        0.000        2.482        2.505        3.312
     490.000  -282527.549    28596.930    16682.305    43519.610       90.116  -423153.702    51737.193       26.372       26.344        3.053        3.015        3.004        3.187        3.195        3.043        3.255        3.025        3.195        3.136        3.184        3.080        2.475        2.557        2.612        2.587        0.487        0.000        3.000        0.000        0.000        0.000        3.000        0.000        0.000        1.000        1.000        0.000        0.000        0.000        0.000        0.000        0.000        0.000        0.000        0.000        0.000        0.000        0.000        0.000        0.000        2.000        4.000        0.000        0.000        0.000        5.000        0.000        0.000        0.000        0.000        0.000      100.000        0.000        0.000        2.031        2.062        3.076
     500.000  -282558.067    28741.509    16381.285    43493.084      101.793  -422377.235    51101.497       25.901       26.545        3.078        3.032        3.099        3.174        3.204        3.018        3.325        3.001        3.147        3.175        3.118        3.083        2.465        2.577        2.570        2.531        0.491        0.000        3.000        0.000        0.000        0.000        3.000        0.000        0.000        0.000        1.000        0.000        0.000        0.000        1.000        0.000        0.000        0.000        0.000        0.000        0.000        0.000        0.000        0.000        0.000        1.000        1.000        0.000        0.000        0.000        8.000        0.000        0.000        0.000        0.000        0.000      100.000        0.000        0.000        1.801        1.812        2.872
     510.000  -281626.623    28709.068    16582.332    43518.621       97.382  -421427.045    50893.019       26.196       26.480        3.074        3.022        3.128        3.188        3.247        2.994        3.218        3.046        3.196        3.138        3.197        3.086        2.494        2.562        2.583        2.520        0.492        0.000        3.000        0.000        0.000        1.000        3.000        0.000        0.000        1.000        1.000        0.000        0.000        0.000        2.000        0.000        0.000        0.000        0.000        0.000        0.000        0.000        0.000        0.000        0.000        1.000        2.000        0.000        0.000        0.000        4.000        0.000        0.000        0.000        0.000        0.000      100.000        0.000        0.000        1.774        1.804        2.925
     520.000  -282527.556    28215.460    16165.018    43404.741       94.788  -422143.765    51736.202       26.262       26.486        3.025        2.962        3.133        3.216        3.191        3.057        3.204        3.049        3.196        3.209        3.170        3.077        2.484        2.561        2.562        2.581        0.483        0.000        3.000        0.000        0.000        0.000        3.000        0.000        0.000        1.000        1.000        0.000        0.000        0.000        0.000        0.000        0.000        0.000        0.000        0.000        0.000        0.000        0.000        0.000        0.000        3.000        3.000        0.000        0.000        1.000        7.000        0.000        0.000        0.000        0.000        0.000      100.000        0.000        0.000        2.075        2.095        3.138
     530.000  -282451.152    27558.866    16315.548    43603.454       94.943  -422109.339    52085.375       26.211       26.363        3.049        2.976        3.164        3.183        3.168        3.022        3.243        3.060        3.186        3.161        3.153        3.061        2.453        2.535        2.608        2.599        0.487        0.000        3.000        0.000        0.000        0.000        2.000        0.000        0.000        1.000        0.000        0.000        0.000        0.000        0.000        0.000        0.000        0.000        0.000        0.000        0.000        0.000        0.000        0.000        0.000        4.000        7.000        0.000        0.000        0.000        5.000        0.000        0.000        0.000        0.000        0.000      100.000        0.000        0.000        1.958        1.976        3.109
     540.000  -282203.183    27896.963    16772.387    43370.998      103.254  -422023.937    51677.152       26.502       26.394        3.056        2.923        3.179        3.171        3.193        3.070        3.217        2.959        3.207        3.133        3.122        3.049        2.463        2.565        2.579        2.637        0.496        0.000        2.000        0.000        0.000        0.000        2.000        0.000        0.000        0.000        0.000        0.000        0.000        0.000        0.000        0.000        0.000        0.000        0.000        0.000        0.000        0.000        0.000        0.000        0.000        1.000        3.000        0.000        0.000        0.000        5.000        0.000        0.000        0.000        0.000        0.000      100.000        0.000        0.000        2.064        2.078        3.119
     550.000  -282368.661    27231.126    16386.263    43460.441       73.377  -421606.092    52086.225       26.512       26.553        3.086        3.008        3.146        3.203        3.108        3.142        3.189        3.114        3.134        3.165        3.168        3.076        2.500        2.518        2.568        2.578        0.516        0.000        2.000        0.000        0.000        0.000        3.000        0.000        0.000        1.000        0.000        0.000        0.000        0.000        0.000        0.000        0.000        0.000        0.000        0.000        0.000        0.000        0.000        0.000        0.000        3.000        4.000        0.000        0.000        0.000        6.000        0.000        0.000        0.000        0.000        0.000      100.000        0.000        0.000        2.034        2.053        3.202
     560.000  -282374.778    28159.044    16392.942    43571.904       97.633  -421873.724    51277.422       25.922       26.214        3.078        2.983        3.039        3.208        2.971        3.007        3.283        3.037        3.176        3.222        3.143        3.010        2.551        2.500        2.525        2.581        0.478        0.000        3.000        0.000        0.000        0.000        4.000        0.000        0.000        0.000        0.000        0.000        0.000        0.000        0.000        0.000        0.000        0.000        0.000        0.000        0.000        0.000        0.000        0.000        0.000        1.000        2.000        0.000        0.000        0.000        4.000        0.000        0.000        0.000        0.000        0.000      100.000        0.000        0.000        2.005        2.020        3.201
     570.000  -282543.977    26886.289    16350.163    43625.839       90.927  -422758.548    53261.353       25.901       25.846        3.090        3.051        3.100        3.182        3.066        2.973        3.191        3.076        3.166        3.154        3.140        3.034        2.494        2.511        2.560        2.613        0.498        1.000        3.000        0.000        0.000        0.000        3.000        0.000        0.000        0.000        0.000        0.000        0.000        0.000        1.000        0.000        0.000        0.000        0.000        0.000        0.000        0.000        0.000        0.000        0.000        1.000        2.000        0.000        0.000        0.000        8.000        0.000        0.000        0.000        0.000        0.000      100.000        0.000        0.000        2.283        2.312        3.542
     580.000  -282721.870    28037.773    16728.380    43457.973       72.834  -422019.985    51001.155       25.976       25.997        3.097        3.048        3.075        3.172        3.153        3.044        3.217        3.082        3.166        3.156        3.220        3.028        2.430        2.517        2.577        2.567        0.511        0.000        1.000        0.000        0.000        0.000        2.000        0.000        0.000        2.000        0.000        0.000        0.000        0.000        0.000        0.000        0.000        0.000        0.000        0.000        0.000        0.000        0.000        0.000        0.000        4.000        4.000        0.000        0.000        2.000        5.000        0.000        0.000        0.000        0.000        0.000      100.000        0.000        0.000        2.619        2.635        3.678
     590.000  -282275.674    28218.083    16710.576    43346.294       96.191  -423419.962    52773.144       26.020       26.115        3.018        3.037        3.108        3.154        3.094        3.071        3.299        3.012        3.196        3.220        3.214        3.122        2.449        2.552        2.573        2.610        0.499        0.000        3.000        0.000        0.000        0.000        2.000        0.000        0.000        1.000        1.000        0.000        0.000        0.000        1.000        0.000        0.000        0.000        0.000        0.000        0.000        0.000        0.000        0.000        0.000        2.000        3.000        0.000        0.000        0.000        6.000        0.000        0.000        0.000        0.000        0.000      100.000        0.000        0.000        2.665        2.688        3.669
     600.000  -282632.337    28701.461    16261.018    43457.337       77.109  -422369.542    51240.280       26.285       26.008        3.010        3.027        3.090        3.156        3.116        3.109        3.210        2.978        3.267        3.154        3.148        3.131        2.503        2.557        2.612        2.587        0.478        0.000        3.000        0.000        0.000        0.000        3.000        0.000        0.000        1.000        0.000        0.000        0.000        0.000        0.000        0.000        0.000        0.000        0.000        0.000        0.000        0.000        0.000        0.000        0.000        0.000        1.000        0.000        0.000        0.000        2.000        0.000        0.000        0.000        0.000        0.000      100.000        0.000        0.000        2.451        2.453        3.397
     610.000  -282428.506    27292.336    16626.398    43504.689       79.624  -421205.601    51274.047       25.947       25.908        2.974        3.100        3.089        3.221        3.208        3.085        3.251        3.031        3.221        3.217        3.165        3.048        2.463        2.567        2.609        2.558        0.474        1.000        1.000        0.000        0.000        1.000        1.000        0.000        0.000        0.000        0.000        0.000        0.000        0.000        0.000        0.000        0.000        0.000        0.000        0.000        0.000        0.000        0.000        0.000        0.000        2.000        6.000        0.000        0.000        0.000        6.000        0.000        0.000        0.000        0.000        0.000      100.000        0.000        0.000        2.297        2.324        3.469
     620.000  -281791.521    28130.079    16888.285    43407.648       84.526  -422162.208    51860.150       26.151       26.151        3.084        2.997        3.112        3.226        3.241        3.053        3.257        3.049        3.239        3.147        3.191        3.028        2.481        2.578        2.588        2.631        0.493        1.000        3.000        0.000        0.000        0.000        3.000        0.000        0.000        0.000        1.000        0.000        0.000        0.000        1.000        0.000        0.000        0.000        0.000        0.000        0.000        0.000        0.000        0.000        0.000        0.000        2.000        0.000        0.000        0.000        8.000        0.000        0.000        0.000        0.000        0.000      100.000        0.000        0.000        2.403        2.401        3.416
     630.000  -281982.849    27297.821    16807.106    43615.377       81.580  -421589.189    51804.456       25.902       26.204        3.083        3.026        3.155        3.160        3.205        2.992        3.207        3.004        3.178        3.160        3.088        3.011        2.491        2.660        2.587        2.620        0.488        0.000        2.000        0.000        0.000        0.000        3.000        0.000        0.000        0.000        2.000        0.000        0.000        0.000        1.000        0.000        0.000        0.000        0.000        0.000        0.000        0.000        0.000        0.000        0.000        1.000        9.000        0.000        0.000        1.000        5.000        0.000        0.000        0.000        4.494        0.000       95.506        0.000        0.000        2.306        2.337        3.334
     640.000  -281695.021    26543.267    16517.637    43605.804       91.762  -421597.085    53143.594       25.790       26.106        3.034        3.125        3.031        3.215        3.091        3.002        3.210        3.007        3.191        3.229        3.139        3.052        2.506        2.594        2.573        2.614        0.497        0.000        3.000        0.000        0.000        0.000        3.000        0.000        0.000        0.000        1.000        0.000        0.000        0.000        2.000        0.000        0.000        0.000        0.000        0.000        0.000        0.000        0.000        0.000        0.000        0.000        2.000        0.000        0.000        1.000        5.000        0.000        0.000        0.000        4.494        0.000       95.506        0.000        0.000        2.303        2.313        3.270
     650.000  -282053.567    28084.071    16786.230    43401.400      113.280  -422191.229    51752.682       25.822       26.175        3.077        3.013        3.110        3.218        3.220        2.989        3.226        2.992        3.210        3.204        3.088        3.073        2.493        2.598        2.628        2.594        0.495        0.000        3.000        0.000        0.000        0.000        2.000        0.000        0.000        2.000        0.000        0.000        0.000        0.000        1.000        0.000        0.000        0.000        0.000        0.000        0.000        0.000        0.000        0.000        0.000        0.000        5.000        0.000        0.000        1.000        2.000        0.000        0.000        0.000        0.000        0.000      100.000        0.000        0.000        2.517        2.543        3.363
     660.000  -283234.905    27950.205    16814.645    43504.966       94.759  -424259.968    52660.488       26.072       26.166        3.095        3.109        3.101        3.199        3.177        3.062        3.223        2.998        3.197        3.173        2.998        3.010        2.480        2.560        2.548        2.596        0.509        0.000        3.000        0.000        0.000        0.000        2.000        0.000        0.000        1.000        1.000        0.000        0.000        0.000        1.000        0.000        0.000        0.000        0.000        0.000        0.000        0.000        0.000        0.000        0.000        1.000        3.000        0.000        0.000        0.000        6.000        0.000        0.000        0.000        0.000        0.000      100.000        0.000        0.000        2.570        2.587        3.484
     670.000  -282177.080    26508.639    16789.980    43783.025      102.146  -422753.893    53393.022       25.974       26.263        3.002        3.118        3.073        3.190        3.159        3.028        3.171        2.992        3.169        3.201        3.008        3.075        2.440        2.637        2.618        2.560        0.497        0.000        3.000        0.000        0.000        1.000        1.000        0.000        0.000        2.000        0.000        0.000        0.000        0.000        0.000        0.000        0.000        0.000        0.000        0.000        0.000        0.000        0.000        0.000        0.000        0.000        3.000        0.000        0.000        0.000        5.000        0.000        0.000        0.000        0.000        0.000      100.000        0.000        0.000        2.586        2.587        3.322
     680.000  -281877.640    28367.113    16617.382    43493.818       74.426  -422158.930    51728.552       26.029       26.000        3.045        3.065        3.145        3.237        3.195        3.020        3.184        3.027        3.164        3.102        2.970        3.055        2.433        2.593        2.561        2.543        0.499        0.000        3.000        0.000        0.000        1.000        1.000        0.000        0.000        1.000        1.000        0.000        0.000        0.000        0.000        0.000        0.000        0.000        0.000        0.000        0.000        0.000        0.000        0.000        0.000        2.000        2.000        0.000        0.000        0.000        5.000        0.000        0.000        0.000        0.000        0.000      100.000        0.000        0.000        2.281        2.287        3.208
     690.000  -282833.995    27677.627    16592.669    43501.214       74.740  -423134.581    52454.336       26.252       26.239        3.036        3.106        3.063        3.192        3.241        3.023        3.223        3.006        3.139        3.216        3.010        3.064        2.482        2.607        2.582        2.578        0.493        0.000        3.000        0.000        0.000        1.000        1.000        0.000        0.000        1.000        0.000        0.000        0.000        0.000        0.000        0.000        0.000        0.000        0.000        0.000        0.000        0.000        0.000        0.000        0.000        1.000        2.000        0.000        0.000        0.000        5.000        0.000        0.000        0.000        0.000        0.000      100.000        0.000        0.000        2.600        2.621        3.538
     700.000  -282253.666    28112.464    16741.528    43558.158       99.374  -420873.702    50108.512       26.045       26.197        3.035        3.133        3.133        3.222        3.168        3.055        3.217        3.059        3.222        3.178        2.991        3.079        2.504        2.566        2.543        2.575        0.499        0.000        3.000        0.000        0.000        1.000        1.000        0.000        0.000        1.000        1.000        0.000        0.000        0.000        1.000        0.000        0.000        0.000        0.000        0.000        0.000        0.000        0.000        0.000        0.000        1.000        2.000        0.000        0.000        0.000        5.000        0.000        0.000        0.000        0.000        0.000      100.000        0.000        0.000        2.297        2.311        3.242
     710.000  -282181.894    27944.608    16693.563    43503.780       80.340  -421480.889    51076.705       25.904       26.037        3.024        3.107        3.112        3.332        3.214        3.050        3.169        3.054        3.167        3.153        3.049        3.087        2.479        2.608        2.616        2.494        0.479        0.000        3.000        0.000        0.000        1.000        1.000        0.000        0.000        1.000        1.000        0.000        0.000        0.000        0.000        0.000        0.000        0.000        0.000        0.000        0.000        0.000        0.000        0.000        0.000        2.000        1.000        0.000        0.000        0.000       12.000        0.000        0.000        0.000        0.000        0.000      100.000        0.000        0.000        2.637        2.666        3.393
     720.000  -281769.770    27277.667    16302.184    43717.113       69.823  -421001.897    51865.339       26.010       26.223        3.046        3.092        3.043        3.293        3.188        3.027        3.249        3.075        3.214        3.129        2.990        2.990        2.466        2.580        2.570        2.551        0.510        0.000        3.000        0.000        0.000        1.000        1.000        0.000        0.000        0.000        0.000        0.000        0.000        0.000        0.000        0.000        0.000        0.000        0.000        0.000        0.000        0.000        0.000        0.000        0.000        0.000        0.000        0.000        0.000        0.000        2.000        0.000        0.000        0.000        0.000        0.000      100.000        0.000        0.000        2.498        2.526        3.318
     730.000  -282262.231    28736.022    16134.488    43401.684       89.899  -421377.742    50753.419       26.008       25.991        3.074        3.170        3.131        3.257        3.218        3.023        3.232        3.077        3.169        3.168        3.122        3.047        2.479        2.627        2.604        2.544        0.505        0.000        2.000        0.000        0.000        1.000        1.000        0.000        0.000        0.000        2.000        0.000        0.000        0.000        0.000        0.000        0.000        0.000        0.000        0.000        0.000        0.000        0.000        0.000        0.000        0.000        2.000        0.000        0.000        0.000        7.000        0.000        0.000        0.000        0.000        0.000      100.000        0.000        0.000        2.334        2.373        3.299
     740.000  -282116.747    27047.593    16001.737    43630.392       73.538  -421020.775    52150.767       26.268       25.997        2.987        3.043        3.074        3.204        3.136        2.997        3.212        3.041        3.172        3.208        3.102        3.073        2.497        2.605        2.605        2.574        0.498        0.000        3.000        0.000        0.000        1.000        1.000        0.000        0.000        0.000        1.000        0.000        0.000        0.000        0.000        0.000        0.000        0.000        0.000        0.000        0.000        0.000        0.000        0.000        0.000        1.000        2.000        0.000        0.000        0.000        5.000        0.000        0.000        0.000        0.000        0.000      100.000        0.000        0.000        2.315        2.345        3.399
     750.000  -282359.937    27981.890    16375.707    43633.578      103.222  -421262.896    50808.562       26.244       26.121        3.060        2.958        3.105        3.220        3.143        2.993        3.184        3.025        3.193        3.134        3.148        3.086        2.494        2.613        2.627        2.571        0.488        0.000        3.000        0.000        0.000        1.000        1.000        0.000        0.000        1.000        0.000        0.000        0.000        0.000        0.000        0.000        0.000        0.000        0.000        0.000        0.000        0.000        0.000        0.000        0.000        2.000        4.000        0.000        0.000        0.000        4.000        0.000        0.000        0.000        0.000        0.000      100.000        0.000        0.000        2.485        2.501        3.250
     760.000  -282673.739    27341.113    16275.664    43471.099      103.111  -422989.498    53124.773       26.234       26.442        3.105        3.056        3.025        3.230        3.196        3.074        3.308        3.038        3.125        3.181        3.136        3.052        2.486        2.620        2.568        2.578        0.486        0.000        3.000        0.000        0.000        1.000        1.000        0.000        0.000        1.000        1.000        0.000        0.000        0.000        1.000        0.000        0.000        0.000        0.000        0.000        0.000        0.000        0.000        0.000        0.000        1.000        3.000        0.000        0.000        0.000        7.000        0.000        0.000        0.000        0.000        0.000      100.000        0.000        0.000        2.616        2.634        3.460
     770.000  -281880.735    28598.317    15927.686    43523.723       71.097  -421563.122    51561.563       26.213       26.067        3.061        3.015        3.143        3.209        3.172        3.009        3.225        2.999        3.162        3.178        3.186        3.036        2.490        2.546        2.574        2.517        0.501        0.000        3.000        0.000        0.000        1.000        2.000        0.000        0.000        0.000        1.000        0.000        0.000        0.000        0.000        0.000        0.000        0.000        0.000        0.000        0.000        0.000        0.000        0.000        0.000        0.000        3.000        0.000        0.000        0.000        3.000        0.000        0.000        0.000        0.000        0.000      100.000        0.000        0.000        2.430        2.478        3.250
     780.000  -282617.094    27738.692    16277.994    43447.984       76.917  -421828.314    51669.633       26.139       26.055        3.048        3.013        3.087        3.244        3.153        3.051        3.207        3.088        3.114        3.157        3.151        3.104        2.461        2.563        2.574        2.510        0.499        0.000        2.000        0.000        0.000        1.000        2.000        0.000        0.000        1.000        0.000        0.000        0.000        0.000        1.000        0.000        0.000        0.000        0.000        0.000        0.000        0.000        0.000        0.000        0.000        0.000        1.000        0.000        0.000        0.000        6.000        0.000        0.000        0.000        0.000        0.000      100.000        0.000        0.000        2.061        2.080        3.034
     790.000  -282424.539    27899.466    16377.517    43331.749       72.971  -420999.904    50893.662       26.346       26.633        3.089        2.985        3.057        3.214        3.165        3.000        3.209        3.038        3.189        3.197        3.201        3.079        2.467        2.540        2.599        2.565        0.492        0.000        2.000        0.000        0.000        1.000        1.000        0.000        0.000        1.000        1.000        0.000        0.000        0.000        0.000        0.000        0.000        0.000        0.000        0.000        0.000        0.000        0.000        0.000        0.000        1.000        1.000        0.000        0.000        0.000        2.000        0.000        0.000        0.000        0.000        0.000      100.000        0.000        0.000        2.087        2.094        2.952
     800.000  -282463.106    28133.204    16217.230    43355.641       92.815  -421147.888    50885.892       26.046       25.792        3.053        3.026        3.099        3.218        3.213        3.083        3.185        3.078        3.211        3.166        3.188        3.073        2.481        2.562        2.600        2.621        0.483        0.000        3.000        0.000        0.000        1.000        2.000        0.000        0.000        1.000        1.000        0.000        0.000        0.000        0.000        0.000        0.000        0.000        0.000        0.000        0.000        0.000        0.000        0.000        0.000        3.000        2.000        0.000        0.000        0.000        5.000        0.000        0.000        0.000        0.000        0.000      100.000        0.000        0.000        1.926        1.944        2.919
     810.000  -282761.871    28128.477    16583.320    43332.798       78.727  -422548.283    51663.089       26.015       25.977        3.047        3.015        3.138        3.211        3.171        2.958        3.220        2.990        3.198        3.192        3.205        3.146        2.472        2.600        2.670        2.562        0.484        0.000        3.000        0.000        0.000        1.000        2.000        0.000        0.000        2.000        2.000        0.000        0.000        0.000        0.000        0.000        0.000        0.000        0.000        0.000        0.000        0.000        0.000        0.000        0.000        2.000        2.000        0.000        0.000        0.000        6.000        0.000        0.000        0.000        0.000        0.000      100.000        0.000        0.000        2.076        2.069        2.917
     820.000  -282936.526    28323.675    16234.630    43425.054       90.141  -421298.982    50288.955       26.421       26.424        3.048        3.078        3.116        3.171        3.198        2.996        3.181        3.007        3.188        3.205        3.111        2.980        2.474        2.584        2.559        2.529        0.493        0.000        3.000        0.000        0.000        1.000        2.000        0.000        0.000        1.000        1.000        0.000        0.000        0.000        0.000        0.000        0.000        0.000        0.000        0.000        0.000        0.000        0.000        0.000        0.000        1.000        3.000        0.000        0.000        0.000        2.000        0.000        0.000        0.000        0.000        0.000      100.000        0.000        0.000        2.358        2.347        3.127
     830.000  -282708.334    27266.542    16113.363    43669.242      111.997  -421930.454    52060.976       26.009       25.972        2.940        3.041        3.122        3.155        3.179        2.942        3.223        3.048        3.175        3.196        3.134        3.156        2.468        2.561        2.598        2.506        0.483        0.000        2.000        0.000        0.000        1.000        3.000        0.000        0.000        1.000        0.000        0.000        0.000        0.000        0.000        0.000        0.000        0.000        0.000        0.000        0.000        0.000        0.000        0.000        0.000        1.000        2.000        0.000        0.000        0.000        5.000        0.000        0.000        0.000        0.000        0.000      100.000        0.000        0.000        1.903        1.885        2.821
     840.000  -281898.985    28094.088    16404.144    43315.452       71.463  -421338.398    51554.266       26.053       26.077        3.078        3.112        3.070        3.213        3.229        2.941        3.223        3.060        3.188        3.193        3.179        3.134        2.482        2.587        2.575        2.525        0.502        0.000        1.000        0.000        0.000        1.000        3.000        0.000        0.000        0.000        0.000        0.000        0.000        0.000        0.000        0.000        0.000        0.000        0.000        0.000        0.000        0.000        0.000        0.000        0.000        0.000        3.000        0.000        0.000        0.000        3.000        0.000        0.000        0.000        0.000        0.000      100.000        0.000        0.000        1.924        1.909        2.896
     850.000  -281006.345    27415.294    16673.933    43480.054       71.806  -421727.897    53080.465       26.040       26.205        3.031        3.053        3.089        3.165        3.207        2.942        3.293        3.064        3.213        3.226        3.204        3.131        2.478        2.608        2.620        2.576        0.484        0.000        2.000        0.000        0.000        1.000        3.000        0.000        0.000        1.000        1.000        0.000        0.000        0.000        0.000        0.000        0.000        0.000        0.000        0.000        0.000        0.000        0.000        0.000        0.000        2.000        7.000        0.000        0.000        0.000        7.000        0.000        0.000        0.000        0.000        0.000      100.000        0.000        0.000        1.866        1.853        2.893
     860.000  -282065.416    27294.317    16656.994    43665.948       80.409  -423183.803    53420.720       25.809       26.008        2.930        3.163        3.060        3.237        3.269        2.986        3.274        3.111        3.202        3.166        3.103        3.089        2.446        2.564        2.603        2.631        0.487        0.000        2.000        0.000        0.000        1.000        3.000        0.000        0.000        1.000        2.000        0.000        0.000        0.000        1.000        0.000        0.000        0.000        0.000        0.000        0.000        0.000        0.000        0.000        0.000        2.000        1.000        0.000        0.000        0.000        6.000        0.000        0.000        0.000        0.000        0.000      100.000        0.000        0.000        1.810        1.812        3.076
     870.000  -282526.126    28226.192    16316.771    43299.557       80.304  -422137.768    51688.819       26.133       26.301        3.040        3.123        3.085        3.190        3.201        3.106        3.209        3.025        3.202        3.191        3.101        3.049        2.457        2.559        2.601        2.583        0.484        0.000        3.000        0.000        0.000        1.000        2.000        0.000        0.000        0.000        0.000        0.000        0.000        0.000        1.000        0.000        0.000        0.000        0.000        0.000        0.000        0.000        0.000        0.000        0.000        1.000        3.000        0.000        0.000        1.000        4.000        0.000        0.000        0.000        0.000        0.000      100.000        0.000        0.000        2.139        2.136        3.205
     880.000  -282532.099    28249.844    16660.247    43152.293       84.798  -421760.165    51080.883       25.939       26.033        2.994        3.114        3.006        3.210        3.183        3.008        3.291        3.059        3.184        3.168        3.172        3.022        2.494        2.525        2.621        2.589        0.488        0.000        3.000        0.000        0.000        1.000        2.000        0.000        0.000        1.000        0.000        0.000        0.000        0.000        0.000        0.000        0.000        0.000        0.000        0.000        0.000        0.000        0.000        0.000        0.000        2.000        1.000        0.000        0.000        0.000        5.000        0.000        0.000        0.000        0.000        0.000      100.000        0.000        0.000        2.135        2.110        3.149
     890.000  -281861.653    28292.043    16562.558    43449.376      113.462  -421482.680    51203.588       25.995       26.100        3.005        3.053        3.078        3.227        3.193        2.951        3.230        2.958        3.178        3.210        3.115        3.097        2.438        2.561        2.566        2.544        0.486        0.000        3.000        0.000        0.000        1.000        2.000        0.000        0.000        1.000        0.000        0.000        0.000        0.000        0.000        0.000        0.000        0.000        0.000        0.000        0.000        0.000        0.000        0.000        0.000        1.000        2.000        0.000        0.000        0.000        2.000        0.000        0.000        0.000        0.000        0.000      100.000        0.000        0.000        2.044        2.049        3.044
     900.000  -281840.675    27045.920    16759.964    43516.930       82.800  -421917.081    52670.793       25.991       26.232        3.023        3.050        3.060        3.120        3.246        2.946        3.253        2.997        3.227        3.197        3.120        3.098        2.496        2.516        2.578        2.539        0.481        0.000        3.000        0.000        0.000        1.000        2.000        0.000        0.000        1.000        0.000        0.000        0.000        0.000        0.000        0.000        0.000        0.000        0.000        0.000        0.000        0.000        0.000        0.000        0.000        2.000        5.000        0.000        0.000        0.000        4.000        0.000        0.000        0.000        0.000        0.000      100.000        0.000        0.000        2.063        2.060        3.174
     910.000  -282022.408    27169.296    16454.705    43428.504      107.427  -422602.158    53419.817       25.953       26.060        3.062        2.997        3.056        3.212        3.156        2.996        3.238        3.020        3.168        3.164        3.181        3.123        2.486        2.542        2.544        2.521        0.477        0.000        3.000        0.000        0.000        1.000        2.000        0.000        0.000        0.000        0.000        0.000        0.000        0.000        1.000        0.000        0.000        0.000        0.000        0.000        0.000        0.000        0.000        0.000        0.000        1.000        3.000        0.000        0.000        0.000        2.000        0.000        0.000        0.000        0.000        0.000      100.000        0.000        0.000        2.148        2.154        3.164
     920.000  -282176.314    28275.894    16271.616    43530.518       86.614  -422492.134    52151.177       25.949       26.120        3.066        2.979        3.070        3.187        3.089        3.001        3.305        2.992        3.204        3.142        3.193        3.064        2.536        2.549        2.568        2.500        0.480        0.000        3.000        0.000        0.000        1.000        1.000        0.000        0.000        0.000        0.000        0.000        0.000        0.000        0.000        0.000        0.000        0.000        0.000        0.000        0.000        0.000        0.000        0.000        0.000        2.000        0.000        0.000        0.000        0.000        6.000        0.000        0.000        0.000        0.000        0.000      100.000        0.000        0.000        2.002        1.989        3.257
     930.000  -282918.839    28153.190    16438.847    43370.782      114.215  -420862.889    49867.016       26.141       26.286        2.999        2.984        3.031        3.214        3.123        2.937        3.297        3.034        3.189        3.164        3.174        3.087        2.481        2.561        2.573        2.577        0.481        0.000        3.000        0.000        0.000        1.000        2.000        0.000        0.000        1.000        0.000        0.000        0.000        0.000        0.000        0.000        0.000        0.000        0.000        0.000        0.000        0.000        0.000        0.000        0.000        2.000        2.000        0.000        0.000        0.000        7.000        0.000        0.000        0.000        0.000        0.000      100.000        0.000        0.000        2.196        2.192        3.358
     940.000  -281771.614    27760.510    16671.016    43480.604       74.608  -421628.192    51869.840       26.213       26.134        3.072        2.989        3.113        3.125        3.112        3.071        3.285        2.993        3.185        3.155        3.174        3.067        2.527        2.563        2.572        2.619        0.488        0.000        3.000        0.000        0.000        1.000        2.000        0.000        0.000        0.000        0.000        0.000        0.000        0.000        1.000        0.000        0.000        0.000        0.000        0.000        0.000        0.000        0.000        0.000        0.000        1.000        1.000        0.000        0.000        0.000        4.000        0.000        0.000        0.000        4.494        0.000       95.506        0.000        0.000        2.177        2.188        3.337
     950.000  -281850.211    27151.380    16548.983    43576.145       97.764  -422330.301    53105.817       26.119       26.078        3.090        3.028        3.039        3.211        3.083        2.976        3.306        2.957        3.180        3.237        3.158        3.025        2.484        2.594        2.582        2.549        0.489        0.000        2.000        0.000        0.000        1.000        2.000        0.000        0.000        0.000        2.000        0.000        0.000        0.000        0.000        0.000        0.000        0.000        0.000        0.000        0.000        0.000        0.000        0.000        0.000        2.000        3.000        0.000        0.000        0.000        5.000        0.000        0.000        0.000        0.000        0.000      100.000        0.000        0.000        2.167        2.169        3.305
     960.000  -281338.957    26901.912    16581.703    43638.916      100.645  -421317.363    52755.230       26.221       26.092        3.045        3.022        3.047        3.200        3.143        2.983        3.226        2.959        3.169        3.172        3.184        3.101        2.465        2.582        2.570        2.581        0.469        0.000        2.000        0.000        0.000        1.000        3.000        0.000        0.000        0.000        0.000        0.000        0.000        0.000        3.000        0.000        0.000        0.000        0.000        0.000        0.000        0.000        0.000        0.000        0.000        2.000        4.000        0.000        0.000        0.000        6.000        0.000        0.000        0.000        0.000        0.000      100.000        0.000        0.000        2.076        2.080        3.139
     970.000  -281891.198    27824.528    16459.880    43435.686       95.712  -420197.393    50490.389       25.903       25.810        3.082        3.037        3.081        3.203        3.032        3.042        3.204        3.004        3.186        3.195        3.197        3.088        2.461        2.546        2.642        2.555        0.481        0.000        1.000        0.000        0.000        1.000        2.000        0.000        0.000        0.000        0.000        0.000        0.000        0.000        0.000        0.000        0.000        0.000        0.000        0.000        0.000        0.000        0.000        0.000        0.000        1.000        1.000        0.000        0.000        0.000        6.000        0.000        0.000        0.000        0.000        0.000      100.000        0.000        0.000        2.073        2.066        3.212
     980.000  -281973.364    27463.939    16021.106    43467.208       99.615  -421187.219    52161.987       26.061       26.011        3.006        3.096        3.052        3.206        3.149        2.985        3.302        3.028        3.199        3.229        3.155        3.089        2.471        2.533        2.560        2.583        0.501        0.000        3.000        0.000        0.000        1.000        2.000        0.000        0.000        1.000        1.000        0.000        0.000        0.000        2.000        0.000        0.000        0.000        0.000        0.000        0.000        0.000        0.000        0.000        0.000        4.000        4.000        0.000        0.000        0.000        5.000        0.000        0.000        0.000        0.000        0.000      100.000        0.000        0.000        2.157        2.137        3.361
     990.000  -281683.213    26943.076    16469.217    43615.890       91.863  -420947.067    52143.806       26.048       25.959        3.064        3.090        3.061        3.211        3.135        3.044        3.238        3.077        3.151        3.204        3.207        3.088        2.455        2.583        2.542        2.545        0.502        0.000        2.000        0.000        0.000        1.000        2.000        0.000        0.000        1.000        1.000        0.000        0.000        0.000        0.000        0.000        0.000        0.000        0.000        0.000        0.000        0.000        0.000        0.000        0.000        4.000        2.000        0.000        0.000        0.000        7.000        0.000        0.000        0.000        0.000        0.000      100.000        0.000        0.000        2.374        2.364        3.626
    1000.000  -282238.755    27383.480    16328.766    43463.296       94.990  -422275.287    52766.000       26.278       26.039        3.036        3.010        3.062        3.183        3.209        3.013        3.201        3.019        3.201        3.237        3.128        3.067        2.453        2.547        2.603        2.566        0.489        0.000        3.000        0.000        0.000        1.000        2.000        0.000        0.000        0.000        0.000        0.000        0.000        0.000        0.000        0.000        0.000        0.000        0.000        0.000        0.000        0.000        0.000        0.000        0.000        1.000        1.000        0.000        0.000        0.000        4.000        0.000        0.000        0.000        4.494        0.000       95.506        0.000        0.000        2.238        2.233        3.515
     Average  -284313.839    28300.469    16609.413    43479.821       86.281  -425512.237    52722.415       26.026       26.089        3.031        3.034        3.081        3.212        3.201        3.007        3.235        3.026        3.190        3.182        3.126        3.134        2.484        2.570        2.585        2.581        0.490        0.109        2.653        0.000        0.000        0.683        2.960        0.000        0.000        0.614        0.564        0.000        0.000        0.000        0.772        0.000        0.000        0.000        0.000        0.000        0.000        0.000        0.000        0.000        0.000        1.337        2.861        0.000        0.010        0.109        4.970        0.000        0.000        0.000        0.400        0.000       99.600        0.000        0.000        1.985        1.997        2.729

