____Time[ps] Energy[ kJ/mol ]_____Bond _______Angle ____Dihedral ___Planarity _____Coulomb _________VdW _Your result _Your result _Your result _Your result _Your result _Your result _Your result _Your result _Your result _Your result _Your result _Your result _Your result _Your result _Your result _Your result _Your result _Your result _Your result _Your result _Your result _Your result _Your result _Your result _Your result _Your result _Your result _Your result _Your result _Your result _Your result _Your result _Your result _Your result _Your result _Your result _Your result _Your result _Your result _Your result _Your result _Your result _Your result _Your result _Your result _Your result _Your result _Your result _Your result _Your result _Your result _Your result _Your result _Your result _Your result _Your result _Your result _RMSDs[A]:CA ____Backbone __HeavyAtoms
       0.000  -332694.337    11864.231     4544.747    37516.026       14.096  -451600.520    64967.082       25.447       25.413        2.848        2.971        3.191        3.169        3.233        3.005        2.715        2.976        3.254        3.221        3.110        2.647        3.039        2.960        3.097        3.027        0.488        0.000        0.000        2.000        0.000        0.000        1.000        0.000        0.000        1.000        0.000        0.000        0.000        0.000        1.000        1.000        1.000        0.000        0.000        0.000        0.000        0.000        0.000        0.000        0.000        2.000        0.000        2.000        0.000        0.000        4.000        1.000        1.000        0.000        0.000        0.000      100.000        0.000        0.000        0.569        0.594        0.684
      10.000  -249345.900    29279.987    15151.789    37332.920       99.994  -377621.199    46410.608       26.141       26.104        2.836        2.998        3.251        3.265        3.246        2.939        2.684        3.001        3.275        3.174        3.195        2.624        3.086        3.003        3.173        3.009        0.501        1.000        0.000        2.000        0.000        0.000        2.000        0.000        0.000        0.000        0.000        0.000        0.000        0.000        1.000        0.000        2.000        0.000        0.000        0.000        0.000        0.000        0.000        0.000        0.000        1.000        0.000        0.000        0.000        1.000        0.000        0.000        4.000        0.000        0.000        0.000      100.000        0.000        0.000        1.363        1.381        1.548
      20.000  -248327.004    28595.612    15371.868    37433.940      116.717  -376364.350    46519.208       26.048       25.996        2.826        2.957        3.230        3.210        3.225        2.995        2.663        3.030        3.278        3.188        3.156        2.506        3.042        2.982        3.282        3.027        0.491        1.000        0.000        2.000        0.000        0.000        2.000        0.000        0.000        0.000        0.000        0.000        0.000        0.000        1.000        0.000        1.000        0.000        0.000        0.000        0.000        0.000        0.000        0.000        0.000        1.000        0.000        0.000        0.000        1.000        2.000        0.000        2.000        0.000        0.000        0.000      100.000        0.000        0.000        1.462        1.473        1.651
      30.000  -247809.349    27381.308    15616.689    37460.447      100.034  -375138.094    46770.268       25.952       25.898        2.797        2.985        3.206        3.226        3.236        3.061        2.647        3.034        3.207        3.207        3.160        2.469        3.053        2.991        3.224        3.062        0.465        1.000        0.000        2.000        0.000        0.000        2.000        0.000        0.000        0.000        0.000        0.000        0.000        0.000        0.000        0.000        1.000        0.000        0.000        0.000        0.000        0.000        0.000        0.000        0.000        1.000        0.000        1.000        0.000        0.000        1.000        1.000        2.000        0.000        0.000        0.000      100.000        0.000        0.000        1.480        1.511        1.769
      40.000  -246910.716    27491.898    15325.083    37700.865      104.328  -374008.801    46475.912       25.970       26.001        2.912        3.014        3.158        3.144        3.257        3.062        2.657        2.983        3.244        3.198        3.165        2.491        3.140        3.038        3.268        3.013        0.504        0.000        0.000        1.000        0.000        1.000        1.000        0.000        0.000        0.000        0.000        0.000        0.000        0.000        0.000        0.000        0.000        0.000        0.000        0.000        0.000        0.000        0.000        0.000        0.000        0.000        0.000        1.000        0.000        1.000        0.000        0.000        1.000        0.000        0.000        0.000      100.000        0.000        0.000        1.624        1.636        1.918
      50.000  -248232.875    27940.547    15627.166    37353.286       95.218  -375158.486    45909.394       26.226       26.061        2.848        3.024        3.147        3.207        3.260        2.982        2.664        3.002        3.266        3.210        3.179        2.560        3.104        3.027        3.237        3.040        0.499        0.000        0.000        1.000        0.000        1.000        2.000        0.000        0.000        0.000        0.000        0.000        0.000        0.000        0.000        1.000        3.000        0.000        0.000        0.000        0.000        0.000        0.000        0.000        0.000        1.000        0.000        1.000        0.000        1.000        2.000        0.000        2.000        0.000        0.000        0.000      100.000        0.000        0.000        1.347        1.357        1.635
      60.000  -246928.430    26055.768    15493.986    37728.509      128.663  -374179.480    47844.124       26.131       25.991        2.876        3.039        3.081        3.229        3.195        2.941        2.666        2.954        3.218        3.240        3.173        2.515        3.094        2.968        3.195        3.018        0.463        0.000        0.000        1.000        0.000        1.000        2.000        0.000        0.000        0.000        0.000        0.000        0.000        0.000        0.000        0.000        3.000        0.000        0.000        0.000        0.000        0.000        0.000        0.000        0.000        0.000        0.000        2.000        0.000        2.000        0.000        1.000        3.000        0.000        0.000        0.000      100.000        0.000        0.000        1.324        1.332        1.585
      70.000  -247251.258    26902.481    15124.972    37487.587      114.627  -372915.716    46034.791       26.402       26.164        2.810        3.030        3.165        3.203        3.264        2.974        2.656        3.012        3.270        3.209        3.202        2.531        3.112        3.043        3.271        3.024        0.459        0.000        0.000        2.000        0.000        1.000        2.000        0.000        0.000        2.000        0.000        0.000        0.000        0.000        0.000        0.000        3.000        0.000        0.000        0.000        0.000        0.000        0.000        0.000        0.000        0.000        0.000        1.000        0.000        2.000        2.000        0.000        3.000        0.000        4.494        0.000       95.506        0.000        0.000        1.654        1.674        1.891
      80.000  -246602.100    27326.412    15699.697    37351.334       97.910  -372858.763    45781.310       26.147       26.308        2.929        2.989        3.159        3.185        3.258        2.938        2.677        2.979        3.219        3.253        3.144        2.431        3.158        3.016        3.211        3.034        0.494        0.000        0.000        1.000        0.000        1.000        1.000        0.000        0.000        0.000        0.000        0.000        0.000        0.000        0.000        0.000        1.000        0.000        0.000        0.000        0.000        0.000        0.000        0.000        0.000        1.000        0.000        0.000        0.000        1.000        1.000        0.000        5.000        0.000        4.494        0.000       95.506        0.000        0.000        1.630        1.637        1.884
      90.000  -246438.921    25535.142    15666.507    37470.093       84.247  -373009.941    47815.031       26.082       26.206        2.951        3.081        3.120        3.193        3.222        3.045        2.709        3.001        3.278        3.199        3.125        2.458        3.097        2.981        3.193        3.028        0.500        0.000        0.000        1.000        0.000        1.000        2.000        0.000        0.000        0.000        0.000        0.000        0.000        0.000        0.000        1.000        3.000        0.000        0.000        0.000        0.000        0.000        0.000        0.000        0.000        0.000        0.000        1.000        0.000        2.000        3.000        2.000        1.000        0.000        0.000        0.000      100.000        0.000        0.000        1.626        1.643        1.894
     100.000  -246490.504    27031.844    15301.183    37511.506      123.143  -371761.027    45302.847       26.064       26.079        2.928        3.069        3.189        3.185        3.218        3.083        2.672        3.029        3.253        3.218        3.132        2.471        3.030        3.034        3.307        2.967        0.491        0.000        0.000        1.000        0.000        1.000        1.000        0.000        0.000        0.000        0.000        0.000        0.000        0.000        0.000        1.000        2.000        0.000        0.000        0.000        0.000        0.000        0.000        0.000        0.000        0.000        0.000        1.000        0.000        2.000        3.000        0.000        3.000        0.000        0.000        0.000      100.000        0.000        0.000        1.551        1.587        1.889
     110.000  -246199.528    25996.440    15399.857    37505.473      128.893  -371736.285    46506.094       26.244       26.283        2.926        3.081        3.143        3.147        3.242        2.970        2.669        3.084        3.267        3.236        3.139        2.500        3.071        3.006        3.298        3.034        0.493        0.000        0.000        1.000        0.000        1.000        1.000        0.000        0.000        0.000        0.000        0.000        0.000        0.000        0.000        0.000        1.000        0.000        0.000        0.000        0.000        0.000        0.000        0.000        0.000        0.000        0.000        1.000        0.000        1.000        1.000        0.000        3.000        0.000        0.000        0.000      100.000        0.000        0.000        1.664        1.710        2.010
     120.000  -246389.647    25381.180    15637.526    37625.157      127.368  -372055.580    46894.703       26.228       26.312        2.901        3.047        3.169        3.193        3.217        3.012        2.655        2.969        3.300        3.156        3.169        2.514        3.032        3.012        3.228        3.065        0.473        0.000        0.000        1.000        0.000        1.000        1.000        0.000        0.000        0.000        0.000        0.000        0.000        0.000        0.000        0.000        2.000        0.000        0.000        0.000        0.000        0.000        0.000        0.000        0.000        0.000        0.000        0.000        0.000        0.000        0.000        0.000        1.000        0.000        0.000        0.000      100.000        0.000        0.000        1.775        1.831        2.078
     130.000  -245112.121    26502.068    15590.307    37580.253      108.078  -370671.916    45779.090       26.144       26.008        2.886        3.053        3.176        3.161        3.245        3.035        2.650        2.871        3.249        3.179        3.113        2.505        3.047        3.056        3.241        3.036        0.490        0.000        0.000        1.000        0.000        1.000        2.000        0.000        0.000        0.000        0.000        0.000        0.000        0.000        0.000        0.000        1.000        0.000        0.000        0.000        0.000        0.000        0.000        0.000        0.000        1.000        0.000        1.000        0.000        1.000        1.000        0.000        0.000        0.000        0.000        0.000      100.000        0.000        0.000        1.472        1.521        1.906
     140.000  -245249.388    25465.961    15399.640    37623.028      115.693  -369201.469    45347.759       26.060       25.959        2.861        3.052        3.166        3.214        3.213        2.900        2.610        3.020        3.268        3.201        3.114        2.439        3.035        2.993        3.254        2.960        0.471        0.000        0.000        1.000        0.000        1.000        1.000        0.000        0.000        0.000        0.000        0.000        0.000        0.000        0.000        0.000        0.000        0.000        0.000        0.000        0.000        0.000        0.000        0.000        0.000        0.000        0.000        0.000        0.000        1.000        0.000        1.000        0.000        0.000        0.000        0.000      100.000        0.000        0.000        1.528        1.540        1.966
     150.000  -245663.137    26702.240    15199.432    37710.330      123.398  -370443.493    45044.955       26.027       26.081        2.912        2.978        3.181        3.145        3.224        2.981        2.680        3.063        3.186        3.196        3.127        2.527        3.078        2.965        3.227        3.026        0.465        0.000        0.000        1.000        0.000        1.000        2.000        0.000        0.000        0.000        0.000        0.000        0.000        0.000        0.000        0.000        0.000        0.000        0.000        0.000        0.000        0.000        0.000        0.000        0.000        2.000        0.000        0.000        0.000        2.000        1.000        1.000        1.000        0.000        0.000        0.000      100.000        0.000        0.000        1.824        1.856        2.188
     160.000  -245037.734    25317.031    15245.577    37681.289      106.723  -369774.937    46386.584       26.141       26.029        3.004        3.068        3.140        3.168        3.195        3.000        2.640        2.995        3.204        3.211        3.134        2.493        3.024        2.955        3.192        2.998        0.501        0.000        0.000        1.000        0.000        1.000        2.000        0.000        0.000        0.000        0.000        0.000        0.000        0.000        0.000        0.000        0.000        0.000        0.000        0.000        0.000        0.000        0.000        0.000        0.000        3.000        0.000        2.000        0.000        1.000        1.000        1.000        0.000        0.000        4.494        0.000       95.506        0.000        0.000        1.889        1.932        2.122
     170.000  -246223.835    25933.474    14840.424    37589.861      125.511  -370912.155    46199.050       26.073       26.107        2.976        3.028        3.157        3.092        3.223        3.090        2.664        2.991        3.219        3.180        3.115        2.528        3.071        2.961        3.267        3.035        0.468        0.000        0.000        1.000        0.000        1.000        2.000        0.000        0.000        0.000        0.000        0.000        0.000        0.000        0.000        0.000        2.000        0.000        0.000        0.000        0.000        0.000        0.000        0.000        0.000        2.000        0.000        1.000        0.000        1.000        2.000        0.000        4.000        0.000        4.494        0.000       95.506        0.000        0.000        1.690        1.732        2.091
     180.000  -244317.251    25475.647    15278.236    37781.125      105.280  -368902.162    45944.623       25.758       25.799        2.990        3.080        3.167        3.183        3.267        2.928        2.628        2.961        3.186        3.220        3.121        2.525        3.082        2.999        3.247        3.010        0.458        1.000        0.000        1.000        0.000        1.000        2.000        0.000        0.000        0.000        0.000        0.000        0.000        0.000        0.000        1.000        0.000        0.000        0.000        0.000        0.000        0.000        0.000        0.000        0.000        0.000        0.000        1.000        0.000        0.000        2.000        0.000        0.000        0.000        4.494        0.000       95.506        0.000        0.000        1.491        1.513        2.032
     190.000  -244913.167    24593.478    15013.431    37861.105      132.199  -369713.463    47200.084       26.112       25.936        2.983        3.016        3.139        3.198        3.235        2.956        2.673        2.988        3.144        3.202        3.107        2.512        3.068        3.008        3.254        3.056        0.504        0.000        0.000        1.000        0.000        1.000        1.000        0.000        0.000        0.000        0.000        0.000        0.000        0.000        0.000        1.000        2.000        0.000        0.000        0.000        0.000        0.000        0.000        0.000        0.000        1.000        0.000        0.000        0.000        2.000        2.000        0.000        2.000        0.000        0.000        0.000      100.000        0.000        0.000        1.648        1.669        2.207
     200.000  -244738.662    25536.939    14969.518    37673.865       92.846  -367639.266    44627.435       26.027       25.806        2.964        3.043        3.138        3.154        3.214        2.986        2.704        2.958        3.153        3.188        3.118        2.521        3.041        2.951        3.252        3.041        0.504        0.000        0.000        2.000        0.000        1.000        1.000        0.000        0.000        0.000        0.000        0.000        0.000        0.000        0.000        0.000        3.000        0.000        0.000        0.000        0.000        0.000        0.000        0.000        0.000        2.000        0.000        0.000        0.000        0.000        1.000        2.000        2.000        0.000        0.000        0.000      100.000        0.000        0.000        1.628        1.625        2.173
     210.000  -244363.472    25408.454    15263.152    37567.467      113.963  -368545.860    45829.352       25.992       25.874        3.004        2.986        3.191        3.201        3.276        2.949        2.658        3.015        3.161        3.187        3.143        2.486        3.063        2.919        3.287        3.080        0.476        0.000        0.000        2.000        0.000        1.000        1.000        0.000        0.000        0.000        0.000        0.000        0.000        0.000        0.000        0.000        1.000        0.000        0.000        0.000        0.000        0.000        0.000        0.000        0.000        3.000        0.000        3.000        0.000        0.000        0.000        0.000        2.000        0.000        0.000        0.000      100.000        0.000        0.000        1.359        1.367        1.839
     220.000  -244496.304    25199.808    15009.858    37515.432      138.337  -367723.973    45364.234       25.883       25.717        3.008        3.030        3.219        3.172        3.231        3.046        2.646        3.011        3.154        3.196        3.140        2.498        3.161        2.981        3.250        3.089        0.491        0.000        0.000        2.000        0.000        1.000        1.000        0.000        0.000        0.000        0.000        0.000        0.000        0.000        0.000        0.000        0.000        0.000        0.000        0.000        0.000        0.000        0.000        0.000        0.000        2.000        0.000        2.000        0.000        2.000        4.000        0.000        2.000        0.000        0.000        0.000      100.000        0.000        0.000        1.460        1.450        1.917
     230.000  -244420.760    24044.657    15127.210    37662.233      120.034  -366946.908    45572.015       25.846       25.979        2.936        2.935        3.200        3.176        3.247        3.020        2.655        3.016        3.155        3.194        3.090        2.546        3.091        2.933        3.286        3.020        0.498        0.000        0.000        2.000        0.000        1.000        2.000        0.000        0.000        0.000        0.000        0.000        0.000        0.000        0.000        0.000        1.000        0.000        0.000        0.000        0.000        0.000        0.000        0.000        0.000        1.000        0.000        1.000        0.000        1.000        3.000        1.000        1.000        0.000        0.000        0.000      100.000        0.000        0.000        1.713        1.733        2.141
     240.000  -243994.148    25893.719    14831.021    37574.551      101.799  -366583.377    44188.138       26.011       25.972        2.937        2.971        3.162        3.224        3.226        3.062        2.673        2.983        3.197        3.244        3.160        2.482        3.140        2.983        3.254        3.029        0.475        0.000        0.000        1.000        0.000        1.000        1.000        0.000        0.000        0.000        0.000        0.000        0.000        0.000        0.000        0.000        1.000        0.000        0.000        0.000        0.000        0.000        0.000        0.000        0.000        2.000        0.000        1.000        0.000        2.000        1.000        0.000        3.000        0.000        0.000        0.000      100.000        0.000        0.000        1.770        1.787        2.235
     250.000  -243766.638    24203.540    14728.726    37654.894      134.365  -366246.508    45758.345       26.192       26.115        2.887        2.825        3.167        3.175        3.210        2.926        2.661        3.069        3.177        3.227        3.198        2.551        3.121        2.972        3.247        3.072        0.489        0.000        0.000        2.000        0.000        1.000        1.000        0.000        0.000        0.000        0.000        0.000        0.000        0.000        0.000        0.000        1.000        0.000        0.000        0.000        0.000        0.000        0.000        0.000        0.000        0.000        0.000        1.000        0.000        1.000        2.000        0.000        3.000        0.000        0.000        0.000      100.000        0.000        0.000        1.899        1.922        2.241
     260.000  -244035.719    24787.002    14744.456    37602.936      110.605  -366204.089    44923.370       25.975       25.975        2.956        2.894        3.169        3.165        3.201        3.004        2.692        3.066        3.152        3.186        3.220        2.517        3.113        2.968        3.261        3.099        0.504        0.000        0.000        1.000        0.000        1.000        2.000        0.000        0.000        0.000        0.000        0.000        0.000        0.000        0.000        0.000        1.000        0.000        0.000        0.000        0.000        0.000        0.000        0.000        0.000        2.000        0.000        2.000        0.000        0.000        2.000        0.000        2.000        0.000        0.000        0.000      100.000        0.000        0.000        1.697        1.713        2.065
     270.000  -244215.433    25164.993    14952.181    37739.664      100.864  -366858.932    44685.795       25.982       25.945        2.891        2.977        3.143        3.181        3.216        3.017        2.707        3.083        3.185        3.209        3.119        2.519        3.071        3.074        3.234        3.014        0.493        0.000        0.000        1.000        0.000        1.000        2.000        0.000        0.000        0.000        0.000        0.000        0.000        0.000        1.000        0.000        0.000        0.000        0.000        0.000        0.000        0.000        0.000        0.000        0.000        0.000        0.000        1.000        0.000        2.000        4.000        0.000        1.000        0.000        0.000        0.000      100.000        0.000        0.000        1.520        1.535        1.936
     280.000  -243873.011    23998.116    14905.633    37709.426      141.793  -366731.732    46103.753       25.970       25.993        2.837        3.034        3.138        3.231        3.226        3.015        2.693        3.043        3.187        3.207        3.098        2.512        3.088        2.951        3.227        3.052        0.491        0.000        0.000        1.000        0.000        1.000        2.000        0.000        0.000        0.000        0.000        0.000        0.000        0.000        1.000        0.000        2.000        0.000        0.000        0.000        0.000        0.000        0.000        0.000        0.000        0.000        0.000        3.000        0.000        2.000        4.000        1.000        3.000        0.000        0.000        0.000      100.000        0.000        0.000        1.397        1.414        1.777
     290.000  -243347.486    25634.868    14955.129    37719.446      129.677  -365419.750    43633.144       25.983       25.817        3.046        3.055        3.195        3.155        3.226        3.012        2.676        2.918        3.211        3.171        3.177        2.425        3.118        2.969        3.255        3.014        0.482        0.000        0.000        1.000        0.000        1.000        1.000        0.000        0.000        0.000        0.000        0.000        0.000        0.000        0.000        0.000        1.000        0.000        0.000        0.000        0.000        0.000        0.000        0.000        0.000        0.000        0.000        1.000        0.000        0.000        4.000        1.000        2.000        0.000        0.000        0.000      100.000        0.000        0.000        1.744        1.774        1.997
     300.000  -243630.507    24464.226    14764.169    37684.758      120.516  -365195.876    44531.700       26.032       25.609        2.955        2.974        3.141        3.205        3.213        3.046        2.669        2.947        3.159        3.215        3.022        2.512        3.133        2.973        3.243        3.058        0.493        0.000        0.000        1.000        0.000        1.000        2.000        0.000        0.000        0.000        0.000        0.000        0.000        0.000        2.000        0.000        0.000        0.000        0.000        0.000        0.000        0.000        0.000        0.000        0.000        1.000        0.000        1.000        0.000        0.000        3.000        0.000        1.000        0.000        0.000        0.000      100.000        0.000        0.000        2.021        2.064        2.237
     310.000  -244042.068    24414.790    15053.241    37715.499      111.013  -365839.878    44503.267       25.805       25.304        2.974        2.990        3.164        3.129        3.243        3.115        2.648        3.019        3.164        3.153        3.018        2.447        3.088        2.945        3.231        3.056        0.485        0.000        0.000        2.000        0.000        1.000        2.000        0.000        0.000        0.000        0.000        0.000        0.000        0.000        1.000        0.000        0.000        0.000        0.000        0.000        0.000        0.000        0.000        0.000        0.000        0.000        0.000        0.000        0.000        1.000        2.000        1.000        6.000        0.000        0.000        0.000      100.000        0.000        0.000        1.753        1.791        2.047
     320.000  -243803.566    24610.778    14644.003    37697.551      107.165  -365522.713    44659.650       26.157       25.648        3.080        2.965        3.188        3.198        3.201        3.074        2.673        3.002        3.171        3.207        3.145        2.454        3.067        2.987        3.234        3.071        0.490        0.000        0.000        1.000        0.000        1.000        1.000        0.000        0.000        0.000        0.000        0.000        0.000        0.000        0.000        0.000        0.000        0.000        0.000        0.000        0.000        0.000        0.000        0.000        0.000        1.000        0.000        2.000        0.000        2.000        5.000        1.000        2.000        0.000        0.000        0.000      100.000        0.000        0.000        1.498        1.536        1.951
     330.000  -243471.019    24903.558    14944.463    37551.017      111.500  -363880.872    42899.316       26.117       25.867        3.020        3.051        3.139        3.179        3.226        2.944        2.673        3.016        3.134        3.150        3.085        2.507        3.127        2.935        3.234        3.001        0.471        0.000        0.000        1.000        0.000        1.000        2.000        0.000        0.000        0.000        0.000        0.000        0.000        0.000        1.000        0.000        0.000        0.000        0.000        0.000        0.000        0.000        0.000        0.000        0.000        0.000        0.000        3.000        0.000        2.000        1.000        0.000        1.000        0.000        0.000        0.000      100.000        0.000        0.000        1.462        1.514        1.836
     340.000  -243717.740    25036.246    14713.971    37518.571      148.330  -365516.966    44382.108       26.315       25.851        3.071        3.015        3.130        3.134        3.245        3.061        2.688        3.083        3.183        3.155        3.103        2.425        3.133        3.013        3.232        3.056        0.492        0.000        0.000        0.000        0.000        1.000        2.000        0.000        0.000        0.000        0.000        0.000        0.000        0.000        1.000        0.000        0.000        0.000        0.000        0.000        0.000        0.000        0.000        0.000        0.000        1.000        0.000        1.000        0.000        0.000        1.000        0.000        4.000        0.000        0.000        0.000      100.000        0.000        0.000        1.693        1.710        2.046
     350.000  -243766.331    25265.386    14437.005    37449.780      131.526  -364995.552    43945.523       26.256       25.911        3.076        3.033        3.182        3.162        3.252        3.028        2.656        3.009        3.185        3.189        3.057        2.513        3.106        2.953        3.256        3.000        0.484        0.000        0.000        1.000        0.000        1.000        1.000        0.000        0.000        1.000        0.000        0.000        0.000        0.000        0.000        0.000        2.000        0.000        0.000        0.000        0.000        0.000        0.000        0.000        0.000        0.000        0.000        1.000        0.000        1.000        3.000        0.000        5.000        0.000        0.000        0.000      100.000        0.000        0.000        1.921        1.935        2.175
     360.000  -243488.394    23525.603    14955.489    37738.172      136.904  -366468.793    46624.232       26.068       25.875        3.088        3.092        3.174        3.207        3.270        2.985        2.643        3.039        3.160        3.166        3.153        2.432        3.120        3.023        3.292        3.030        0.479        0.000        0.000        1.000        0.000        1.000        2.000        0.000        0.000        0.000        0.000        0.000        0.000        0.000        0.000        0.000        2.000        0.000        0.000        0.000        0.000        0.000        0.000        0.000        0.000        2.000        0.000        1.000        0.000        0.000        4.000        1.000        1.000        0.000        0.000        0.000      100.000        0.000        0.000        2.210        2.226        2.542
     370.000  -243186.013    24286.147    14939.089    37718.101      138.610  -365703.740    45435.780       26.424       26.018        3.000        2.997        3.108        3.226        3.244        3.028        2.662        2.995        3.183        3.160        3.101        2.501        3.072        2.969        3.257        3.025        0.486        0.000        0.000        1.000        0.000        1.000        2.000        0.000        0.000        0.000        0.000        0.000        0.000        0.000        0.000        1.000        0.000        0.000        0.000        0.000        0.000        0.000        0.000        0.000        0.000        1.000        0.000        2.000        0.000        2.000        4.000        0.000        3.000        0.000        0.000        0.000      100.000        0.000        0.000        2.067        2.077        2.414
     380.000  -243278.928    24418.226    14985.355    37697.148      126.467  -364847.568    44341.444       25.966       25.830        3.183        3.046        3.127        3.182        3.245        2.984        2.672        3.004        3.111        3.195        3.179        2.485        3.100        3.052        3.261        3.020        0.492        0.000        0.000        1.000        0.000        1.000        2.000        0.000        0.000        0.000        0.000        0.000        0.000        0.000        0.000        0.000        1.000        0.000        0.000        0.000        0.000        0.000        0.000        0.000        0.000        0.000        0.000        1.000        0.000        2.000        5.000        0.000        7.000        0.000        0.000        0.000      100.000        0.000        0.000        2.083        2.118        2.406
     390.000  -243609.559    23958.269    15162.211    37684.507      130.986  -366640.687    46095.155       26.164       26.162        3.144        3.011        3.133        3.209        3.218        2.969        2.667        3.156        3.129        3.210        3.181        2.529        3.037        2.995        3.270        3.011        0.489        0.000        0.000        1.000        0.000        1.000        2.000        0.000        0.000        0.000        0.000        0.000        0.000        0.000        0.000        0.000        2.000        0.000        0.000        0.000        0.000        0.000        0.000        0.000        0.000        0.000        0.000        1.000        0.000        2.000        3.000        0.000        0.000        0.000        0.000        0.000      100.000        0.000        0.000        2.112        2.154        2.274
     400.000  -243252.178    24812.676    14928.200    37656.096      129.668  -364706.189    43927.369       26.085       26.115        3.173        3.046        3.105        3.229        3.264        2.953        2.658        3.018        3.193        3.240        3.167        2.537        3.072        3.020        3.235        3.050        0.502        0.000        0.000        1.000        0.000        1.000        2.000        0.000        0.000        0.000        0.000        0.000        0.000        0.000        1.000        0.000        1.000        0.000        0.000        0.000        0.000        0.000        0.000        0.000        0.000        2.000        0.000        2.000        0.000        2.000        2.000        0.000        2.000        0.000        0.000        0.000      100.000        0.000        0.000        1.686        1.727        2.042
     410.000  -243415.553    25359.872    14705.353    37489.227      111.377  -365244.033    44162.652       26.217       26.271        3.207        2.987        3.163        3.217        3.222        2.944        2.672        3.057        3.149        3.180        3.136        2.502        3.060        3.041        3.246        3.053        0.479        0.000        0.000        1.000        0.000        1.000        1.000        0.000        0.000        0.000        0.000        0.000        0.000        0.000        0.000        0.000        1.000        0.000        0.000        0.000        0.000        0.000        0.000        0.000        0.000        0.000        0.000        1.000        0.000        0.000        1.000        0.000        2.000        0.000        0.000        0.000      100.000        0.000        0.000        1.758        1.765        2.260
     420.000  -243442.148    25138.921    14648.131    37688.030      129.522  -364785.977    43739.226       26.774       26.483        3.201        2.982        3.175        3.198        3.243        2.968        2.653        3.012        3.142        3.184        3.115        2.498        3.073        3.037        3.265        3.069        0.483        0.000        0.000        1.000        0.000        1.000        1.000        0.000        0.000        1.000        0.000        0.000        0.000        0.000        0.000        0.000        0.000        0.000        0.000        0.000        0.000        0.000        0.000        0.000        0.000        0.000        0.000        2.000        0.000        1.000        1.000        2.000        2.000        0.000        0.000        0.000      100.000        0.000        0.000        1.995        1.983        2.312
     430.000  -242611.574    24958.329    14673.178    37547.508      124.045  -363310.084    43395.451       26.154       26.469        3.228        2.954        3.195        3.170        3.258        2.917        2.631        3.033        3.144        3.181        3.052        2.510        3.109        2.995        3.292        3.073        0.501        0.000        0.000        1.000        0.000        1.000        2.000        0.000        0.000        0.000        0.000        0.000        0.000        0.000        0.000        0.000        0.000        0.000        0.000        0.000        0.000        0.000        0.000        0.000        0.000        0.000        0.000        2.000        0.000        2.000        2.000        1.000        2.000        0.000        0.000        0.000      100.000        0.000        0.000        2.195        2.188        2.431
     440.000  -243582.900    24817.413    14873.755    37726.213      127.110  -365369.838    44242.447       26.121       26.233        3.265        3.030        3.215        3.152        3.232        2.938        2.630        3.034        3.198        3.150        3.138        2.540        3.059        2.963        3.216        3.069        0.491        0.000        0.000        1.000        0.000        1.000        1.000        0.000        0.000        0.000        0.000        0.000        0.000        0.000        0.000        0.000        0.000        0.000        0.000        0.000        0.000        0.000        0.000        0.000        0.000        0.000        0.000        1.000        0.000        2.000        1.000        0.000        2.000        0.000        0.000        0.000      100.000        0.000        0.000        1.990        1.997        2.467
     450.000  -242940.779    24105.181    14935.060    37643.330      105.139  -364325.190    44595.702       26.191       26.063        3.199        3.044        3.164        3.205        3.207        2.935        2.636        3.024        3.169        3.152        3.058        2.512        3.085        2.995        3.279        3.041        0.514        0.000        0.000        1.000        0.000        1.000        1.000        0.000        0.000        0.000        0.000        0.000        0.000        0.000        1.000        0.000        2.000        0.000        0.000        0.000        0.000        0.000        0.000        0.000        0.000        1.000        0.000        1.000        0.000        2.000        6.000        1.000        6.000        0.000        0.000        0.000      100.000        0.000        0.000        2.108        2.089        2.593
     460.000  -243427.069    24091.222    14843.728    37704.456      131.254  -365215.647    45017.918       26.224       26.184        3.171        2.968        3.165        3.234        3.240        2.874        2.640        2.989        3.172        3.184        3.100        2.458        3.042        2.968        3.240        3.045        0.484        0.000        0.000        1.000        0.000        1.000        2.000        0.000        0.000        0.000        0.000        0.000        0.000        0.000        1.000        0.000        0.000        0.000        0.000        0.000        0.000        0.000        0.000        0.000        0.000        0.000        0.000        1.000        0.000        2.000        2.000        0.000        3.000        0.000        0.000        0.000      100.000        0.000        0.000        1.919        1.903        2.586
     470.000  -242875.602    24657.089    14907.439    37654.848      100.463  -365062.304    44866.863       26.047       26.158        3.206        2.967        3.206        3.141        3.262        2.937        2.608        2.953        3.180        3.198        3.117        2.485        3.072        2.944        3.218        2.988        0.480        0.000        0.000        1.000        0.000        1.000        1.000        0.000        0.000        0.000        0.000        0.000        0.000        0.000        1.000        1.000        1.000        0.000        0.000        0.000        0.000        0.000        0.000        0.000        0.000        0.000        0.000        1.000        0.000        1.000        0.000        0.000        2.000        0.000        0.000        0.000      100.000        0.000        0.000        1.801        1.814        2.341
     480.000  -243213.566    25402.176    15182.216    37462.976      112.422  -364495.368    43122.012       26.339       26.348        3.087        2.952        3.129        3.216        3.239        3.074        2.637        2.987        3.197        3.212        3.138        2.527        3.024        2.993        3.247        2.988        0.480        0.000        0.000        1.000        0.000        1.000        2.000        0.000        0.000        2.000        0.000        0.000        0.000        0.000        0.000        0.000        1.000        0.000        0.000        0.000        0.000        0.000        0.000        0.000        0.000        0.000        0.000        1.000        0.000        1.000        0.000        0.000        2.000        0.000        0.000        0.000      100.000        0.000        0.000        1.993        2.016        2.590
     490.000  -243666.836    24417.361    14577.702    37543.182      120.410  -364555.277    44229.786       26.288       26.281        3.166        2.914        3.194        3.263        3.200        3.020        2.638        3.096        3.174        3.134        3.130        2.515        3.085        2.986        3.251        3.020        0.488        0.000        0.000        1.000        0.000        1.000        1.000        0.000        0.000        1.000        0.000        0.000        0.000        0.000        1.000        0.000        1.000        0.000        0.000        0.000        0.000        0.000        0.000        0.000        0.000        0.000        0.000        2.000        0.000        0.000        3.000        1.000        1.000        0.000        0.000        0.000      100.000        0.000        0.000        1.950        1.940        2.512
     500.000  -242807.084    24410.727    14823.431    37534.113      111.684  -362676.087    42989.048       26.356       26.117        3.130        2.934        3.182        3.182        3.231        2.980        2.631        3.035        3.148        3.210        3.070        2.502        3.088        3.003        3.258        3.033        0.499        0.000        0.000        1.000        0.000        1.000        0.000        0.000        0.000        0.000        0.000        0.000        0.000        0.000        2.000        0.000        2.000        0.000        0.000        0.000        0.000        0.000        0.000        0.000        0.000        0.000        0.000        2.000        0.000        1.000        1.000        0.000        1.000        0.000        0.000        0.000      100.000        0.000        0.000        2.172        2.149        2.623
     510.000  -242871.787    23192.000    14957.662    37814.116      131.873  -364810.110    45842.672       26.096       25.619        3.045        2.966        3.225        3.120        3.259        3.036        2.640        3.000        3.128        3.213        3.003        2.498        3.122        2.980        3.236        3.022        0.480        0.000        0.000        0.000        0.000        1.000        1.000        0.000        0.000        1.000        0.000        0.000        0.000        0.000        0.000        0.000        0.000        0.000        0.000        0.000        0.000        0.000        0.000        0.000        0.000        0.000        0.000        0.000        0.000        1.000        2.000        0.000        0.000        0.000        0.000        0.000      100.000        0.000        0.000        2.149        2.134        2.739
     520.000  -242979.343    24862.414    14884.348    37700.034      123.923  -363674.874    43124.811       26.351       25.982        3.104        2.881        3.188        3.154        3.120        2.922        2.653        3.104        3.211        3.180        3.112        2.529        3.115        2.998        3.250        2.906        0.473        0.000        0.000        1.000        0.000        1.000        1.000        0.000        0.000        1.000        0.000        0.000        0.000        0.000        3.000        0.000        1.000        0.000        0.000        0.000        0.000        0.000        0.000        0.000        0.000        0.000        0.000        1.000        0.000        0.000        3.000        0.000        4.000        0.000        0.000        0.000      100.000        0.000        0.000        2.258        2.264        2.843
     530.000  -242079.991    25278.124    14795.057    37566.134      123.580  -362876.612    43033.726       25.985       25.629        3.067        2.913        3.178        3.152        3.188        2.995        2.675        3.076        3.174        3.202        3.069        2.506        3.066        3.049        3.225        3.034        0.494        0.000        0.000        0.000        0.000        1.000        1.000        0.000        0.000        0.000        0.000        0.000        0.000        0.000        0.000        0.000        2.000        0.000        0.000        0.000        0.000        0.000        0.000        0.000        0.000        1.000        0.000        1.000        0.000        0.000        2.000        0.000        2.000        0.000        0.000        0.000      100.000        0.000        0.000        2.048        2.057        2.748
     540.000  -243011.120    23663.970    14878.813    37712.793      122.704  -365322.268    45932.868       25.884       25.380        2.996        2.966        3.181        3.230        3.253        2.970        2.644        3.021        3.175        3.182        3.074        2.478        3.145        2.965        3.247        3.004        0.502        0.000        0.000        1.000        0.000        1.000        1.000        0.000        0.000        0.000        0.000        0.000        0.000        0.000        0.000        1.000        1.000        0.000        0.000        0.000        0.000        0.000        0.000        0.000        0.000        0.000        0.000        1.000        0.000        0.000        3.000        1.000        0.000        0.000        0.000        0.000      100.000        0.000        0.000        2.766        2.810        3.325
     550.000  -242929.750    24346.434    14561.932    37709.580      138.884  -364557.457    44870.877       26.086       25.576        3.133        3.083        3.203        3.278        3.218        3.017        2.619        2.997        3.202        3.210        3.059        2.519        3.059        2.983        3.260        2.951        0.503        0.000        0.000        1.000        0.000        0.000        1.000        0.000        0.000        0.000        0.000        0.000        0.000        0.000        0.000        0.000        1.000        0.000        0.000        0.000        0.000        0.000        0.000        0.000        0.000        1.000        0.000        1.000        0.000        1.000        4.000        0.000        3.000        0.000        0.000        0.000      100.000        0.000        0.000        3.119        3.145        3.635
     560.000  -242570.364    24526.363    14856.835    37525.272      116.056  -362620.159    43025.270       26.106       25.857        3.096        3.100        3.173        3.145        3.172        3.030        2.636        3.021        3.120        3.170        3.105        2.532        3.040        2.968        3.233        3.015        0.497        0.000        0.000        1.000        0.000        1.000        1.000        0.000        0.000        0.000        0.000        0.000        0.000        0.000        0.000        0.000        2.000        0.000        0.000        0.000        0.000        0.000        0.000        0.000        0.000        0.000        0.000        1.000        0.000        0.000        4.000        0.000        1.000        0.000        0.000        0.000      100.000        0.000        0.000        3.549        3.606        3.887
     570.000  -242691.078    24251.603    14595.756    37639.901      148.992  -363368.986    44041.655       25.901       25.883        3.048        2.929        3.155        3.178        3.147        3.000        2.609        3.054        3.160        3.186        3.075        2.548        3.034        2.953        3.255        3.045        0.498        0.000        0.000        1.000        0.000        1.000        1.000        0.000        0.000        0.000        0.000        0.000        0.000        0.000        0.000        0.000        1.000        0.000        0.000        0.000        0.000        0.000        0.000        0.000        0.000        0.000        0.000        2.000        0.000        1.000        3.000        1.000        1.000        0.000        0.000        0.000      100.000        0.000        0.000        3.779        3.833        4.146
     580.000  -242750.312    24775.966    14616.846    37518.681       97.659  -364102.820    44343.355       26.126       26.131        2.993        3.039        3.227        3.210        3.220        2.988        2.647        2.955        3.167        3.164        3.039        2.518        3.082        2.944        3.241        2.978        0.483        0.000        0.000        1.000        0.000        1.000        2.000        0.000        0.000        0.000        0.000        0.000        0.000        0.000        1.000        1.000        0.000        0.000        0.000        0.000        0.000        0.000        0.000        0.000        0.000        0.000        0.000        0.000        0.000        1.000        2.000        0.000        3.000        0.000        0.000        0.000      100.000        0.000        0.000        3.432        3.493        3.882
     590.000  -243029.014    24867.002    14659.111    37528.438      144.477  -364443.333    44215.291       25.938       25.484        3.148        2.963        3.143        3.241        3.264        2.999        2.611        3.057        3.168        3.201        3.128        2.584        3.080        2.937        3.274        2.967        0.483        0.000        0.000        1.000        0.000        1.000        2.000        0.000        0.000        1.000        0.000        0.000        0.000        0.000        1.000        1.000        0.000        0.000        0.000        0.000        0.000        0.000        0.000        0.000        0.000        0.000        0.000        2.000        0.000        0.000        2.000        0.000        1.000        0.000        0.000        0.000      100.000        0.000        0.000        3.044        3.116        3.721
     600.000  -242970.799    25054.178    14817.603    37254.872      108.842  -363963.500    43757.207       26.066       25.863        3.189        3.087        3.101        3.217        3.204        2.971        2.615        2.959        3.175        3.216        3.110        2.580        3.141        2.942        3.261        3.030        0.487        0.000        0.000        1.000        0.000        1.000        2.000        0.000        0.000        0.000        0.000        0.000        0.000        0.000        0.000        0.000        0.000        0.000        0.000        0.000        0.000        0.000        0.000        0.000        0.000        0.000        0.000        1.000        0.000        2.000        1.000        1.000        1.000        0.000        0.000        0.000      100.000        0.000        0.000        3.426        3.463        4.043
     610.000  -242565.551    24239.200    14537.742    37595.179      126.445  -364035.127    44971.010       26.020       25.441        3.039        3.118        3.130        3.249        3.186        2.938        2.649        3.071        3.159        3.149        3.147        2.489        3.034        2.947        3.247        2.973        0.491        0.000        0.000        1.000        0.000        0.000        2.000        0.000        0.000        1.000        0.000        0.000        0.000        0.000        1.000        0.000        0.000        0.000        0.000        0.000        0.000        0.000        0.000        0.000        0.000        0.000        0.000        1.000        0.000        1.000        0.000        0.000        0.000        0.000        0.000        0.000      100.000        0.000        0.000        2.900        2.908        3.543
     620.000  -242551.415    24382.376    14442.445    37545.897      130.882  -363024.091    43971.076       26.102       25.821        3.012        2.986        3.116        3.235        3.224        3.034        2.609        3.055        3.177        3.199        3.128        2.506        3.122        2.933        3.265        2.959        0.471        0.000        0.000        1.000        0.000        1.000        1.000        0.000        0.000        0.000        0.000        0.000        0.000        0.000        1.000        0.000        2.000        0.000        0.000        0.000        0.000        0.000        0.000        0.000        0.000        1.000        0.000        1.000        0.000        0.000        1.000        0.000        0.000        0.000        0.000        0.000      100.000        0.000        0.000        3.038        3.049        3.667
     630.000  -242819.842    24170.328    14926.598    37499.767      123.128  -363719.710    44180.048       26.014       25.966        3.087        3.038        3.180        3.238        3.246        3.044        2.648        2.980        3.218        3.162        3.119        2.519        3.087        2.986        3.214        2.928        0.475        0.000        0.000        1.000        0.000        1.000        2.000        0.000        0.000        0.000        0.000        0.000        0.000        0.000        1.000        0.000        6.000        0.000        0.000        0.000        0.000        0.000        0.000        0.000        0.000        0.000        0.000        0.000        0.000        0.000        2.000        0.000        2.000        0.000        0.000        0.000      100.000        0.000        0.000        2.962        2.952        3.677
     640.000  -242527.544    23659.179    14919.101    37483.814      114.478  -362659.100    43954.985       25.428       25.951        3.107        3.010        3.088        3.234        3.240        2.980        2.650        3.040        3.170        3.158        3.088        2.565        3.118        3.005        3.239        2.991        0.475        0.000        0.000        1.000        0.000        1.000        2.000        0.000        0.000        0.000        0.000        0.000        0.000        0.000        0.000        1.000        2.000        0.000        0.000        0.000        0.000        0.000        0.000        0.000        0.000        0.000        0.000        2.000        0.000        0.000        0.000        0.000        1.000        0.000        0.000        0.000      100.000        0.000        0.000        2.627        2.645        3.346
     650.000  -242565.943    24513.607    14655.505    37297.602      106.598  -363196.490    44057.235       25.844       26.141        3.047        3.139        3.105        3.240        3.208        2.993        2.629        3.058        3.165        3.152        3.112        2.532        3.090        2.998        3.241        3.057        0.464        0.000        0.000        1.000        0.000        1.000        2.000        0.000        0.000        0.000        0.000        0.000        0.000        0.000        0.000        1.000        1.000        0.000        0.000        0.000        0.000        0.000        0.000        0.000        0.000        1.000        0.000        1.000        0.000        0.000        4.000        0.000        0.000        0.000        0.000        0.000      100.000        0.000        0.000        2.750        2.771        3.545
     660.000  -242647.133    24609.068    14670.049    37508.414      125.621  -363698.993    44138.709       25.798       26.093        3.080        3.128        3.107        3.238        3.237        3.091        2.636        3.093        3.202        3.196        3.168        2.494        3.073        2.927        3.281        3.022        0.486        0.000        0.000        1.000        0.000        1.000        1.000        0.000        0.000        0.000        0.000        0.000        0.000        0.000        0.000        0.000        1.000        0.000        0.000        0.000        0.000        0.000        0.000        0.000        0.000        0.000        0.000        1.000        0.000        1.000        2.000        0.000        1.000        0.000        0.000        0.000      100.000        0.000        0.000        2.342        2.373        3.020
     670.000  -242721.716    23395.848    14477.605    37762.043      133.606  -364132.080    45641.262       25.617       25.747        2.948        3.080        3.122        3.208        3.194        3.003        2.581        3.005        3.145        3.166        3.104        2.548        3.136        2.977        3.206        3.009        0.471        0.000        0.000        1.000        0.000        1.000        2.000        0.000        0.000        0.000        0.000        0.000        0.000        0.000        0.000        0.000        1.000        0.000        0.000        0.000        0.000        0.000        0.000        0.000        0.000        0.000        0.000        0.000        0.000        1.000        5.000        2.000        1.000        0.000        0.000        0.000      100.000        0.000        0.000        1.952        1.975        2.803
     680.000  -242777.759    24987.455    14787.894    37525.850      128.715  -362883.464    42675.791       25.722       25.987        3.183        3.071        3.163        3.157        3.211        2.982        2.651        2.942        3.178        3.174        3.173        2.525        3.101        2.945        3.238        3.099        0.489        0.000        0.000        1.000        0.000        1.000        1.000        0.000        0.000        0.000        0.000        0.000        0.000        0.000        0.000        1.000        2.000        0.000        0.000        0.000        0.000        0.000        0.000        0.000        0.000        0.000        0.000        0.000        0.000        0.000        3.000        0.000        2.000        0.000        0.000        0.000      100.000        0.000        0.000        1.669        1.677        2.555
     690.000  -242357.110    24776.705    14457.670    37420.340      123.580  -363084.201    43948.797       25.834       26.151        3.101        3.172        3.155        3.239        3.215        3.077        2.642        3.020        3.220        3.148        3.115        2.541        3.116        2.922        3.284        3.042        0.483        0.000        0.000        1.000        0.000        1.000        2.000        0.000        0.000        0.000        0.000        0.000        0.000        0.000        0.000        1.000        1.000        0.000        0.000        0.000        0.000        0.000        0.000        0.000        0.000        3.000        0.000        1.000        0.000        2.000        1.000        0.000        2.000        0.000        0.000        0.000      100.000        0.000        0.000        1.756        1.768        2.702
     700.000  -242834.211    24927.752    14740.047    37461.715      133.671  -363253.411    43156.014       25.643       26.125        3.104        3.066        3.094        3.242        3.237        3.074        2.633        2.997        3.207        3.193        3.150        2.513        3.128        2.960        3.239        3.066        0.494        1.000        0.000        1.000        0.000        0.000        2.000        0.000        0.000        0.000        0.000        0.000        0.000        0.000        0.000        1.000        1.000        0.000        0.000        0.000        0.000        0.000        0.000        0.000        0.000        0.000        0.000        0.000        0.000        0.000        3.000        1.000        0.000        0.000        0.000        0.000      100.000        0.000        0.000        1.729        1.723        2.749
     710.000  -243169.812    24338.417    14535.970    37420.810      109.023  -363355.761    43781.729       25.655       25.982        3.053        3.105        3.051        3.215        3.210        3.091        2.642        2.998        3.187        3.201        3.142        2.571        3.084        2.993        3.210        3.095        0.498        1.000        0.000        0.000        0.000        0.000        1.000        0.000        0.000        0.000        0.000        0.000        0.000        0.000        1.000        0.000        3.000        0.000        0.000        0.000        0.000        0.000        0.000        0.000        0.000        0.000        0.000        0.000        0.000        2.000        1.000        0.000        1.000        0.000        0.000        0.000      100.000        0.000        0.000        1.656        1.670        2.729
     720.000  -242746.509    23650.243    14514.605    37341.362      104.875  -362536.407    44178.813       25.839       25.859        3.084        3.019        3.149        3.239        3.233        3.029        2.638        3.033        3.193        3.223        3.088        2.579        3.137        2.946        3.234        3.083        0.490        0.000        0.000        1.000        0.000        0.000        2.000        0.000        0.000        0.000        0.000        0.000        0.000        0.000        0.000        0.000        0.000        0.000        0.000        0.000        0.000        0.000        0.000        0.000        0.000        2.000        0.000        2.000        0.000        1.000        0.000        0.000        3.000        0.000        0.000        0.000      100.000        0.000        0.000        1.694        1.716        2.748
     730.000  -242638.807    25262.660    14682.545    37396.632      119.831  -363113.501    43013.026       25.936       26.113        3.089        3.128        3.071        3.207        3.092        3.029        2.649        2.996        3.168        3.182        3.110        2.563        3.108        2.987        3.274        3.033        0.488        1.000        0.000        1.000        0.000        1.000        2.000        0.000        0.000        0.000        0.000        0.000        0.000        0.000        0.000        1.000        3.000        0.000        0.000        0.000        0.000        0.000        0.000        0.000        0.000        0.000        0.000        1.000        0.000        1.000        2.000        0.000        1.000        0.000        0.000        0.000      100.000        0.000        0.000        1.615        1.635        2.697
     740.000  -242923.850    24502.684    14756.107    37430.683      116.865  -362969.085    43238.896       25.866       25.889        3.110        3.046        3.158        3.178        3.213        3.002        2.634        3.144        3.217        3.194        3.094        2.534        3.147        2.992        3.248        2.978        0.487        0.000        0.000        1.000        0.000        1.000        2.000        0.000        0.000        0.000        0.000        0.000        0.000        0.000        0.000        1.000        1.000        0.000        0.000        0.000        0.000        0.000        0.000        0.000        0.000        0.000        0.000        0.000        0.000        1.000        3.000        2.000        1.000        0.000        0.000        0.000      100.000        0.000        0.000        1.669        1.695        2.877
     750.000  -242900.169    23677.018    14690.063    37438.676      128.617  -364490.060    45655.516       25.828       25.943        3.101        3.063        3.191        3.107        3.226        3.069        2.585        3.052        3.208        3.231        3.097        2.492        3.119        2.997        3.239        2.951        0.489        0.000        0.000        0.000        0.000        1.000        3.000        0.000        0.000        0.000        0.000        0.000        0.000        0.000        1.000        0.000        0.000        0.000        0.000        0.000        0.000        0.000        0.000        0.000        0.000        0.000        0.000        2.000        0.000        1.000        3.000        1.000        2.000        0.000        0.000        0.000      100.000        0.000        0.000        1.662        1.693        2.871
     760.000  -243190.474    24145.308    14764.670    37514.659      131.438  -364277.496    44530.947       25.729       25.875        3.089        3.002        3.143        3.153        3.179        2.965        2.639        2.986        3.168        3.202        3.111        2.534        3.104        2.949        3.277        2.993        0.491        0.000        0.000        0.000        0.000        1.000        3.000        0.000        0.000        1.000        0.000        0.000        0.000        0.000        1.000        0.000        1.000        0.000        0.000        0.000        0.000        0.000        0.000        0.000        0.000        0.000        0.000        1.000        0.000        1.000        1.000        0.000        1.000        0.000        0.000        0.000      100.000        0.000        0.000        1.554        1.595        2.902
     770.000  -242127.454    23456.032    14704.674    37626.568      129.452  -363639.471    45595.291       25.848       26.010        3.091        3.130        3.104        3.175        3.124        2.964        2.650        2.958        3.152        3.205        3.072        2.498        3.076        2.941        3.238        3.058        0.489        1.000        0.000        0.000        0.000        1.000        3.000        0.000        0.000        1.000        0.000        0.000        0.000        0.000        0.000        0.000        0.000        0.000        0.000        0.000        0.000        0.000        0.000        0.000        0.000        0.000        0.000        1.000        0.000        1.000        0.000        1.000        1.000        0.000        0.000        0.000      100.000        0.000        0.000        1.665        1.699        2.964
     780.000  -242933.247    23986.450    14667.716    37571.204      129.922  -364830.274    45541.735       25.610       25.792        3.056        3.070        3.085        3.209        3.239        2.873        2.688        3.041        3.145        3.210        3.132        2.485        3.080        3.013        3.258        3.060        0.474        1.000        0.000        1.000        0.000        1.000        3.000        0.000        0.000        0.000        0.000        0.000        0.000        0.000        2.000        0.000        1.000        0.000        0.000        0.000        0.000        0.000        0.000        0.000        0.000        0.000        0.000        2.000        0.000        2.000        0.000        0.000        3.000        0.000        0.000        0.000      100.000        0.000        0.000        1.559        1.570        3.090
     790.000  -242791.080    23969.616    14474.979    37521.449      108.013  -363860.984    44995.847       25.771       25.589        3.092        3.105        3.078        3.151        3.200        3.046        2.703        2.979        3.174        3.184        3.161        2.531        3.061        3.016        3.246        3.072        0.472        1.000        0.000        1.000        0.000        1.000        3.000        0.000        0.000        0.000        0.000        0.000        0.000        0.000        0.000        0.000        2.000        0.000        0.000        0.000        0.000        0.000        0.000        0.000        0.000        0.000        0.000        1.000        0.000        2.000        0.000        0.000        1.000        0.000        0.000        0.000      100.000        0.000        0.000        1.494        1.516        2.955
     800.000  -242947.868    23555.947    14620.766    37512.583      135.428  -364593.392    45820.799       26.154       25.941        3.099        3.025        3.113        3.197        3.203        2.974        2.664        3.080        3.211        3.201        3.149        2.519        3.135        2.985        3.256        3.007        0.493        1.000        0.000        1.000        0.000        1.000        3.000        0.000        0.000        0.000        0.000        0.000        0.000        0.000        0.000        1.000        3.000        0.000        0.000        0.000        0.000        0.000        0.000        0.000        0.000        0.000        0.000        2.000        0.000        2.000        0.000        0.000        2.000        0.000        0.000        0.000      100.000        0.000        0.000        1.692        1.700        3.011
     810.000  -243077.839    22789.301    15004.437    37688.719      113.157  -364341.748    45668.293       26.024       25.884        3.140        3.025        3.112        3.159        3.164        2.989        2.673        2.996        3.207        3.179        3.151        2.551        3.078        3.007        3.257        3.122        0.498        1.000        0.000        1.000        0.000        1.000        3.000        0.000        0.000        0.000        0.000        0.000        0.000        0.000        0.000        0.000        3.000        0.000        0.000        0.000        0.000        0.000        0.000        0.000        0.000        0.000        0.000        1.000        0.000        1.000        2.000        0.000        4.000        0.000        0.000        0.000      100.000        0.000        0.000        1.843        1.865        3.121
     820.000  -243224.796    24484.486    14811.234    37428.082      108.066  -365015.274    44958.610       25.981       25.848        3.028        3.010        3.083        3.193        3.139        2.962        2.695        3.085        3.152        3.204        3.127        2.516        3.054        3.009        3.274        3.066        0.473        1.000        0.000        1.000        0.000        1.000        2.000        0.000        0.000        0.000        0.000        0.000        0.000        0.000        0.000        2.000        0.000        0.000        0.000        0.000        0.000        0.000        0.000        0.000        0.000        0.000        0.000        2.000        0.000        2.000        3.000        0.000        0.000        0.000        0.000        0.000      100.000        0.000        0.000        2.116        2.156        3.244
     830.000  -242685.589    24260.881    14531.664    37336.521      126.282  -363879.047    44938.109       25.577       25.621        2.992        3.087        3.137        3.196        3.248        3.000        2.690        2.984        3.235        3.194        3.151        2.579        3.117        2.949        3.291        3.011        0.511        0.000        0.000        1.000        0.000        1.000        3.000        0.000        0.000        1.000        0.000        0.000        0.000        0.000        0.000        0.000        0.000        0.000        0.000        0.000        0.000        0.000        0.000        0.000        0.000        0.000        0.000        1.000        0.000        1.000        1.000        0.000        2.000        0.000        0.000        0.000      100.000        0.000        0.000        1.995        2.059        3.210
     840.000  -243184.217    25205.030    14685.801    37548.269      117.813  -364665.437    43924.307       25.530       25.867        3.156        3.017        3.147        3.159        3.132        2.955        2.710        2.986        3.153        3.182        3.155        2.533        3.095        2.963        3.242        3.061        0.484        1.000        0.000        1.000        0.000        2.000        2.000        0.000        0.000        1.000        0.000        0.000        0.000        0.000        0.000        0.000        2.000        0.000        0.000        0.000        0.000        0.000        0.000        0.000        0.000        0.000        0.000        2.000        0.000        0.000        2.000        1.000        1.000        0.000        0.000        0.000      100.000        0.000        0.000        2.032        2.103        3.161
     850.000  -243070.391    24944.509    14448.476    37379.005      108.503  -362940.418    42989.533       25.705       25.900        3.082        3.053        3.013        3.208        3.120        2.998        2.697        3.034        3.199        3.186        3.101        2.520        3.110        2.983        3.222        3.129        0.471        0.000        0.000        1.000        0.000        1.000        2.000        0.000        0.000        0.000        0.000        0.000        0.000        0.000        0.000        0.000        2.000        0.000        0.000        0.000        0.000        0.000        0.000        0.000        0.000        0.000        0.000        2.000        0.000        2.000        1.000        1.000        4.000        0.000        0.000        0.000      100.000        0.000        0.000        1.704        1.736        3.089
     860.000  -242332.634    24694.101    14416.804    37378.418      117.089  -362012.021    43072.975       25.925       26.059        3.093        3.108        3.114        3.206        3.159        2.982        2.709        3.013        3.227        3.217        3.162        2.521        3.110        3.015        3.325        3.009        0.495        1.000        0.000        0.000        0.000        1.000        2.000        0.000        0.000        1.000        0.000        0.000        0.000        0.000        0.000        0.000        0.000        0.000        0.000        0.000        0.000        0.000        0.000        0.000        0.000        1.000        0.000        2.000        0.000        2.000        3.000        0.000        2.000        0.000        0.000        0.000      100.000        0.000        0.000        1.376        1.435        2.788
     870.000  -243439.606    24412.122    14848.717    37270.421      126.803  -364284.045    44186.376       25.843       26.021        3.121        3.048        3.122        3.179        3.142        2.998        2.708        2.987        3.227        3.218        3.113        2.549        3.092        3.003        3.240        3.061        0.478        1.000        0.000        1.000        0.000        1.000        2.000        0.000        0.000        0.000        0.000        0.000        0.000        0.000        2.000        1.000        0.000        0.000        0.000        0.000        0.000        0.000        0.000        0.000        0.000        0.000        0.000        2.000        0.000        2.000        1.000        1.000        4.000        0.000        0.000        0.000      100.000        0.000        0.000        1.610        1.659        2.958
     880.000  -243217.985    24445.962    14536.831    37409.661      113.473  -364626.713    44902.801       25.942       25.895        3.141        3.115        3.059        3.163        3.178        2.997        2.714        3.068        3.168        3.248        3.163        2.516        3.106        2.973        3.283        3.025        0.493        0.000        0.000        1.000        0.000        2.000        2.000        0.000        0.000        1.000        0.000        0.000        0.000        1.000        0.000        1.000        0.000        0.000        0.000        0.000        0.000        0.000        0.000        0.000        0.000        0.000        0.000        1.000        0.000        0.000        2.000        1.000        1.000        0.000        0.000        0.000      100.000        0.000        0.000        1.866        1.922        2.964
     890.000  -243072.760    24629.032    14902.829    37340.429      181.561  -364115.264    43988.653       25.583       25.788        3.090        2.959        3.175        3.186        3.162        2.973        2.705        3.032        3.223        3.154        3.161        2.486        3.107        2.958        3.246        3.070        0.513        1.000        0.000        0.000        0.000        2.000        3.000        0.000        0.000        0.000        0.000        0.000        0.000        0.000        2.000        0.000        1.000        0.000        0.000        0.000        0.000        0.000        0.000        0.000        0.000        0.000        0.000        2.000        0.000        0.000        3.000        0.000        1.000        0.000        0.000        0.000      100.000        0.000        0.000        2.050        2.109        3.178
     900.000  -242974.545    23178.984    14655.889    37605.913      109.656  -363553.697    45028.710       25.729       25.986        3.005        3.042        3.073        3.186        3.161        2.986        2.674        3.001        3.143        3.203        3.138        2.448        3.086        2.962        3.269        3.022        0.517        0.000        0.000        1.000        0.000        2.000        2.000        0.000        0.000        1.000        0.000        0.000        0.000        0.000        1.000        0.000        3.000        0.000        0.000        0.000        0.000        0.000        0.000        0.000        0.000        1.000        0.000        3.000        0.000        0.000        1.000        0.000        2.000        0.000        0.000        0.000      100.000        0.000        0.000        1.812        1.863        3.018
     910.000  -242705.045    25231.362    14497.037    37396.477      123.288  -363364.921    43411.712       25.473       25.809        3.085        2.991        3.150        3.196        3.166        2.973        2.711        3.065        3.226        3.187        3.156        2.476        3.087        2.947        3.235        3.051        0.481        1.000        0.000        1.000        0.000        1.000        2.000        0.000        0.000        0.000        0.000        0.000        0.000        0.000        0.000        0.000        4.000        0.000        0.000        0.000        0.000        0.000        0.000        0.000        0.000        1.000        0.000        1.000        0.000        1.000        0.000        1.000        0.000        0.000        0.000        0.000      100.000        0.000        0.000        1.996        2.069        3.260
     920.000  -242690.836    24497.125    14622.815    37286.456      100.331  -362959.289    43761.726       25.865       25.821        3.113        3.051        3.149        3.219        3.157        3.011        2.720        3.095        3.153        3.227        3.133        2.535        3.078        2.971        3.231        3.040        0.515        1.000        0.000        1.000        0.000        1.000        2.000        0.000        0.000        0.000        0.000        0.000        0.000        0.000        0.000        0.000        0.000        0.000        0.000        0.000        0.000        0.000        0.000        0.000        0.000        0.000        0.000        1.000        0.000        0.000        1.000        1.000        4.000        0.000        0.000        0.000      100.000        0.000        0.000        1.973        2.019        2.985
     930.000  -243151.224    24324.709    14452.620    37510.070      116.484  -364111.039    44555.932       25.859       25.870        3.065        3.010        3.151        3.188        3.205        2.979        2.687        2.976        3.168        3.209        3.147        2.545        3.127        3.070        3.245        3.025        0.489        1.000        0.000        0.000        0.000        1.000        2.000        0.000        0.000        0.000        0.000        0.000        0.000        0.000        0.000        0.000        0.000        0.000        0.000        0.000        0.000        0.000        0.000        0.000        0.000        1.000        0.000        1.000        0.000        1.000        0.000        0.000        0.000        0.000        4.494        0.000       95.506        0.000        0.000        1.726        1.793        2.858
     940.000  -243008.641    24108.465    14590.621    37540.710      160.983  -364354.435    44945.015       25.934       25.752        3.037        2.996        3.149        3.140        3.196        3.021        2.658        3.057        3.160        3.191        3.120        2.541        3.141        2.956        3.283        3.020        0.460        1.000        0.000        1.000        0.000        1.000        2.000        0.000        0.000        1.000        0.000        0.000        0.000        0.000        1.000        0.000        1.000        0.000        0.000        0.000        0.000        0.000        0.000        0.000        0.000        0.000        0.000        0.000        0.000        0.000        2.000        0.000        2.000        0.000        4.494        0.000       95.506        0.000        0.000        1.971        2.050        2.980
     950.000  -242919.497    25029.815    14317.004    37229.078      145.142  -363165.681    43525.145       26.108       25.753        3.107        3.080        3.085        3.155        3.203        3.045        2.683        3.075        3.179        3.217        3.091        2.492        3.117        2.996        3.245        3.120        0.472        1.000        0.000        0.000        0.000        1.000        2.000        0.000        0.000        2.000        0.000        0.000        0.000        0.000        0.000        0.000        3.000        0.000        0.000        0.000        0.000        0.000        0.000        0.000        0.000        0.000        0.000        3.000        0.000        0.000        3.000        0.000        0.000        0.000        0.000        0.000      100.000        0.000        0.000        1.851        1.940        2.953
     960.000  -242792.877    24162.675    14724.603    37397.508      119.389  -363312.422    44115.370       26.050       25.711        3.103        2.902        3.176        3.276        3.210        2.994        2.726        2.973        3.204        3.218        3.115        2.527        3.088        2.931        3.204        3.044        0.465        1.000        0.000        0.000        0.000        1.000        2.000        0.000        0.000        1.000        0.000        0.000        0.000        0.000        0.000        0.000        2.000        0.000        0.000        0.000        0.000        0.000        0.000        0.000        0.000        1.000        0.000        0.000        0.000        0.000        2.000        0.000        1.000        0.000        0.000        0.000      100.000        0.000        0.000        2.127        2.202        3.089
     970.000  -243523.725    24691.304    14386.251    37390.643      129.976  -364656.735    44534.836       26.237       25.980        3.061        3.187        3.088        3.182        3.160        3.118        2.694        3.053        3.157        3.183        3.186        2.540        3.152        2.966        3.275        3.015        0.480        1.000        0.000        1.000        0.000        1.000        2.000        0.000        0.000        0.000        0.000        0.000        0.000        0.000        0.000        0.000        0.000        0.000        0.000        0.000        0.000        0.000        0.000        0.000        0.000        0.000        0.000        0.000        0.000        0.000        1.000        0.000        1.000        0.000        0.000        0.000      100.000        0.000        0.000        2.447        2.499        3.355
     980.000  -242485.936    23544.059    14862.866    37421.091      113.404  -363980.693    45553.336       26.039       25.684        3.078        2.990        3.057        3.228        3.165        2.938        2.690        3.079        3.207        3.264        3.183        2.523        3.082        2.993        3.277        3.025        0.504        1.000        0.000        1.000        0.000        1.000        2.000        0.000        0.000        0.000        0.000        0.000        0.000        0.000        0.000        0.000        2.000        0.000        0.000        0.000        0.000        0.000        0.000        0.000        0.000        1.000        0.000        0.000        0.000        2.000        1.000        0.000        1.000        0.000        0.000        0.000      100.000        0.000        0.000        2.878        2.957        3.702
     990.000  -243235.884    23143.287    14598.410    37646.302      134.980  -364252.174    45493.312       26.117       26.126        3.058        3.148        3.094        3.235        3.135        2.920        2.724        3.021        3.179        3.224        3.164        2.501        3.046        2.957        3.210        3.004        0.492        1.000        0.000        1.000        0.000        1.000        2.000        0.000        0.000        0.000        0.000        0.000        0.000        0.000        1.000        0.000        0.000        0.000        0.000        0.000        0.000        0.000        0.000        0.000        0.000        0.000        0.000        0.000        0.000        2.000        1.000        0.000        1.000        0.000        0.000        0.000      100.000        0.000        0.000        2.243        2.284        3.216
    1000.000  -242516.968    24280.536    14925.424    37554.082      118.916  -364493.887    45097.962       25.987       25.609        3.115        3.139        3.156        3.213        3.219        2.992        2.672        3.101        3.309        3.196        3.183        2.482        3.064        3.004        3.262        3.041        0.498        1.000        0.000        1.000        0.000        0.000        2.000        0.000        0.000        1.000        0.000        0.000        0.000        0.000        1.000        0.000        2.000        0.000        0.000        0.000        0.000        0.000        0.000        0.000        0.000        0.000        0.000        2.000        0.000        1.000        3.000        1.000        4.000        0.000        0.000        0.000      100.000        0.000        0.000        1.908        1.969        3.201
     Average  -244658.914    24740.403    14764.190    37548.832      119.851  -366836.287    45004.096       25.997       25.936        3.041        3.026        3.148        3.193        3.213        2.997        2.662        3.020        3.190        3.195        3.126        2.514        3.090        2.983        3.248        3.031        0.487        0.267        0.000        0.990        0.000        0.941        1.743        0.000        0.000        0.238        0.000        0.000        0.000        0.010        0.376        0.228        1.178        0.000        0.000        0.000        0.000        0.000        0.000        0.000        0.000        0.515        0.000        1.139        0.000        0.990        1.911        0.376        1.881        0.000        0.311        0.000       99.689        0.000        0.000        1.943        1.971        2.611

