____Time[ps] Energy[ kJ/mol ]_____Bond _______Angle ____Dihedral ___Planarity _____Coulomb _________VdW _Your result _Your result _Your result _Your result _Your result _Your result _Your result _Your result _Your result _Your result _Your result _Your result _Your result _Your result _Your result _Your result _Your result _Your result _Your result _Your result _Your result _Your result _Your result _Your result _Your result _Your result _Your result _Your result _Your result _Your result _Your result _Your result _Your result _Your result _Your result _Your result _Your result _Your result _Your result _Your result _Your result _Your result _Your result _Your result _Your result _Your result _Your result _Your result _Your result _Your result _Your result _Your result _Your result _Your result _Your result _Your result _Your result _RMSDs[A]:CA ____Backbone __HeavyAtoms
       0.000  -351366.095     7879.389     5249.285    37628.289       15.324  -470944.783    68806.400       25.308       25.328        3.004        2.960        3.083        3.278        3.255        3.093        2.677        2.990        3.154        3.263        3.095        2.646        2.973        3.009        3.085        3.010        0.487        1.000        1.000        0.000        0.000        1.000        5.000        0.000        0.000        0.000        0.000        0.000        0.000        0.000        0.000        0.000        0.000        0.000        0.000        0.000        0.000        0.000        0.000        0.000        0.000        0.000        1.000        0.000        3.000        1.000        5.000        0.000        0.000        0.000        0.000        0.000      100.000        0.000        0.000        0.494        0.527        0.600
      10.000  -263741.433    31159.110    15592.455    37490.960       92.620  -398764.165    50687.586       26.072       25.760        2.992        3.110        3.047        3.261        3.210        3.051        2.624        3.021        3.156        3.267        3.125        2.655        3.035        3.054        3.130        2.989        0.493        1.000        0.000        0.000        1.000        2.000        5.000        0.000        0.000        0.000        0.000        0.000        0.000        0.000        2.000        0.000        4.000        0.000        0.000        0.000        0.000        0.000        0.000        0.000        0.000        0.000        2.000        0.000        2.000        1.000        4.000        0.000        0.000        0.000        0.000        0.000      100.000        0.000        0.000        1.380        1.393        1.500
      20.000  -263850.104    30053.832    15915.082    37466.286      104.960  -398032.047    50641.783       25.871       25.867        2.964        3.110        3.183        3.237        3.283        2.970        2.657        3.112        3.120        3.309        3.036        2.652        3.009        3.008        3.153        3.009        0.495        1.000        0.000        0.000        0.000        2.000        4.000        0.000        0.000        0.000        0.000        0.000        0.000        1.000        1.000        0.000        3.000        0.000        0.000        0.000        0.000        0.000        0.000        0.000        0.000        0.000        0.000        0.000        2.000        0.000        4.000        0.000        1.000        0.000        0.000        0.000      100.000        0.000        0.000        1.413        1.439        1.564
      30.000  -262336.362    30243.701    16070.027    37711.505       85.590  -396770.332    50323.148       25.748       25.710        2.966        3.125        3.098        3.251        3.162        3.009        2.690        3.048        3.153        3.310        3.025        2.692        3.024        3.075        3.079        3.023        0.485        1.000        0.000        0.000        1.000        2.000        5.000        0.000        0.000        0.000        1.000        0.000        0.000        0.000        1.000        0.000        1.000        0.000        0.000        0.000        0.000        0.000        0.000        0.000        0.000        1.000        0.000        0.000        1.000        0.000        2.000        0.000        0.000        0.000        0.000        0.000      100.000        0.000        0.000        1.624        1.655        1.710
      40.000  -262742.464    29733.084    15594.019    37472.846      123.299  -396287.142    50621.431       26.081       26.021        2.938        3.160        3.085        3.229        3.199        3.053        2.641        3.076        3.154        3.309        3.065        2.630        3.030        3.053        3.084        3.030        0.506        1.000        0.000        0.000        1.000        1.000        5.000        0.000        0.000        0.000        0.000        0.000        0.000        0.000        1.000        0.000        2.000        0.000        0.000        0.000        0.000        0.000        0.000        0.000        0.000        3.000        4.000        0.000        3.000        0.000        3.000        0.000        1.000        0.000        0.000        0.000      100.000        0.000        0.000        1.548        1.589        1.692
      50.000  -262829.415    28750.207    15753.650    37608.760       93.926  -394619.661    49583.703       26.276       26.246        2.961        3.144        3.125        3.231        3.164        2.995        2.663        3.025        3.155        3.276        3.079        2.671        3.022        3.008        3.057        2.969        0.510        0.000        0.000        0.000        0.000        2.000        4.000        0.000        0.000        0.000        1.000        0.000        0.000        0.000        1.000        0.000        1.000        0.000        0.000        0.000        0.000        0.000        0.000        0.000        0.000        0.000        0.000        0.000        3.000        1.000        5.000        0.000        1.000        0.000        0.000        0.000      100.000        0.000        0.000        1.500        1.537        1.648
      60.000  -261646.529    28700.138    16139.451    37640.107      119.683  -394414.726    50168.819       25.948       25.855        2.907        3.096        3.122        3.247        3.151        2.966        2.709        3.065        3.241        3.258        3.048        2.674        3.037        3.024        3.140        2.998        0.472        1.000        0.000        0.000        1.000        2.000        5.000        0.000        0.000        0.000        0.000        0.000        0.000        1.000        1.000        0.000        1.000        0.000        0.000        0.000        0.000        0.000        0.000        0.000        0.000        0.000        1.000        0.000        1.000        1.000        5.000        0.000        1.000        0.000        0.000        0.000      100.000        0.000        0.000        1.307        1.341        1.562
      70.000  -261712.424    27678.570    15845.808    37617.557      109.619  -394582.354    51618.376       26.284       26.051        2.865        3.098        3.039        3.230        3.144        2.944        2.666        3.015        3.252        3.291        3.090        2.682        3.027        2.996        3.127        2.948        0.469        1.000        1.000        0.000        0.000        2.000        4.000        0.000        0.000        0.000        0.000        0.000        0.000        1.000        1.000        0.000        1.000        0.000        0.000        0.000        0.000        0.000        0.000        0.000        0.000        0.000        3.000        0.000        1.000        0.000        4.000        0.000        4.000        0.000        4.494        0.000       95.506        0.000        0.000        1.685        1.731        1.929
      80.000  -261594.053    27436.317    15979.130    37574.107      118.687  -393320.562    50618.267       26.190       26.105        2.891        2.983        3.095        3.238        3.166        2.938        2.680        3.128        3.279        3.230        2.982        2.680        2.925        3.012        3.113        2.987        0.482        1.000        0.000        0.000        1.000        1.000        4.000        0.000        0.000        0.000        0.000        0.000        0.000        1.000        0.000        0.000        2.000        0.000        0.000        0.000        0.000        0.000        0.000        0.000        0.000        0.000        2.000        0.000        2.000        0.000        3.000        0.000        0.000        0.000        4.494        0.000       95.506        0.000        0.000        1.769        1.816        1.956
      90.000  -261467.586    27436.470    15828.865    37732.585      118.100  -393674.271    51090.666       26.076       25.896        2.899        3.048        3.100        3.261        3.207        2.974        2.644        3.063        3.200        3.245        3.048        2.642        3.020        3.005        3.083        2.968        0.458        0.000        0.000        0.000        0.000        3.000        5.000        0.000        0.000        0.000        0.000        0.000        0.000        0.000        2.000        0.000        0.000        0.000        0.000        0.000        0.000        0.000        0.000        0.000        0.000        0.000        0.000        0.000        1.000        0.000        2.000        0.000        2.000        0.000        4.494        0.000       95.506        0.000        0.000        1.518        1.580        1.726
     100.000  -261031.233    27683.375    16220.519    37425.024      132.502  -392014.686    49522.033       26.163       26.019        2.861        3.157        3.023        3.237        3.173        2.976        2.700        3.119        3.237        3.268        3.035        2.670        3.012        3.018        3.080        2.972        0.491        0.000        1.000        0.000        0.000        2.000        6.000        0.000        0.000        0.000        0.000        0.000        0.000        0.000        1.000        0.000        0.000        0.000        0.000        0.000        0.000        0.000        0.000        0.000        0.000        0.000        0.000        0.000        2.000        0.000        2.000        0.000        0.000        0.000        4.494        0.000       95.506        0.000        0.000        1.834        1.880        2.029
     110.000  -260200.605    28541.488    15877.296    37751.877      132.635  -390362.161    47858.259       25.756       25.885        2.920        3.137        3.125        3.205        3.195        3.032        2.659        3.101        3.296        3.257        3.070        2.688        3.015        3.034        3.097        2.979        0.508        0.000        0.000        0.000        1.000        2.000        6.000        0.000        0.000        0.000        1.000        0.000        0.000        0.000        0.000        0.000        0.000        0.000        0.000        0.000        0.000        0.000        0.000        0.000        0.000        0.000        0.000        0.000        1.000        1.000        2.000        0.000        1.000        0.000        0.000        0.000      100.000        0.000        0.000        1.611        1.676        1.890
     120.000  -259645.616    26581.316    16286.647    37650.476      125.459  -390616.232    50326.717       25.491       25.639        2.890        3.062        3.100        3.262        3.176        3.011        2.656        3.080        3.275        3.226        3.081        2.680        3.058        3.081        3.047        3.020        0.476        1.000        0.000        0.000        1.000        1.000        7.000        0.000        0.000        0.000        0.000        0.000        0.000        0.000        1.000        0.000        3.000        0.000        0.000        0.000        0.000        0.000        0.000        0.000        0.000        0.000        0.000        0.000        2.000        0.000        1.000        0.000        2.000        0.000        0.000        0.000      100.000        0.000        0.000        1.956        2.011        2.276
     130.000  -261659.118    28499.074    15737.862    37196.658       95.509  -391629.982    48441.761       25.943       25.982        2.977        3.077        3.146        3.272        3.226        3.043        2.673        3.132        3.259        3.234        3.047        2.698        3.029        3.011        3.034        3.050        0.470        1.000        0.000        0.000        1.000        1.000        6.000        0.000        0.000        0.000        0.000        0.000        0.000        1.000        1.000        0.000        0.000        0.000        0.000        0.000        0.000        0.000        0.000        0.000        0.000        1.000        2.000        0.000        2.000        0.000        1.000        0.000        2.000        0.000        0.000        0.000      100.000        0.000        0.000        2.464        2.520        2.612
     140.000  -260109.963    27846.506    15896.891    37611.963      110.815  -389859.878    48283.741       25.664       25.807        2.815        3.093        3.125        3.271        3.160        3.048        2.630        3.034        3.234        3.320        3.069        2.640        3.013        3.047        3.054        3.002        0.482        1.000        0.000        0.000        0.000        2.000        5.000        0.000        0.000        0.000        0.000        0.000        0.000        0.000        2.000        0.000        1.000        0.000        0.000        0.000        0.000        0.000        0.000        0.000        0.000        0.000        0.000        0.000        1.000        0.000        3.000        0.000        0.000        0.000        4.494        0.000       95.506        0.000        0.000        2.352        2.409        2.546
     150.000  -260758.343    27989.005    16004.082    37516.499      114.573  -390634.700    48252.198       25.707       26.043        3.058        3.125        3.082        3.256        3.170        3.080        2.692        3.083        3.215        3.288        3.050        2.686        3.033        3.034        3.058        2.985        0.493        1.000        0.000        0.000        1.000        2.000        5.000        0.000        0.000        0.000        0.000        0.000        0.000        0.000        0.000        0.000        1.000        0.000        0.000        0.000        0.000        0.000        0.000        0.000        0.000        1.000        1.000        0.000        2.000        0.000        4.000        0.000        1.000        0.000        0.000        0.000      100.000        0.000        0.000        2.430        2.500        2.518
     160.000  -260332.206    26863.295    15478.886    37552.232      107.093  -389095.638    48761.927       25.630       25.858        2.947        3.107        3.119        3.213        3.221        3.109        2.657        3.042        3.207        3.281        3.057        2.659        3.092        3.067        3.041        2.960        0.479        0.000        0.000        0.000        0.000        2.000        5.000        0.000        0.000        0.000        0.000        0.000        0.000        0.000        1.000        0.000        3.000        0.000        0.000        0.000        0.000        0.000        0.000        0.000        0.000        0.000        0.000        0.000        3.000        0.000        2.000        0.000        1.000        0.000        0.000        0.000      100.000        0.000        0.000        2.949        3.026        3.248
     170.000  -259582.710    25678.320    16161.117    37540.221      110.029  -388458.306    49385.909       25.737       25.906        2.982        3.066        3.115        3.223        3.171        3.101        2.636        3.001        3.272        3.260        3.087        2.687        3.031        3.029        3.098        2.935        0.512        1.000        0.000        0.000        1.000        2.000        6.000        0.000        0.000        0.000        0.000        0.000        0.000        0.000        1.000        0.000        0.000        0.000        0.000        0.000        0.000        0.000        0.000        0.000        0.000        0.000        2.000        0.000        1.000        0.000        3.000        0.000        2.000        0.000        0.000        0.000      100.000        0.000        0.000        3.146        3.246        3.347
     180.000  -259676.673    26176.239    16000.261    37745.284       92.758  -389038.152    49346.937       25.506       25.623        2.983        3.142        3.119        3.283        3.199        2.947        2.591        3.064        3.246        3.306        3.009        2.645        3.032        3.056        3.030        3.008        0.463        1.000        0.000        0.000        1.000        2.000        6.000        0.000        0.000        0.000        1.000        0.000        0.000        0.000        2.000        0.000        1.000        0.000        0.000        0.000        0.000        0.000        0.000        0.000        0.000        0.000        1.000        0.000        1.000        0.000        1.000        0.000        0.000        0.000        0.000        0.000      100.000        0.000        0.000        2.895        2.977        3.080
     190.000  -259989.030    27153.667    15847.290    37473.382      104.475  -389502.215    48934.371       25.682       25.827        2.979        3.155        3.121        3.255        3.190        2.997        2.555        3.074        3.179        3.190        3.054        2.579        3.046        3.047        3.033        2.989        0.462        1.000        0.000        0.000        1.000        0.000        6.000        0.000        0.000        0.000        0.000        0.000        0.000        0.000        1.000        0.000        0.000        0.000        0.000        0.000        0.000        0.000        0.000        0.000        0.000        0.000        0.000        0.000        3.000        0.000        5.000        0.000        1.000        0.000        0.000        0.000      100.000        0.000        0.000        2.733        2.811        2.875
     200.000  -259653.285    27657.681    15885.730    37437.172      129.903  -390177.222    49413.450       25.694       26.006        3.125        3.145        3.142        3.271        3.201        3.045        2.637        3.045        3.192        3.169        3.050        2.505        3.060        3.015        3.035        3.029        0.458        1.000        0.000        0.000        0.000        0.000        5.000        0.000        0.000        0.000        0.000        0.000        0.000        0.000        0.000        0.000        1.000        0.000        0.000        0.000        0.000        0.000        0.000        0.000        0.000        0.000        1.000        0.000        0.000        1.000        2.000        0.000        0.000        0.000        0.000        0.000      100.000        0.000        0.000        2.272        2.342        2.460
     210.000  -259088.983    26350.818    15800.655    37764.605      111.949  -386262.766    47145.756       25.715       25.784        3.014        3.198        3.169        3.193        3.116        3.063        2.649        3.040        3.174        3.265        3.024        2.535        3.043        3.046        3.065        3.012        0.499        1.000        0.000        0.000        1.000        0.000        5.000        0.000        0.000        0.000        1.000        0.000        0.000        0.000        0.000        0.000        1.000        0.000        0.000        0.000        0.000        0.000        0.000        0.000        0.000        0.000        2.000        0.000        3.000        0.000        1.000        0.000        0.000        0.000        0.000        0.000      100.000        0.000        0.000        2.045        2.103        2.372
     220.000  -259234.089    26974.713    15845.558    37538.273      134.288  -388148.034    48421.113       25.675       25.844        2.974        3.134        3.170        3.293        3.203        3.090        2.631        3.011        3.203        3.197        3.054        2.561        3.028        3.046        3.133        2.987        0.468        1.000        0.000        0.000        1.000        0.000        5.000        0.000        0.000        0.000        0.000        0.000        0.000        0.000        2.000        0.000        1.000        0.000        0.000        0.000        0.000        0.000        0.000        0.000        0.000        0.000        0.000        0.000        3.000        1.000        1.000        0.000        0.000        0.000        0.000        0.000      100.000        0.000        0.000        2.136        2.198        2.500
     230.000  -258704.378    26503.868    16386.221    37399.294       98.929  -387285.875    48193.185       25.788       25.807        3.026        3.159        3.113        3.239        3.185        3.072        2.662        3.027        3.229        3.233        3.043        2.560        3.080        3.049        3.082        2.982        0.482        1.000        0.000        0.000        1.000        0.000        5.000        0.000        0.000        0.000        0.000        0.000        0.000        0.000        0.000        0.000        1.000        0.000        0.000        0.000        0.000        0.000        0.000        0.000        0.000        0.000        1.000        0.000        2.000        0.000        4.000        0.000        0.000        0.000        4.494        0.000       95.506        0.000        0.000        2.172        2.232        2.470
     240.000  -259388.368    27070.494    15746.178    37702.259      136.605  -388322.154    48278.251       25.756       25.634        3.049        3.181        3.089        3.252        3.197        2.993        2.588        2.999        3.226        3.225        3.025        2.523        3.033        3.036        3.159        2.893        0.488        1.000        0.000        0.000        1.000        0.000        5.000        0.000        0.000        0.000        0.000        0.000        0.000        0.000        1.000        0.000        1.000        0.000        0.000        0.000        0.000        0.000        0.000        0.000        0.000        0.000        0.000        0.000        3.000        0.000        3.000        0.000        0.000        0.000        0.000        0.000      100.000        0.000        0.000        2.214        2.277        2.482
     250.000  -258518.598    26094.287    15735.144    37780.502      111.940  -386382.460    48141.990       25.648       25.651        2.865        3.096        3.117        3.226        3.173        3.002        2.656        2.975        3.211        3.231        3.019        2.499        2.971        2.987        3.017        2.994        0.484        1.000        0.000        0.000        0.000        0.000        5.000        0.000        0.000        0.000        1.000        0.000        0.000        0.000        0.000        0.000        1.000        0.000        0.000        0.000        0.000        0.000        0.000        0.000        0.000        0.000        2.000        0.000        2.000        0.000        1.000        0.000        1.000        0.000        0.000        0.000      100.000        0.000        0.000        1.733        1.817        2.125
     260.000  -258849.785    26754.976    15504.433    37663.790       92.775  -386038.292    47172.534       25.800       25.797        3.016        3.179        3.086        3.245        3.193        3.034        2.655        2.994        3.296        3.243        3.017        2.513        2.996        3.041        3.046        3.030        0.475        1.000        1.000        0.000        1.000        0.000        5.000        0.000        0.000        0.000        0.000        0.000        0.000        0.000        0.000        0.000        0.000        0.000        0.000        0.000        0.000        0.000        0.000        0.000        0.000        0.000        2.000        0.000        2.000        0.000        4.000        0.000        0.000        0.000        4.494        0.000       95.506        0.000        0.000        1.982        2.047        2.338
     270.000  -258800.000    26145.153    15491.393    37723.021      119.991  -387644.826    49365.268       25.846       25.690        3.002        3.117        3.177        3.226        3.213        3.045        2.655        2.970        3.232        3.173        3.062        2.495        3.076        3.034        3.000        2.989        0.499        1.000        1.000        0.000        1.000        0.000        5.000        0.000        0.000        0.000        1.000        0.000        0.000        0.000        0.000        0.000        2.000        0.000        0.000        0.000        0.000        0.000        0.000        0.000        0.000        0.000        2.000        0.000        2.000        1.000        5.000        0.000        1.000        0.000        0.000        0.000      100.000        0.000        0.000        2.002        2.099        2.357
     280.000  -260094.107    25927.094    15634.620    37560.966      125.900  -389172.553    49829.867       25.914       25.766        2.948        3.092        3.140        3.278        3.180        3.037        2.627        3.008        3.190        3.268        3.072        2.568        3.066        3.037        3.018        2.999        0.483        1.000        1.000        0.000        0.000        0.000        5.000        0.000        0.000        0.000        0.000        0.000        0.000        0.000        0.000        0.000        1.000        0.000        0.000        0.000        0.000        0.000        0.000        0.000        0.000        0.000        1.000        0.000        1.000        0.000        4.000        0.000        0.000        0.000        4.494        0.000       95.506        0.000        0.000        2.018        2.094        2.443
     290.000  -259132.702    25510.861    15937.463    37554.134      111.074  -386272.399    48026.165       25.826       25.982        2.951        3.103        3.076        3.246        3.186        3.060        2.617        2.969        3.262        3.230        3.075        2.518        3.059        3.016        3.064        3.026        0.466        1.000        1.000        0.000        1.000        0.000        5.000        0.000        0.000        0.000        0.000        0.000        0.000        0.000        0.000        0.000        1.000        0.000        0.000        0.000        0.000        0.000        0.000        0.000        0.000        0.000        1.000        0.000        1.000        0.000        2.000        0.000        0.000        0.000        0.000        0.000      100.000        0.000        0.000        2.366        2.459        2.673
     300.000  -257540.375    26239.510    15804.450    37706.424      142.212  -385036.113    47603.141       25.991       26.263        2.891        3.004        3.142        3.249        3.188        3.003        2.593        3.044        3.177        3.278        2.972        2.531        3.051        3.027        3.015        2.995        0.512        1.000        0.000        0.000        1.000        0.000        4.000        0.000        0.000        0.000        1.000        0.000        0.000        0.000        0.000        0.000        0.000        0.000        0.000        0.000        0.000        0.000        0.000        0.000        0.000        0.000        0.000        0.000        0.000        1.000        4.000        0.000        0.000        0.000        0.000        0.000      100.000        0.000        0.000        2.367        2.421        2.819
     310.000  -258173.704    26972.275    15807.887    37591.652      121.456  -385249.604    46582.629       25.975       25.882        2.880        3.135        3.108        3.249        3.193        2.925        2.657        3.070        3.195        3.199        3.042        2.504        3.027        3.047        3.078        2.928        0.479        1.000        0.000        0.000        1.000        0.000        5.000        0.000        0.000        0.000        0.000        0.000        0.000        0.000        1.000        0.000        1.000        0.000        0.000        0.000        0.000        0.000        0.000        0.000        0.000        0.000        1.000        0.000        3.000        0.000        3.000        0.000        1.000        0.000        0.000        0.000      100.000        0.000        0.000        2.643        2.671        3.008
     320.000  -258259.260    25816.224    15458.682    37821.800      110.809  -384428.407    46961.631       26.153       26.002        2.952        3.051        3.109        3.261        3.163        2.973        2.607        3.033        3.207        3.226        3.066        2.508        3.044        3.014        3.024        3.001        0.496        1.000        1.000        0.000        1.000        0.000        4.000        0.000        0.000        0.000        0.000        0.000        0.000        0.000        0.000        0.000        1.000        0.000        0.000        0.000        0.000        0.000        0.000        0.000        0.000        0.000        1.000        0.000        2.000        1.000        2.000        0.000        0.000        0.000        0.000        0.000      100.000        0.000        0.000        2.380        2.406        2.639
     330.000  -258304.819    26067.354    15508.694    37620.590       87.496  -386729.608    49140.656       25.674       25.677        2.944        3.112        3.108        3.198        3.204        3.143        2.647        2.982        3.239        3.171        3.076        2.523        3.045        3.115        3.083        2.977        0.487        1.000        1.000        0.000        1.000        0.000        4.000        0.000        0.000        0.000        0.000        0.000        0.000        0.000        1.000        0.000        1.000        0.000        0.000        0.000        0.000        0.000        0.000        0.000        0.000        0.000        1.000        0.000        1.000        0.000        2.000        0.000        0.000        0.000        0.000        0.000      100.000        0.000        0.000        2.291        2.296        2.606
     340.000  -258616.498    25542.993    15413.948    37628.563      116.374  -385722.550    48404.173       25.743       25.742        2.897        3.106        3.123        3.193        3.160        3.051        2.675        3.122        3.217        3.232        3.007        2.533        3.040        3.049        3.072        2.966        0.479        1.000        0.000        0.000        1.000        0.000        6.000        0.000        0.000        0.000        0.000        0.000        0.000        0.000        0.000        0.000        0.000        0.000        0.000        0.000        0.000        0.000        0.000        0.000        0.000        0.000        1.000        0.000        1.000        0.000        3.000        0.000        1.000        0.000        0.000        0.000      100.000        0.000        0.000        2.295        2.321        2.579
     350.000  -258031.010    26136.900    15705.017    37594.027      101.843  -384487.513    46918.716       25.786       25.770        3.000        3.114        3.157        3.228        3.216        3.076        2.618        3.076        3.188        3.252        2.984        2.507        3.012        3.045        3.108        3.037        0.491        1.000        0.000        0.000        1.000        0.000        6.000        0.000        0.000        0.000        0.000        0.000        0.000        0.000        0.000        0.000        1.000        0.000        0.000        0.000        0.000        0.000        0.000        0.000        0.000        0.000        2.000        0.000        3.000        0.000        1.000        0.000        0.000        0.000        0.000        0.000      100.000        0.000        0.000        2.591        2.629        2.774
     360.000  -258785.606    27228.208    15527.172    37516.009      128.081  -385733.624    46548.549       25.868       25.817        3.066        3.070        3.136        3.225        3.161        3.066        2.637        3.017        3.181        3.227        3.019        2.544        3.039        3.073        3.082        3.050        0.475        1.000        0.000        0.000        0.000        0.000        4.000        0.000        0.000        0.000        0.000        0.000        0.000        0.000        3.000        0.000        0.000        0.000        0.000        0.000        0.000        0.000        0.000        0.000        0.000        0.000        1.000        0.000        2.000        0.000        5.000        0.000        1.000        0.000        0.000        0.000      100.000        0.000        0.000        2.315        2.348        2.591
     370.000  -258329.470    25792.012    15436.368    37588.226      134.758  -385857.334    48576.501       25.812       25.810        3.071        3.096        3.128        3.308        3.189        3.010        2.641        2.984        3.119        3.207        3.033        2.526        3.000        2.988        3.128        2.916        0.480        1.000        0.000        0.000        1.000        0.000        6.000        0.000        0.000        0.000        0.000        0.000        0.000        0.000        1.000        0.000        1.000        0.000        0.000        0.000        0.000        0.000        0.000        0.000        0.000        0.000        1.000        0.000        2.000        0.000        7.000        0.000        1.000        0.000        0.000        0.000      100.000        0.000        0.000        2.473        2.507        2.641
     380.000  -257791.698    25467.343    15336.561    37731.592      113.800  -384228.256    47787.263       25.978       26.102        3.106        3.082        3.105        3.250        3.179        3.103        2.631        2.988        3.168        3.234        3.047        2.523        3.098        2.994        3.187        3.021        0.458        1.000        0.000        0.000        1.000        0.000        5.000        0.000        0.000        0.000        1.000        0.000        0.000        1.000        0.000        0.000        2.000        0.000        0.000        0.000        0.000        0.000        0.000        0.000        0.000        0.000        1.000        0.000        2.000        0.000        4.000        0.000        0.000        0.000        0.000        0.000      100.000        0.000        0.000        2.760        2.810        2.927
     390.000  -258015.651    25876.419    15609.400    37619.692      145.495  -385909.969    48643.313       26.073       26.200        3.054        2.970        3.127        3.198        3.187        2.991        2.678        2.992        3.232        3.233        3.061        2.552        2.999        2.958        3.136        2.995        0.491        1.000        0.000        0.000        0.000        0.000        5.000        0.000        0.000        0.000        2.000        0.000        0.000        0.000        1.000        0.000        0.000        0.000        0.000        0.000        0.000        0.000        0.000        0.000        0.000        0.000        2.000        0.000        3.000        1.000        2.000        0.000        2.000        0.000        4.494        0.000       95.506        0.000        0.000        2.705        2.719        2.941
     400.000  -257875.533    24889.863    15351.024    37947.310      107.032  -384973.950    48803.188       25.967       25.891        3.030        3.019        3.124        3.207        3.136        3.040        2.623        2.992        3.229        3.193        3.036        2.565        3.016        3.060        3.056        3.078        0.500        1.000        0.000        0.000        1.000        0.000        4.000        0.000        0.000        0.000        1.000        0.000        0.000        0.000        1.000        0.000        2.000        0.000        0.000        0.000        0.000        0.000        0.000        0.000        0.000        0.000        1.000        0.000        2.000        0.000       10.000        0.000        1.000        0.000        0.000        0.000      100.000        0.000        0.000        2.377        2.389        2.648
     410.000  -258169.143    25986.380    15497.975    37492.395      117.799  -384818.965    47555.273       25.865       25.898        3.077        3.102        3.109        3.232        3.167        2.989        2.604        3.068        3.211        3.197        3.094        2.548        3.024        3.002        3.068        3.022        0.482        1.000        0.000        0.000        1.000        0.000        6.000        0.000        0.000        0.000        1.000        0.000        0.000        0.000        0.000        0.000        1.000        0.000        0.000        0.000        0.000        0.000        0.000        0.000        0.000        0.000        0.000        0.000        2.000        0.000        4.000        0.000        0.000        0.000        0.000        0.000      100.000        0.000        0.000        2.474        2.519        2.755
     420.000  -258214.720    26465.717    15258.445    37492.040       98.168  -384615.963    47086.873       25.886       25.891        2.983        3.160        3.147        3.251        3.156        2.988        2.681        3.012        3.207        3.328        3.061        2.564        3.035        2.994        3.064        2.940        0.487        1.000        0.000        0.000        0.000        0.000        5.000        0.000        0.000        0.000        1.000        0.000        0.000        0.000        1.000        0.000        2.000        0.000        0.000        0.000        0.000        0.000        0.000        0.000        0.000        0.000        1.000        0.000        1.000        1.000        5.000        0.000        0.000        0.000        0.000        0.000      100.000        0.000        0.000        2.026        2.053        2.388
     430.000  -257849.026    26301.634    15545.061    37283.453      125.102  -384780.337    47676.062       26.210       26.370        2.992        3.097        3.096        3.265        3.186        2.975        2.636        3.067        3.191        3.264        3.056        2.558        3.034        3.038        3.073        3.000        0.478        1.000        0.000        0.000        0.000        0.000        5.000        0.000        0.000        0.000        1.000        0.000        0.000        0.000        0.000        0.000        0.000        0.000        0.000        0.000        0.000        0.000        0.000        0.000        0.000        0.000        1.000        0.000        1.000        1.000        5.000        0.000        3.000        0.000        0.000        0.000      100.000        0.000        0.000        2.151        2.154        2.554
     440.000  -257595.571    27053.639    15494.077    37561.005      124.227  -384880.211    47051.692       25.893       26.200        3.100        3.077        3.086        3.245        3.159        2.966        2.669        3.059        3.238        3.250        3.045        2.532        2.997        3.042        3.058        3.016        0.485        1.000        0.000        0.000        0.000        0.000        5.000        0.000        0.000        0.000        0.000        0.000        0.000        0.000        0.000        0.000        1.000        0.000        0.000        0.000        0.000        0.000        0.000        0.000        0.000        1.000        0.000        0.000        1.000        1.000        5.000        0.000        0.000        0.000        0.000        0.000      100.000        0.000        0.000        1.949        1.936        2.493
     450.000  -258272.096    26583.537    15731.253    37405.180      115.235  -384839.954    46732.652       26.436       26.527        2.974        3.110        3.178        3.232        3.219        2.981        2.635        3.033        3.194        3.217        3.052        2.543        3.021        3.026        3.099        3.008        0.476        1.000        0.000        0.000        0.000        0.000        5.000        0.000        0.000        0.000        1.000        0.000        0.000        0.000        2.000        0.000        1.000        0.000        0.000        0.000        0.000        0.000        0.000        0.000        0.000        1.000        1.000        0.000        1.000        1.000        6.000        0.000        2.000        0.000        0.000        0.000      100.000        0.000        0.000        1.984        1.961        2.528
     460.000  -258122.714    25636.547    15521.886    37599.025      123.773  -385327.901    48323.956       26.191       26.394        3.133        3.037        3.162        3.244        3.211        3.014        2.606        3.007        3.161        3.226        3.048        2.553        3.053        3.066        3.123        2.953        0.479        1.000        0.000        0.000        0.000        0.000        5.000        0.000        0.000        0.000        2.000        0.000        0.000        1.000        0.000        0.000        0.000        0.000        0.000        0.000        0.000        0.000        0.000        0.000        0.000        1.000        0.000        0.000        1.000        1.000        7.000        0.000        2.000        0.000        0.000        0.000      100.000        0.000        0.000        1.970        1.951        2.554
     470.000  -258890.590    26657.990    15635.193    37567.538      108.781  -385902.637    47042.545       25.827       26.337        3.050        3.080        3.139        3.288        3.214        3.077        2.635        3.006        3.260        3.202        3.035        2.573        3.049        3.003        3.092        2.953        0.514        1.000        0.000        0.000        0.000        0.000        5.000        0.000        0.000        0.000        0.000        0.000        0.000        1.000        0.000        0.000        1.000        0.000        0.000        0.000        0.000        0.000        0.000        0.000        0.000        0.000        0.000        0.000        1.000        0.000        2.000        0.000        1.000        0.000        4.494        0.000       95.506        0.000        0.000        1.969        1.951        2.605
     480.000  -257537.891    25926.566    15211.555    37796.441      110.543  -384735.242    48152.246       26.005       26.053        2.983        3.113        3.157        3.226        3.169        3.062        2.569        3.071        3.237        3.218        3.081        2.466        3.058        3.019        3.081        3.006        0.511        1.000        0.000        0.000        0.000        0.000        5.000        0.000        0.000        0.000        1.000        0.000        0.000        0.000        1.000        0.000        1.000        0.000        0.000        0.000        0.000        0.000        0.000        0.000        0.000        1.000        0.000        0.000        3.000        1.000        5.000        0.000        0.000        0.000        4.494        0.000       95.506        0.000        0.000        2.233        2.232        2.805
     490.000  -257484.285    25464.623    15439.369    37700.477      120.729  -385589.672    49380.191       26.102       25.952        3.066        3.126        3.151        3.278        3.166        3.049        2.613        3.005        3.281        3.302        3.033        2.547        3.090        2.976        3.061        2.989        0.480        1.000        1.000        0.000        0.000        1.000        5.000        0.000        0.000        0.000        0.000        0.000        0.000        1.000        0.000        0.000        2.000        0.000        0.000        0.000        0.000        0.000        0.000        0.000        0.000        0.000        0.000        0.000        1.000        1.000        3.000        0.000        1.000        0.000        0.000        0.000      100.000        0.000        0.000        2.191        2.175        2.721
     500.000  -257836.223    25062.107    15295.227    37570.625      109.221  -384466.489    48593.086       26.112       26.143        3.051        3.125        3.170        3.265        3.122        3.015        2.618        3.068        3.177        3.297        3.002        2.536        3.055        3.022        3.053        2.892        0.493        1.000        1.000        0.000        0.000        1.000        5.000        0.000        0.000        0.000        1.000        0.000        0.000        0.000        0.000        0.000        2.000        0.000        0.000        0.000        0.000        0.000        0.000        0.000        0.000        0.000        1.000        0.000        0.000        1.000        5.000        0.000        3.000        0.000        4.494        0.000       95.506        0.000        0.000        2.165        2.158        2.772
     510.000  -257814.800    26976.463    15311.299    37582.288      123.524  -384362.629    46554.255       26.240       26.334        2.981        3.065        3.107        3.220        3.130        2.988        2.638        2.914        3.203        3.230        3.019        2.524        3.050        3.065        3.120        2.995        0.496        0.000        0.000        0.000        0.000        0.000        5.000        0.000        0.000        0.000        1.000        0.000        0.000        0.000        0.000        0.000        1.000        0.000        0.000        0.000        0.000        0.000        0.000        0.000        0.000        1.000        2.000        0.000        1.000        2.000        6.000        0.000        0.000        0.000        4.494        0.000       95.506        0.000        0.000        2.030        2.045        2.596
     520.000  -257655.338    25200.222    15380.076    37604.583       98.744  -383679.366    47740.402       26.043       26.282        2.960        3.029        3.188        3.258        3.138        3.119        2.588        2.960        3.218        3.226        2.994        2.469        3.007        3.001        3.124        2.948        0.491        0.000        0.000        0.000        0.000        0.000        6.000        0.000        0.000        0.000        1.000        0.000        0.000        0.000        0.000        0.000        2.000        0.000        0.000        0.000        0.000        0.000        0.000        0.000        0.000        0.000        1.000        0.000        2.000        2.000        6.000        0.000        1.000        0.000        7.865        0.000       92.135        0.000        0.000        1.805        1.816        2.582
     530.000  -257624.277    25294.584    15231.775    37760.547      135.723  -383699.969    47653.063       26.192       26.136        3.064        3.123        3.100        3.227        3.151        3.081        2.635        2.925        3.188        3.280        2.972        2.489        3.012        3.029        3.185        2.956        0.494        0.000        0.000        0.000        0.000        1.000        6.000        0.000        0.000        0.000        0.000        0.000        0.000        0.000        0.000        0.000        0.000        0.000        0.000        0.000        0.000        0.000        0.000        0.000        0.000        1.000        1.000        0.000        1.000        1.000        3.000        0.000        1.000        0.000        0.000        0.000      100.000        0.000        0.000        2.095        2.099        2.905
     540.000  -257638.758    25952.714    15318.921    37518.605      111.590  -383316.658    46776.070       26.077       26.168        2.964        3.075        3.210        3.233        3.154        3.030        2.601        3.036        3.202        3.265        3.053        2.530        3.039        3.043        3.225        3.027        0.480        0.000        0.000        0.000        0.000        1.000        5.000        0.000        0.000        0.000        1.000        0.000        0.000        0.000        1.000        0.000        1.000        0.000        0.000        0.000        0.000        0.000        0.000        0.000        0.000        1.000        1.000        0.000        1.000        1.000        4.000        0.000        0.000        0.000        0.000        0.000      100.000        0.000        0.000        2.148        2.149        2.850
     550.000  -257764.917    26306.100    15718.068    37586.516      107.852  -385168.413    47684.960       26.028       26.098        3.051        3.091        3.168        3.225        3.165        3.155        2.619        2.987        3.200        3.240        3.022        2.539        2.981        3.021        3.187        2.961        0.466        0.000        0.000        0.000        0.000        1.000        6.000        0.000        0.000        0.000        0.000        0.000        0.000        0.000        2.000        0.000        0.000        0.000        0.000        0.000        0.000        0.000        0.000        0.000        0.000        0.000        0.000        0.000        2.000        0.000        4.000        0.000        0.000        0.000        0.000        0.000      100.000        0.000        0.000        1.895        1.918        2.651
     560.000  -257416.337    25255.394    15164.056    37514.957      128.367  -383956.520    48477.409       26.221       26.034        3.141        3.091        3.061        3.213        3.252        3.046        2.604        3.001        3.250        3.242        3.048        2.508        3.065        3.011        3.180        3.009        0.454        0.000        0.000        0.000        0.000        0.000        6.000        0.000        0.000        0.000        2.000        0.000        0.000        0.000        2.000        0.000        1.000        0.000        0.000        0.000        0.000        0.000        0.000        0.000        0.000        0.000        1.000        0.000        1.000        2.000        4.000        0.000        1.000        0.000        0.000        0.000      100.000        0.000        0.000        2.137        2.145        2.903
     570.000  -257198.318    26009.983    15226.885    37759.180      146.868  -382804.331    46463.097       26.086       26.129        3.026        3.183        3.147        3.231        3.128        2.987        2.692        2.996        3.197        3.285        3.055        2.495        2.984        3.022        3.196        2.965        0.503        0.000        0.000        0.000        0.000        0.000        6.000        0.000        0.000        0.000        2.000        0.000        0.000        0.000        2.000        0.000        1.000        0.000        0.000        0.000        0.000        0.000        0.000        0.000        0.000        0.000        3.000        0.000        1.000        0.000        5.000        0.000        1.000        0.000        0.000        0.000      100.000        0.000        0.000        1.963        1.992        2.738
     580.000  -257937.299    25394.811    15094.878    37525.343      141.190  -383688.463    47594.941       26.069       26.083        2.988        3.121        3.113        3.235        3.163        3.137        2.658        2.996        3.188        3.281        3.043        2.494        3.006        3.040        3.200        2.951        0.488        0.000        0.000        0.000        0.000        0.000        6.000        0.000        0.000        0.000        0.000        0.000        0.000        0.000        0.000        0.000        0.000        0.000        0.000        0.000        0.000        0.000        0.000        0.000        0.000        1.000        1.000        0.000        1.000        2.000        6.000        0.000        2.000        0.000        0.000        0.000      100.000        0.000        0.000        1.942        1.989        2.865
     590.000  -257482.458    26656.658    15578.661    37177.231      116.215  -382776.454    45765.231       26.208       26.091        3.096        3.095        3.068        3.291        3.186        3.046        2.653        2.887        3.231        3.269        3.030        2.525        2.993        2.994        3.254        2.899        0.490        0.000        0.000        0.000        0.000        0.000        6.000        0.000        0.000        0.000        0.000        0.000        0.000        0.000        1.000        0.000        0.000        0.000        0.000        0.000        0.000        0.000        0.000        0.000        0.000        0.000        0.000        0.000        1.000        1.000        3.000        0.000        0.000        0.000        0.000        0.000      100.000        0.000        0.000        1.991        1.991        2.870
     600.000  -257754.622    25999.057    15027.616    37538.364      123.508  -383986.588    47543.420       26.181       26.185        3.115        3.071        3.140        3.189        3.199        3.035        2.666        2.995        3.261        3.226        3.045        2.452        3.013        3.047        3.162        2.901        0.468        0.000        0.000        0.000        0.000        0.000        6.000        0.000        0.000        0.000        0.000        0.000        0.000        1.000        1.000        0.000        0.000        0.000        0.000        0.000        0.000        0.000        0.000        0.000        0.000        0.000        3.000        0.000        2.000        1.000        2.000        0.000        1.000        0.000        0.000        0.000      100.000        0.000        0.000        2.131        2.107        3.110
     610.000  -257601.683    25594.291    15733.977    37621.658      155.062  -385051.186    48344.514       26.189       26.303        3.083        3.075        3.087        3.171        3.240        3.030        2.666        2.940        3.249        3.280        3.008        2.492        2.994        3.006        3.172        2.877        0.501        0.000        0.000        0.000        0.000        0.000        6.000        0.000        0.000        0.000        0.000        0.000        1.000        0.000        3.000        0.000        0.000        0.000        0.000        0.000        0.000        0.000        0.000        0.000        0.000        0.000        1.000        0.000        1.000        1.000        3.000        0.000        0.000        0.000        0.000        0.000      100.000        0.000        0.000        2.518        2.498        3.503
     620.000  -257454.142    25411.096    15754.172    37522.709      119.145  -383918.144    47656.881       26.029       26.161        3.073        3.096        3.110        3.156        3.171        3.002        2.600        3.003        3.181        3.286        3.079        2.531        3.064        3.031        3.137        2.927        0.484        0.000        0.000        0.000        0.000        0.000        4.000        0.000        0.000        0.000        0.000        0.000        0.000        0.000        1.000        0.000        1.000        0.000        0.000        0.000        0.000        0.000        0.000        0.000        0.000        1.000        4.000        0.000        0.000        1.000        6.000        0.000        1.000        0.000        0.000        0.000      100.000        0.000        0.000        2.311        2.317        3.324
     630.000  -258207.460    25924.432    15016.882    37428.079      103.561  -383884.725    47204.311       26.101       26.152        3.026        3.128        3.125        3.194        3.149        3.050        2.670        2.960        3.165        3.246        3.013        2.496        3.050        3.049        3.192        3.001        0.512        0.000        0.000        0.000        0.000        0.000        6.000        0.000        0.000        0.000        0.000        0.000        0.000        0.000        1.000        0.000        0.000        0.000        0.000        0.000        0.000        0.000        0.000        0.000        0.000        0.000        3.000        0.000        2.000        0.000        6.000        0.000        4.000        0.000        0.000        0.000      100.000        0.000        0.000        2.027        2.015        3.321
     640.000  -257385.318    25461.187    15377.824    37625.428      135.524  -384285.468    48300.188       26.171       26.194        3.066        3.165        3.130        3.234        3.174        3.000        2.633        3.100        3.200        3.237        3.015        2.532        3.045        3.014        3.182        2.886        0.494        0.000        0.000        0.000        0.000        0.000        5.000        0.000        0.000        0.000        0.000        0.000        0.000        0.000        0.000        0.000        0.000        0.000        0.000        0.000        0.000        0.000        0.000        0.000        0.000        1.000        1.000        0.000        1.000        0.000        6.000        0.000        3.000        0.000        0.000        0.000      100.000        0.000        0.000        2.107        2.077        3.331
     650.000  -256818.162    26976.822    15694.480    37645.859      123.543  -383048.537    45789.671       26.248       26.014        3.076        3.130        3.146        3.240        3.146        3.087        2.647        2.933        3.185        3.230        3.054        2.479        2.957        3.022        3.205        2.892        0.457        0.000        0.000        0.000        0.000        0.000        6.000        0.000        0.000        0.000        0.000        0.000        0.000        0.000        1.000        0.000        0.000        0.000        0.000        0.000        0.000        0.000        0.000        0.000        0.000        0.000        2.000        0.000        2.000        1.000        9.000        0.000        2.000        0.000        0.000        0.000      100.000        0.000        0.000        1.756        1.747        3.069
     660.000  -256987.330    25830.020    14989.559    37660.383      125.274  -382865.288    47272.722       25.769       25.911        2.954        3.045        3.136        3.185        3.179        3.028        2.640        2.997        3.227        3.264        3.031        2.461        3.045        3.022        3.179        2.833        0.486        0.000        0.000        0.000        0.000        0.000        5.000        0.000        0.000        0.000        0.000        0.000        0.000        0.000        0.000        0.000        1.000        0.000        0.000        0.000        0.000        0.000        0.000        0.000        0.000        2.000        1.000        0.000        3.000        1.000        8.000        0.000        0.000        0.000        0.000        0.000      100.000        0.000        0.000        1.818        1.813        3.028
     670.000  -257686.400    26083.658    15120.177    37618.084      116.570  -383666.724    47041.835       25.872       25.918        2.780        3.101        3.127        3.244        3.222        2.999        2.665        3.040        3.284        3.247        3.080        2.507        3.053        3.006        3.144        2.911        0.479        0.000        0.000        0.000        0.000        0.000        6.000        0.000        0.000        0.000        0.000        0.000        0.000        0.000        1.000        0.000        1.000        0.000        0.000        0.000        0.000        0.000        0.000        0.000        0.000        0.000        0.000        0.000        1.000        2.000        6.000        0.000        1.000        0.000        0.000        0.000      100.000        0.000        0.000        1.870        1.912        3.068
     680.000  -257755.638    25837.582    15476.140    37622.900      110.829  -384262.038    47458.949       25.691       25.959        2.826        3.048        3.148        3.249        3.211        3.070        2.614        2.985        3.249        3.342        3.078        2.505        3.022        3.029        3.187        2.903        0.484        0.000        0.000        0.000        0.000        0.000        6.000        0.000        0.000        0.000        0.000        0.000        0.000        0.000        2.000        0.000        1.000        0.000        0.000        0.000        0.000        0.000        0.000        0.000        0.000        1.000        0.000        0.000        1.000        1.000        6.000        0.000        2.000        0.000        0.000        0.000      100.000        0.000        0.000        2.108        2.112        3.269
     690.000  -257562.367    24982.950    15413.330    37683.879      121.028  -383527.814    47764.259       26.078       26.120        2.929        3.018        3.130        3.249        3.214        3.044        2.673        2.960        3.215        3.316        3.040        2.468        2.959        3.032        3.161        2.886        0.480        0.000        0.000        0.000        0.000        0.000        7.000        0.000        0.000        0.000        0.000        0.000        0.000        0.000        1.000        0.000        1.000        0.000        0.000        0.000        0.000        0.000        0.000        0.000        0.000        0.000        0.000        0.000        1.000        1.000        4.000        0.000        0.000        0.000        0.000        0.000      100.000        0.000        0.000        2.180        2.176        3.288
     700.000  -257557.091    25151.460    15509.301    37616.481      140.805  -384402.107    48426.968       25.961       25.882        2.772        3.038        3.157        3.213        3.214        3.044        2.627        2.997        3.248        3.269        3.086        2.492        3.042        3.025        3.228        2.888        0.493        0.000        0.000        0.000        0.000        0.000        6.000        0.000        0.000        0.000        0.000        0.000        0.000        0.000        1.000        0.000        1.000        0.000        0.000        0.000        0.000        0.000        0.000        0.000        0.000        0.000        0.000        0.000        0.000        0.000        3.000        0.000        0.000        0.000        0.000        0.000      100.000        0.000        0.000        2.135        2.146        3.304
     710.000  -257250.745    25234.770    15370.665    37543.048      123.617  -383784.623    48261.777       26.134       25.943        2.879        3.118        3.102        3.190        3.204        3.007        2.634        2.983        3.247        3.267        3.076        2.448        3.065        3.007        3.154        2.929        0.493        0.000        0.000        0.000        0.000        0.000        5.000        0.000        0.000        0.000        0.000        0.000        0.000        0.000        1.000        0.000        1.000        0.000        0.000        0.000        0.000        0.000        0.000        0.000        0.000        0.000        0.000        0.000        1.000        0.000        2.000        0.000        0.000        0.000        0.000        0.000      100.000        0.000        0.000        2.329        2.331        3.586
     720.000  -257811.831    26346.491    15510.164    37348.021      107.709  -383883.424    46759.208       26.335       26.027        2.825        3.107        3.153        3.229        3.226        3.101        2.656        2.998        3.219        3.303        3.033        2.495        2.990        2.982        3.156        2.927        0.481        0.000        0.000        0.000        0.000        0.000        5.000        0.000        0.000        0.000        0.000        0.000        0.000        0.000        0.000        0.000        1.000        0.000        0.000        0.000        0.000        0.000        0.000        0.000        0.000        0.000        0.000        0.000        2.000        0.000        6.000        0.000        0.000        0.000        0.000        0.000      100.000        0.000        0.000        2.438        2.441        3.715
     730.000  -257385.428    25772.042    15216.015    37396.060      118.655  -381693.162    45804.962       26.067       26.266        2.761        3.004        3.139        3.215        3.183        2.976        2.668        3.004        3.187        3.278        3.044        2.475        3.080        2.982        3.196        2.924        0.491        0.000        0.000        0.000        0.000        0.000        6.000        0.000        0.000        0.000        0.000        0.000        0.000        0.000        2.000        0.000        0.000        0.000        0.000        0.000        0.000        0.000        0.000        0.000        0.000        0.000        0.000        0.000        1.000        1.000        6.000        0.000        0.000        0.000        0.000        0.000      100.000        0.000        0.000        2.471        2.474        3.771
     740.000  -257242.848    25736.013    15211.812    37526.621      110.311  -382869.552    47041.947       25.956       26.084        2.837        2.892        3.140        3.231        3.198        3.035        2.666        3.005        3.175        3.249        3.064        2.483        3.028        2.947        3.186        2.970        0.507        0.000        0.000        0.000        0.000        0.000        6.000        0.000        0.000        0.000        0.000        0.000        0.000        0.000        1.000        0.000        0.000        0.000        0.000        0.000        0.000        0.000        0.000        0.000        0.000        0.000        1.000        0.000        1.000        2.000        4.000        0.000        0.000        0.000        0.000        0.000      100.000        0.000        0.000        2.250        2.232        3.724
     750.000  -257943.847    25467.589    14883.353    37704.355      123.929  -382851.729    46728.655       26.447       26.252        2.783        3.054        3.168        3.170        3.158        2.998        2.629        2.978        3.180        3.258        3.011        2.427        3.054        2.978        3.220        3.006        0.486        0.000        0.000        0.000        0.000        0.000        6.000        0.000        0.000        0.000        0.000        0.000        0.000        0.000        1.000        0.000        2.000        0.000        0.000        0.000        0.000        0.000        0.000        0.000        0.000        1.000        1.000        0.000        0.000        0.000        5.000        0.000        0.000        0.000        0.000        0.000      100.000        0.000        0.000        2.061        2.044        3.377
     760.000  -257324.969    25423.220    15362.055    37665.483      112.333  -384645.976    48757.915       26.159       26.146        2.738        2.903        3.081        3.216        3.195        3.099        2.615        3.016        3.277        3.287        2.998        2.525        2.981        2.967        3.150        2.950        0.478        0.000        0.000        0.000        0.000        0.000        5.000        0.000        0.000        0.000        1.000        0.000        0.000        0.000        0.000        0.000        0.000        0.000        0.000        0.000        0.000        0.000        0.000        0.000        0.000        1.000        1.000        0.000        1.000        0.000        5.000        0.000        0.000        0.000        0.000        0.000      100.000        0.000        0.000        2.038        2.007        3.483
     770.000  -258560.753    26996.964    15538.801    37463.100      126.463  -384607.728    45921.647       26.132       26.113        2.903        3.004        3.162        3.318        3.167        3.127        2.640        2.984        3.265        3.314        3.122        2.484        3.046        2.924        3.192        2.964        0.482        0.000        0.000        0.000        0.000        1.000        3.000        0.000        0.000        0.000        1.000        0.000        0.000        0.000        1.000        0.000        2.000        0.000        0.000        0.000        0.000        0.000        0.000        0.000        0.000        0.000        0.000        0.000        2.000        1.000        7.000        0.000        3.000        0.000        0.000        0.000      100.000        0.000        0.000        2.302        2.286        3.646
     780.000  -257497.727    25978.149    15484.695    37682.204      115.727  -383928.878    47170.376       25.859       25.738        2.825        3.001        3.123        3.272        3.203        3.012        2.643        2.964        3.249        3.229        3.030        2.481        3.009        2.962        3.113        3.005        0.483        0.000        0.000        0.000        0.000        1.000        4.000        0.000        0.000        0.000        0.000        0.000        0.000        0.000        1.000        0.000        1.000        0.000        0.000        0.000        0.000        0.000        0.000        0.000        0.000        0.000        0.000        0.000        1.000        0.000        6.000        0.000        1.000        0.000        0.000        0.000      100.000        0.000        0.000        2.075        2.075        3.493
     790.000  -258055.299    25366.431    15452.476    37649.548      103.754  -384759.563    48132.055       25.746       25.788        2.865        2.973        3.106        3.238        3.174        2.998        2.633        2.985        3.215        3.287        3.068        2.502        3.057        3.008        3.132        2.967        0.480        0.000        0.000        0.000        0.000        1.000        4.000        0.000        0.000        0.000        0.000        0.000        0.000        1.000        1.000        0.000        0.000        0.000        0.000        0.000        0.000        0.000        0.000        0.000        0.000        1.000        2.000        0.000        2.000        3.000        2.000        0.000        2.000        0.000        0.000        0.000      100.000        0.000        0.000        2.834        2.845        4.115
     800.000  -257818.712    25100.373    15171.172    37271.828      127.367  -385093.138    49603.685       25.581       25.474        2.843        3.020        3.122        3.248        3.242        3.089        2.631        2.976        3.206        3.258        3.068        2.532        3.077        3.016        3.050        2.964        0.491        0.000        0.000        0.000        0.000        1.000        4.000        0.000        0.000        0.000        1.000        0.000        0.000        0.000        0.000        0.000        0.000        0.000        0.000        0.000        0.000        0.000        0.000        0.000        0.000        0.000        2.000        0.000        1.000        3.000        3.000        0.000        2.000        0.000        0.000        0.000      100.000        0.000        0.000        2.823        2.813        4.139
     810.000  -257521.869    26194.272    15431.601    37606.721      113.049  -382984.246    46116.734       25.672       25.820        2.969        3.014        3.115        3.265        3.193        3.061        2.636        2.995        3.260        3.243        3.075        2.502        3.043        2.997        3.205        2.992        0.484        0.000        0.000        0.000        0.000        1.000        4.000        0.000        0.000        0.000        0.000        0.000        0.000        0.000        1.000        0.000        0.000        0.000        0.000        0.000        0.000        0.000        0.000        0.000        0.000        0.000        1.000        0.000        2.000        4.000        5.000        0.000        2.000        0.000        0.000        0.000      100.000        0.000        0.000        2.378        2.404        3.575
     820.000  -257490.944    24333.553    15248.002    37561.906      114.625  -383274.151    48525.122       25.587       25.795        2.962        3.039        3.092        3.256        3.172        2.971        2.664        2.925        3.261        3.281        3.041        2.502        3.019        3.012        3.174        3.003        0.487        0.000        0.000        0.000        0.000        1.000        4.000        0.000        0.000        0.000        1.000        0.000        0.000        0.000        1.000        0.000        1.000        0.000        0.000        0.000        0.000        0.000        0.000        0.000        0.000        0.000        0.000        0.000        1.000        2.000        4.000        0.000        4.000        0.000        0.000        0.000      100.000        0.000        0.000        2.188        2.205        3.562
     830.000  -256753.046    26010.816    15088.805    37607.507      119.747  -382603.260    47023.340       25.628       25.902        2.967        3.076        3.109        3.227        3.230        2.968        2.677        3.025        3.262        3.220        3.109        2.488        3.083        2.982        3.096        2.994        0.490        0.000        0.000        0.000        0.000        1.000        4.000        0.000        0.000        0.000        1.000        0.000        0.000        0.000        1.000        0.000        1.000        0.000        0.000        0.000        0.000        0.000        0.000        0.000        0.000        0.000        2.000        0.000        2.000        1.000        7.000        0.000        3.000        0.000        0.000        0.000      100.000        0.000        0.000        2.063        2.102        3.307
     840.000  -257329.464    24869.951    15635.233    37758.026      111.413  -383377.048    47672.960       25.721       25.970        2.754        3.017        3.070        3.245        3.172        2.948        2.676        2.938        3.235        3.269        3.094        2.510        3.049        3.003        3.130        2.983        0.503        0.000        0.000        0.000        0.000        1.000        4.000        0.000        0.000        0.000        2.000        0.000        0.000        0.000        0.000        0.000        0.000        0.000        0.000        0.000        0.000        0.000        0.000        0.000        0.000        0.000        1.000        0.000        1.000        2.000        7.000        0.000        6.000        0.000        0.000        0.000      100.000        0.000        0.000        2.026        2.046        3.184
     850.000  -257318.877    25431.833    15288.014    37761.030      145.950  -382650.328    46704.623       25.808       25.814        2.784        3.041        3.045        3.225        3.244        2.988        2.644        2.960        3.230        3.231        3.078        2.496        3.067        3.028        3.051        2.957        0.510        0.000        0.000        0.000        0.000        1.000        4.000        0.000        0.000        0.000        0.000        0.000        0.000        0.000        2.000        0.000        1.000        0.000        0.000        0.000        0.000        0.000        0.000        0.000        0.000        0.000        1.000        0.000        2.000        2.000        2.000        0.000        3.000        0.000        0.000        0.000      100.000        0.000        0.000        2.015        2.057        3.108
     860.000  -257527.305    26963.843    15007.271    37649.180      107.588  -383388.500    46133.313       25.909       26.060        2.742        3.068        3.148        3.238        3.208        3.059        2.585        2.978        3.239        3.319        3.035        2.485        3.049        3.009        3.046        2.989        0.476        0.000        0.000        0.000        0.000        1.000        4.000        0.000        0.000        0.000        1.000        0.000        0.000        0.000        0.000        0.000        0.000        0.000        0.000        0.000        0.000        0.000        0.000        0.000        0.000        0.000        0.000        0.000        1.000        3.000        6.000        0.000        2.000        0.000        0.000        0.000      100.000        0.000        0.000        2.517        2.553        3.525
     870.000  -257101.000    25952.752    15061.162    37502.467      128.812  -382176.949    46430.755       25.570       25.912        2.819        2.912        3.111        3.224        3.187        3.032        2.624        3.034        3.216        3.247        3.066        2.477        3.053        3.010        3.069        2.866        0.498        0.000        0.000        0.000        0.000        1.000        4.000        0.000        0.000        0.000        1.000        0.000        0.000        0.000        1.000        0.000        0.000        0.000        0.000        0.000        0.000        0.000        0.000        0.000        0.000        0.000        1.000        0.000        1.000        0.000        4.000        0.000        2.000        0.000        0.000        0.000      100.000        0.000        0.000        2.076        2.138        3.203
     880.000  -257753.933    25714.534    15013.547    37672.735      149.647  -385699.833    49395.437       25.770       26.050        3.005        3.028        3.090        3.300        3.219        2.988        2.657        3.023        3.254        3.244        3.037        2.481        3.041        2.996        3.162        3.027        0.493        0.000        0.000        0.000        0.000        1.000        5.000        0.000        0.000        0.000        0.000        0.000        0.000        0.000        1.000        0.000        1.000        0.000        0.000        0.000        0.000        0.000        0.000        0.000        0.000        0.000        1.000        0.000        2.000        1.000        8.000        0.000        3.000        0.000        0.000        0.000      100.000        0.000        0.000        2.751        2.835        3.522
     890.000  -258080.764    26071.320    15237.245    37594.968      127.717  -384372.316    47260.303       25.943       26.182        3.025        3.000        3.187        3.199        3.203        3.011        2.646        2.945        3.271        3.291        3.033        2.524        3.045        3.033        3.177        2.983        0.491        0.000        0.000        0.000        0.000        1.000        4.000        0.000        0.000        0.000        0.000        0.000        0.000        0.000        1.000        0.000        2.000        0.000        0.000        0.000        0.000        0.000        0.000        0.000        0.000        0.000        1.000        0.000        1.000        0.000        5.000        0.000        2.000        0.000        0.000        0.000      100.000        0.000        0.000        2.663        2.744        3.345
     900.000  -257571.324    25224.526    15348.510    37777.979      112.732  -384489.308    48454.236       25.617       26.046        3.096        3.104        3.150        3.208        3.165        3.047        2.617        3.019        3.233        3.270        3.004        2.459        2.997        2.995        3.114        2.998        0.479        0.000        0.000        0.000        0.000        1.000        4.000        0.000        0.000        0.000        0.000        0.000        0.000        0.000        3.000        0.000        1.000        0.000        0.000        0.000        0.000        0.000        0.000        0.000        0.000        0.000        1.000        0.000        0.000        0.000        7.000        0.000        3.000        0.000        0.000        0.000      100.000        0.000        0.000        1.978        2.014        3.030
     910.000  -258249.642    26260.914    15486.140    37391.650      105.180  -384074.684    46581.157       25.956       26.127        3.030        3.174        3.149        3.145        3.197        2.969        2.623        2.976        3.246        3.283        3.038        2.476        2.977        3.011        3.161        2.997        0.474        0.000        0.000        0.000        0.000        1.000        5.000        0.000        0.000        0.000        0.000        0.000        0.000        0.000        2.000        0.000        0.000        0.000        0.000        0.000        0.000        0.000        0.000        0.000        0.000        0.000        0.000        0.000        0.000        0.000        5.000        0.000        1.000        0.000        0.000        0.000      100.000        0.000        0.000        1.971        2.001        3.093
     920.000  -257754.488    26125.971    15620.100    37816.404      104.268  -385827.101    48405.871       25.917       26.039        2.975        3.049        3.180        3.235        3.214        3.006        2.639        2.976        3.266        3.270        3.077        2.498        3.075        3.041        3.147        2.951        0.494        0.000        0.000        0.000        0.000        1.000        5.000        0.000        0.000        0.000        0.000        0.000        0.000        0.000        0.000        0.000        0.000        0.000        0.000        0.000        0.000        0.000        0.000        0.000        0.000        1.000        3.000        0.000        1.000        0.000        4.000        0.000        0.000        0.000        0.000        0.000      100.000        0.000        0.000        1.997        2.032        3.038
     930.000  -257812.025    25652.662    15173.198    37557.143      149.107  -383031.598    46687.463       26.062       26.184        3.082        3.101        3.188        3.286        3.202        2.965        2.659        3.031        3.215        3.270        3.014        2.464        3.049        3.021        3.137        2.969        0.498        0.000        0.000        0.000        0.000        1.000        5.000        0.000        0.000        0.000        0.000        0.000        0.000        1.000        1.000        0.000        0.000        0.000        0.000        0.000        0.000        0.000        0.000        0.000        0.000        0.000        1.000        0.000        2.000        3.000        3.000        0.000        1.000        0.000        0.000        0.000      100.000        0.000        0.000        2.150        2.207        3.354
     940.000  -257941.088    25289.120    15233.988    37861.420      118.887  -383426.215    46981.712       26.108       25.970        3.044        3.010        3.162        3.225        3.223        3.008        2.624        3.007        3.233        3.223        3.023        2.472        2.981        2.982        3.191        3.022        0.480        0.000        0.000        0.000        0.000        1.000        5.000        0.000        0.000        0.000        0.000        0.000        0.000        0.000        2.000        0.000        1.000        0.000        0.000        0.000        0.000        0.000        0.000        0.000        0.000        1.000        2.000        0.000        1.000        1.000        3.000        0.000        1.000        0.000        0.000        0.000      100.000        0.000        0.000        2.290        2.325        3.252
     950.000  -257415.292    26407.586    15485.605    37381.160      119.148  -383258.527    46449.735       26.447       26.376        3.066        3.076        3.108        3.244        3.162        3.077        2.638        2.972        3.288        3.245        3.078        2.520        3.055        2.994        3.225        2.982        0.483        0.000        0.000        0.000        0.000        1.000        5.000        0.000        0.000        0.000        0.000        0.000        0.000        0.000        3.000        0.000        0.000        0.000        0.000        0.000        0.000        0.000        0.000        0.000        0.000        0.000        0.000        0.000        1.000        1.000        5.000        0.000        1.000        0.000        0.000        0.000      100.000        0.000        0.000        2.096        2.125        3.102
     960.000  -257544.956    25349.099    15298.408    37709.798      106.742  -384610.947    48601.945       26.018       26.070        2.962        3.072        3.199        3.293        3.171        2.970        2.635        2.937        3.193        3.301        3.023        2.527        3.092        2.962        3.189        2.946        0.464        0.000        0.000        0.000        0.000        1.000        4.000        0.000        0.000        0.000        0.000        0.000        0.000        0.000        0.000        0.000        0.000        0.000        0.000        0.000        0.000        0.000        0.000        0.000        0.000        1.000        1.000        0.000        1.000        2.000        6.000        0.000        2.000        0.000        0.000        0.000      100.000        0.000        0.000        1.864        1.899        2.948
     970.000  -258206.612    25578.425    15241.872    37723.925      127.911  -384709.271    47830.526       26.063       26.124        3.106        3.112        3.184        3.196        3.185        2.986        2.644        3.044        3.205        3.265        2.989        2.480        3.075        2.915        3.174        2.997        0.482        0.000        0.000        0.000        0.000        1.000        5.000        0.000        0.000        0.000        0.000        0.000        0.000        0.000        0.000        0.000        0.000        0.000        0.000        0.000        0.000        0.000        0.000        0.000        0.000        0.000        2.000        0.000        0.000        0.000        8.000        0.000        1.000        0.000        0.000        0.000      100.000        0.000        0.000        1.817        1.845        2.867
     980.000  -257840.188    25465.652    15124.371    37834.453      100.085  -385303.465    48938.716       26.012       26.249        3.042        3.045        3.114        3.202        3.206        3.024        2.677        3.024        3.220        3.280        3.028        2.493        3.091        2.951        3.169        2.986        0.488        0.000        0.000        0.000        0.000        1.000        5.000        0.000        0.000        0.000        0.000        0.000        0.000        0.000        2.000        0.000        0.000        0.000        0.000        0.000        0.000        0.000        0.000        0.000        0.000        1.000        1.000        0.000        0.000        1.000        5.000        0.000        2.000        0.000        4.494        0.000       95.506        0.000        0.000        2.085        2.131        2.950
     990.000  -258699.052    25299.413    15290.410    37719.482      146.087  -385603.743    48449.299       25.819       25.985        3.130        3.075        3.091        3.161        3.218        2.989        2.680        3.013        3.217        3.290        3.024        2.467        3.048        2.909        3.168        2.984        0.477        0.000        0.000        0.000        0.000        1.000        6.000        0.000        0.000        0.000        0.000        0.000        0.000        0.000        1.000        0.000        0.000        0.000        0.000        0.000        0.000        0.000        0.000        0.000        0.000        1.000        1.000        0.000        0.000        0.000        4.000        0.000        2.000        0.000        4.494        0.000       95.506        0.000        0.000        1.952        1.993        2.724
    1000.000  -258408.213    26398.160    15190.178    37562.529      127.742  -385089.784    47402.961       25.875       25.976        3.125        3.150        3.110        3.120        3.244        2.961        2.690        3.039        3.216        3.298        3.056        2.504        3.042        2.981        3.255        3.071        0.473        0.000        0.000        0.000        0.000        1.000        5.000        0.000        0.000        0.000        0.000        0.000        0.000        0.000        1.000        0.000        1.000        0.000        0.000        0.000        0.000        0.000        0.000        0.000        0.000        0.000        1.000        0.000        0.000        1.000        1.000        0.000        4.000        0.000        4.494        0.000       95.506        0.000        0.000        1.956        2.008        2.845
     Average  -259504.427    26163.929    15414.636    37596.817      117.180  -387040.231    48243.243       25.938       25.990        2.970        3.081        3.125        3.235        3.188        3.027        2.642        3.014        3.219        3.257        3.046        2.539        3.033        3.016        3.121        2.975        0.485        0.455        0.109        0.000        0.287        0.624        5.069        0.000        0.000        0.000        0.356        0.000        0.010        0.119        0.851        0.000        0.812        0.000        0.000        0.000        0.000        0.000        0.000        0.000        0.000        0.267        0.990        0.000        1.436        0.723        4.188        0.000        1.129        0.000        0.790        0.000       99.210        0.000        0.000        2.131        2.161        2.812

