____Time[ps] Energy[ kJ/mol ]_____Bond _______Angle ____Dihedral ___Planarity _____Coulomb _________VdW _Your result _Your result _Your result _Your result _Your result _Your result _Your result _Your result _Your result _Your result _Your result _Your result _Your result _Your result _Your result _Your result _Your result _Your result _Your result _Your result _Your result _Your result _Your result _Your result _Your result _Your result _Your result _Your result _Your result _Your result _Your result _Your result _Your result _Your result _Your result _Your result _Your result _Your result _Your result _Your result _Your result _Your result _Your result _Your result _Your result _Your result _Your result _Your result _Your result _Your result _Your result _Your result _Your result _Your result _Your result _Your result _Your result _RMSDs[A]:CA ____Backbone __HeavyAtoms
       0.000  -347409.187     8069.104     5107.481    39367.387       17.119  -467072.586    67102.307       25.306       25.257        2.552        2.610        2.570        2.692        2.645        2.513        2.706        2.460        2.698        2.679        2.668        2.616        2.480        2.578        2.650        2.632        0.490        1.000        1.000        0.000        1.000        1.000        3.000        0.000        0.000        0.000        0.000        0.000        0.000        0.000        0.000        0.000        0.000        0.000        0.000        0.000        1.000        0.000        0.000        0.000        0.000        0.000        4.000        0.000        1.000        1.000        6.000        0.000        1.000        0.000        0.000        0.000      100.000        0.000        0.000        0.467        0.492        0.716
      10.000  -261290.889    30180.269    15053.950    39236.533      104.310  -395934.322    50068.372       25.965       25.705        2.573        2.609        2.501        2.705        2.498        2.591        2.709        2.480        2.702        2.707        2.681        2.566        2.549        2.557        2.723        2.578        0.478        1.000        1.000        0.000        1.000        1.000        2.000        0.000        0.000        0.000        0.000        0.000        0.000        0.000        0.000        0.000        0.000        0.000        0.000        0.000        1.000        0.000        0.000        0.000        0.000        0.000        6.000        0.000        3.000        5.000        2.000        0.000        3.000        0.000        0.000        0.000      100.000        0.000        0.000        1.167        1.189        1.446
      20.000  -261720.851    29607.221    15444.103    39518.953      100.856  -396023.636    49631.652       26.002       25.786        2.574        2.612        2.626        2.665        2.477        2.567        2.697        2.434        2.680        2.660        2.634        2.500        2.481        2.560        2.703        2.605        0.494        1.000        1.000        0.000        1.000        1.000        2.000        0.000        0.000        0.000        0.000        0.000        0.000        0.000        0.000        0.000        1.000        0.000        0.000        0.000        1.000        0.000        0.000        0.000        0.000        0.000        5.000        0.000        1.000        3.000        5.000        0.000        1.000        0.000        0.000        0.000      100.000        0.000        0.000        1.194        1.222        1.567
      30.000  -260457.477    28623.078    15979.969    39330.654       95.768  -393546.229    49059.284       26.081       25.945        2.514        2.600        2.582        2.709        2.460        2.566        2.691        2.438        2.694        2.681        2.632        2.503        2.480        2.551        2.689        2.531        0.499        1.000        1.000        0.000        1.000        0.000        2.000        0.000        0.000        0.000        0.000        0.000        0.000        0.000        0.000        0.000        1.000        0.000        0.000        0.000        1.000        0.000        0.000        0.000        0.000        0.000        8.000        0.000        2.000        3.000        3.000        0.000        0.000        0.000        0.000        0.000      100.000        0.000        0.000        1.328        1.371        1.839
      40.000  -260157.105    29068.091    15499.311    39125.525      107.262  -392666.907    48709.614       26.292       25.986        2.571        2.677        2.598        2.758        2.477        2.552        2.723        2.439        2.704        2.651        2.614        2.478        2.452        2.584        2.701        2.592        0.486        1.000        2.000        0.000        1.000        0.000        2.000        0.000        0.000        0.000        0.000        0.000        0.000        0.000        0.000        0.000        0.000        0.000        0.000        0.000        1.000        0.000        0.000        0.000        0.000        0.000        5.000        0.000        1.000        1.000        5.000        0.000        1.000        0.000        0.000        0.000      100.000        0.000        0.000        1.704        1.729        2.060
      50.000  -259952.545    29445.298    15939.477    39119.948       88.398  -392715.593    48169.926       26.092       25.999        2.626        2.644        2.607        2.707        2.491        2.579        2.716        2.466        2.614        2.629        2.657        2.476        2.467        2.549        2.720        2.614        0.490        1.000        1.000        0.000        1.000        1.000        2.000        0.000        0.000        0.000        0.000        0.000        0.000        0.000        0.000        0.000        0.000        0.000        0.000        0.000        0.000        0.000        0.000        0.000        0.000        0.000        5.000        0.000        3.000        1.000        6.000        0.000        2.000        0.000        0.000        0.000      100.000        0.000        0.000        1.510        1.538        1.964
      60.000  -259981.642    26886.395    15995.568    39394.400      112.874  -392162.053    49791.174       25.817       25.836        2.613        2.689        2.701        2.673        2.412        2.509        2.712        2.494        2.693        2.655        2.622        2.511        2.468        2.527        2.729        2.582        0.484        0.000        0.000        0.000        1.000        1.000        3.000        0.000        0.000        1.000        0.000        0.000        0.000        0.000        1.000        0.000        1.000        0.000        0.000        0.000        1.000        0.000        0.000        0.000        0.000        0.000        3.000        0.000        2.000        1.000        6.000        0.000        3.000        0.000        0.000        0.000      100.000        0.000        0.000        1.399        1.409        1.903
      70.000  -259462.448    26929.389    16098.750    39304.822       97.349  -392540.337    50647.579       25.864       25.835        2.673        2.660        2.585        2.690        2.547        2.550        2.709        2.455        2.641        2.635        2.646        2.530        2.432        2.541        2.676        2.665        0.477        1.000        0.000        0.000        1.000        1.000        3.000        0.000        0.000        1.000        0.000        0.000        0.000        0.000        0.000        0.000        1.000        0.000        0.000        0.000        1.000        0.000        0.000        0.000        0.000        4.000        4.000        0.000        2.000        1.000        8.000        0.000        0.000        0.000        0.000        0.000      100.000        0.000        0.000        1.539        1.553        2.096
      80.000  -258714.426    27267.486    15886.124    39336.168      111.881  -390272.581    48956.496       25.796       25.619        2.615        2.705        2.584        2.650        2.609        2.476        2.694        2.475        2.704        2.647        2.628        2.518        2.455        2.530        2.675        2.649        0.498        1.000        0.000        0.000        1.000        2.000        2.000        0.000        0.000        1.000        0.000        0.000        0.000        0.000        0.000        0.000        0.000        0.000        0.000        0.000        1.000        0.000        0.000        0.000        0.000        2.000        4.000        0.000        1.000        1.000        5.000        0.000        2.000        0.000        0.000        0.000      100.000        0.000        0.000        1.837        1.858        2.325
      90.000  -259530.089    27302.217    15483.376    39329.809       93.682  -390204.430    48465.257       25.779       25.724        2.638        2.681        2.564        2.635        2.529        2.500        2.702        2.467        2.675        2.617        2.617        2.520        2.492        2.496        2.721        2.649        0.460        1.000        0.000        0.000        1.000        0.000        3.000        0.000        0.000        1.000        0.000        0.000        0.000        0.000        0.000        0.000        0.000        0.000        0.000        0.000        1.000        0.000        0.000        0.000        0.000        0.000        4.000        0.000        2.000        0.000        7.000        0.000        1.000        0.000        0.000        0.000      100.000        0.000        0.000        2.039        2.054        2.448
     100.000  -259008.305    27316.771    15773.962    39135.385       92.368  -388575.567    47248.776       25.730       25.602        2.640        2.724        2.609        2.645        2.537        2.562        2.716        2.502        2.700        2.639        2.614        2.518        2.458        2.564        2.707        2.635        0.487        1.000        0.000        0.000        1.000        1.000        3.000        0.000        0.000        0.000        0.000        0.000        0.000        0.000        0.000        0.000        2.000        0.000        0.000        0.000        1.000        0.000        0.000        0.000        0.000        1.000        5.000        0.000        5.000        1.000        8.000        0.000        1.000        0.000        0.000        0.000      100.000        0.000        0.000        2.179        2.187        2.529
     110.000  -259025.423    28358.627    15837.143    39203.701      105.472  -388630.082    46099.717       25.827       25.957        2.531        2.692        2.588        2.657        2.501        2.575        2.696        2.463        2.654        2.650        2.648        2.509        2.429        2.575        2.711        2.634        0.490        1.000        1.000        0.000        1.000        1.000        2.000        0.000        0.000        0.000        0.000        0.000        0.000        0.000        0.000        0.000        0.000        0.000        0.000        0.000        0.000        0.000        0.000        0.000        0.000        2.000        4.000        0.000        1.000        2.000        3.000        0.000        1.000        0.000        0.000        0.000      100.000        0.000        0.000        1.854        1.880        2.292
     120.000  -258101.041    27848.519    15748.209    39051.019       91.533  -387804.628    46964.307       25.823       26.034        2.534        2.680        2.577        2.615        2.505        2.525        2.740        2.526        2.663        2.637        2.644        2.549        2.466        2.580        2.687        2.643        0.476        1.000        1.000        0.000        1.000        0.000        3.000        0.000        0.000        1.000        0.000        0.000        0.000        0.000        0.000        0.000        0.000        0.000        0.000        0.000        1.000        0.000        0.000        0.000        0.000        0.000        1.000        0.000        4.000        1.000        4.000        0.000        2.000        0.000        0.000        0.000      100.000        0.000        0.000        1.744        1.797        2.325
     130.000  -257591.517    26580.209    15528.793    39245.632       99.376  -386780.193    47734.667       25.678       25.840        2.544        2.668        2.545        2.643        2.534        2.551        2.679        2.502        2.669        2.655        2.643        2.518        2.446        2.540        2.674        2.608        0.459        1.000        1.000        0.000        1.000        1.000        2.000        0.000        0.000        1.000        0.000        0.000        0.000        0.000        0.000        0.000        0.000        0.000        0.000        0.000        1.000        0.000        0.000        0.000        0.000        0.000        3.000        0.000        2.000        1.000        6.000        0.000        2.000        0.000        4.494        0.000       95.506        0.000        0.000        1.978        2.012        2.512
     140.000  -257672.357    27327.184    15802.948    39266.875      116.489  -386322.750    46136.896       25.766       25.818        2.550        2.695        2.608        2.625        2.625        2.522        2.741        2.458        2.632        2.648        2.640        2.547        2.494        2.555        2.719        2.610        0.495        1.000        1.000        0.000        1.000        1.000        2.000        0.000        0.000        0.000        0.000        0.000        0.000        0.000        0.000        0.000        1.000        0.000        0.000        0.000        1.000        0.000        0.000        0.000        0.000        2.000        2.000        0.000        2.000        2.000        3.000        0.000        0.000        0.000        0.000        0.000      100.000        0.000        0.000        2.384        2.411        2.764
     150.000  -257847.195    26958.318    15180.756    39170.556       99.207  -385810.641    46554.609       25.611       25.870        2.579        2.684        2.592        2.668        2.593        2.522        2.726        2.454        2.647        2.650        2.681        2.515        2.453        2.512        2.720        2.567        0.485        1.000        0.000        0.000        1.000        0.000        3.000        0.000        0.000        1.000        0.000        0.000        0.000        0.000        0.000        0.000        0.000        0.000        0.000        0.000        1.000        0.000        0.000        0.000        0.000        2.000        5.000        0.000        2.000        2.000        5.000        0.000        1.000        0.000        0.000        0.000      100.000        0.000        0.000        2.858        2.913        3.226
     160.000  -257510.976    25845.539    15653.800    39395.485      114.890  -387667.932    49147.241       25.491       26.049        2.546        2.640        2.566        2.632        2.556        2.561        2.755        2.384        2.655        2.634        2.631        2.523        2.481        2.549        2.676        2.609        0.499        1.000        0.000        0.000        1.000        1.000        2.000        0.000        0.000        0.000        0.000        0.000        0.000        0.000        0.000        0.000        1.000        0.000        0.000        0.000        1.000        0.000        0.000        0.000        0.000        2.000        5.000        0.000        0.000        3.000        3.000        0.000        3.000        0.000        0.000        0.000      100.000        0.000        0.000        2.882        2.967        3.150
     170.000  -257546.829    26240.454    15586.036    39317.157      107.201  -384679.111    45881.435       25.668       25.749        2.602        2.657        2.555        2.624        2.600        2.525        2.688        2.346        2.645        2.653        2.653        2.500        2.449        2.560        2.714        2.578        0.494        1.000        0.000        0.000        1.000        2.000        2.000        0.000        0.000        0.000        0.000        0.000        0.000        0.000        0.000        0.000        1.000        0.000        0.000        0.000        0.000        0.000        0.000        0.000        0.000        0.000        1.000        0.000        5.000        1.000        4.000        0.000        1.000        0.000        0.000        0.000      100.000        0.000        0.000        2.752        2.850        3.068
     180.000  -257311.932    26725.190    15772.229    39322.634      116.485  -386280.493    47032.025       25.904       25.798        2.556        2.658        2.625        2.641        2.588        2.545        2.725        2.432        2.677        2.570        2.618        2.505        2.467        2.542        2.646        2.592        0.476        1.000        0.000        0.000        1.000        1.000        1.000        0.000        0.000        0.000        0.000        0.000        0.000        0.000        0.000        0.000        1.000        0.000        0.000        0.000        1.000        0.000        0.000        0.000        0.000        1.000        4.000        0.000        1.000        3.000        8.000        0.000        2.000        0.000        0.000        0.000      100.000        0.000        0.000        2.323        2.395        2.751
     190.000  -256803.627    25243.465    15396.434    39374.889      112.003  -384005.025    47074.608       25.789       25.995        2.572        2.698        2.626        2.622        2.544        2.514        2.703        2.443        2.651        2.648        2.657        2.461        2.505        2.565        2.722        2.621        0.484        1.000        0.000        0.000        1.000        0.000        2.000        0.000        0.000        0.000        0.000        0.000        0.000        0.000        0.000        0.000        1.000        0.000        0.000        0.000        1.000        0.000        0.000        0.000        0.000        0.000        2.000        0.000        1.000        2.000        5.000        0.000        0.000        0.000        0.000        0.000      100.000        0.000        0.000        2.513        2.560        2.927
     200.000  -257028.387    25107.321    15283.551    39671.639       95.750  -386459.581    49272.933       25.622       25.929        2.593        2.699        2.543        2.620        2.522        2.485        2.710        2.482        2.658        2.687        2.630        2.468        2.472        2.525        2.679        2.625        0.503        1.000        1.000        0.000        1.000        0.000        2.000        0.000        0.000        0.000        0.000        0.000        0.000        0.000        0.000        0.000        0.000        0.000        0.000        0.000        1.000        0.000        0.000        0.000        0.000        0.000        2.000        0.000        2.000        1.000        5.000        0.000        2.000        0.000        0.000        0.000      100.000        0.000        0.000        2.648        2.709        3.083
     210.000  -256885.045    26402.425    15440.865    39285.884      112.534  -384032.010    45905.257       25.816       26.069        2.507        2.665        2.562        2.630        2.531        2.512        2.701        2.417        2.710        2.635        2.626        2.545        2.487        2.567        2.710        2.586        0.495        0.000        1.000        0.000        1.000        1.000        1.000        0.000        0.000        0.000        0.000        0.000        0.000        0.000        0.000        0.000        1.000        0.000        0.000        0.000        1.000        0.000        0.000        0.000        0.000        1.000        3.000        0.000        3.000        3.000        5.000        0.000        3.000        0.000        0.000        0.000      100.000        0.000        0.000        2.345        2.428        2.837
     220.000  -256648.993    26086.063    15741.181    39421.028       94.948  -384425.092    46432.879       25.752       26.021        2.507        2.696        2.590        2.635        2.570        2.529        2.693        2.488        2.630        2.667        2.634        2.497        2.458        2.529        2.687        2.585        0.476        1.000        1.000        0.000        1.000        1.000        2.000        0.000        0.000        0.000        0.000        0.000        0.000        0.000        0.000        0.000        1.000        0.000        0.000        0.000        1.000        0.000        0.000        0.000        0.000        0.000        5.000        0.000        1.000        0.000        3.000        0.000        1.000        0.000        4.494        0.000       95.506        0.000        0.000        2.400        2.472        2.802
     230.000  -257238.475    25517.853    15528.611    39201.289      127.182  -385250.865    47637.455       25.671       25.797        2.550        2.653        2.579        2.681        2.611        2.469        2.717        2.448        2.656        2.650        2.640        2.461        2.525        2.578        2.671        2.559        0.477        1.000        0.000        0.000        1.000        0.000        1.000        0.000        0.000        0.000        0.000        0.000        0.000        0.000        0.000        0.000        0.000        0.000        0.000        0.000        1.000        0.000        0.000        0.000        0.000        0.000        3.000        0.000        3.000        2.000        5.000        0.000        1.000        0.000        0.000        0.000      100.000        0.000        0.000        2.501        2.595        2.975
     240.000  -256995.339    25096.002    15513.927    39390.515      105.602  -384483.724    47382.339       25.574       25.786        2.576        2.673        2.590        2.674        2.628        2.493        2.688        2.443        2.681        2.653        2.658        2.510        2.522        2.565        2.613        2.538        0.467        1.000        1.000        0.000        1.000        0.000        1.000        0.000        0.000        2.000        0.000        0.000        0.000        0.000        0.000        0.000        0.000        0.000        0.000        0.000        1.000        0.000        0.000        0.000        0.000        1.000        1.000        0.000        1.000        0.000        6.000        0.000        3.000        0.000        0.000        0.000      100.000        0.000        0.000        2.388        2.452        2.951
     250.000  -255830.666    25875.041    15610.815    39293.861       88.837  -383225.228    46526.008       25.675       26.076        2.587        2.699        2.599        2.658        2.681        2.510        2.713        2.402        2.646        2.662        2.614        2.498        2.510        2.572        2.683        2.539        0.514        1.000        0.000        0.000        1.000        0.000        1.000        0.000        0.000        1.000        0.000        0.000        0.000        0.000        0.000        0.000        0.000        0.000        0.000        0.000        1.000        0.000        0.000        0.000        0.000        0.000        3.000        0.000        1.000        0.000        5.000        0.000        2.000        0.000        0.000        0.000      100.000        0.000        0.000        3.008        3.085        3.368
     260.000  -256388.212    25730.124    15243.833    39302.742       90.591  -384063.477    47307.975       25.534       25.657        2.538        2.684        2.579        2.686        2.569        2.508        2.674        2.399        2.713        2.688        2.669        2.447        2.510        2.584        2.690        2.572        0.474        1.000        0.000        0.000        1.000        0.000        1.000        0.000        0.000        0.000        0.000        0.000        0.000        0.000        0.000        0.000        0.000        0.000        0.000        0.000        1.000        0.000        0.000        0.000        0.000        0.000        5.000        0.000        3.000        0.000        7.000        0.000        2.000        0.000        0.000        0.000      100.000        0.000        0.000        2.789        2.828        3.306
     270.000  -256514.632    25558.701    15470.935    39626.548       96.541  -383789.821    46522.465       25.291       25.633        2.533        2.676        2.586        2.636        2.600        2.500        2.704        2.459        2.709        2.675        2.656        2.501        2.470        2.511        2.717        2.581        0.483        1.000        0.000        0.000        1.000        0.000        1.000        0.000        0.000        0.000        0.000        0.000        0.000        0.000        0.000        0.000        0.000        0.000        0.000        0.000        1.000        0.000        0.000        0.000        0.000        1.000        6.000        0.000        2.000        1.000        4.000        0.000        4.000        0.000        0.000        0.000      100.000        0.000        0.000        2.966        2.984        3.462
     280.000  -256424.486    27064.475    14808.147    39383.569       81.250  -382878.363    45116.436       25.360       25.642        2.599        2.707        2.576        2.605        2.622        2.476        2.715        2.479        2.648        2.712        2.624        2.497        2.528        2.558        2.665        2.523        0.499        1.000        2.000        0.000        1.000        0.000        1.000        0.000        0.000        0.000        0.000        0.000        0.000        0.000        0.000        0.000        0.000        0.000        0.000        0.000        1.000        0.000        0.000        0.000        0.000        0.000        1.000        0.000        3.000        1.000        4.000        0.000        3.000        0.000        0.000        0.000      100.000        0.000        0.000        2.679        2.729        3.236
     290.000  -256444.559    25233.292    15113.132    39242.676      119.605  -383502.038    47348.775       25.251       25.716        2.528        2.676        2.578        2.584        2.554        2.504        2.742        2.437        2.684        2.692        2.638        2.504        2.465        2.531        2.625        2.618        0.493        1.000        2.000        0.000        1.000        0.000        1.000        0.000        0.000        0.000        0.000        0.000        0.000        0.000        0.000        0.000        0.000        0.000        0.000        0.000        1.000        0.000        0.000        0.000        0.000        0.000        6.000        0.000        0.000        1.000        4.000        0.000        0.000        0.000        0.000        0.000      100.000        0.000        0.000        3.011        3.069        3.417
     300.000  -256264.936    26513.313    15002.300    39511.459       75.499  -382966.912    45599.405       25.343       25.785        2.525        2.678        2.577        2.645        2.678        2.517        2.679        2.454        2.648        2.654        2.628        2.458        2.479        2.553        2.633        2.594        0.503        1.000        1.000        0.000        1.000        0.000        1.000        0.000        0.000        0.000        0.000        0.000        0.000        0.000        0.000        0.000        0.000        0.000        0.000        0.000        1.000        0.000        0.000        0.000        0.000        0.000        0.000        0.000        1.000        0.000        6.000        0.000        1.000        0.000        0.000        0.000      100.000        0.000        0.000        3.033        3.084        3.539
     310.000  -256342.600    24451.467    15322.970    39459.053      101.041  -382107.731    46430.600       25.499       25.825        2.577        2.725        2.592        2.615        2.636        2.526        2.688        2.467        2.693        2.686        2.663        2.490        2.474        2.585        2.625        2.568        0.500        1.000        1.000        0.000        1.000        0.000        1.000        0.000        0.000        0.000        0.000        0.000        0.000        0.000        0.000        0.000        0.000        0.000        0.000        0.000        1.000        0.000        0.000        0.000        0.000        0.000        2.000        0.000        0.000        1.000        4.000        0.000        3.000        0.000        0.000        0.000      100.000        0.000        0.000        2.842        2.889        3.392
     320.000  -255974.519    24544.538    15099.252    39487.183      113.697  -381902.354    46683.165       25.611       25.866        2.537        2.666        2.577        2.610        2.542        2.487        2.677        2.393        2.691        2.674        2.607        2.523        2.515        2.573        2.609        2.574        0.485        1.000        2.000        0.000        1.000        0.000        0.000        0.000        0.000        0.000        1.000        0.000        0.000        0.000        0.000        0.000        0.000        0.000        0.000        0.000        1.000        0.000        0.000        0.000        0.000        0.000        5.000        0.000        3.000        0.000        6.000        0.000        1.000        0.000        0.000        0.000      100.000        0.000        0.000        2.454        2.496        3.064
     330.000  -256461.926    24781.955    15321.333    39401.428      112.390  -384041.731    47962.699       25.660       26.027        2.564        2.628        2.556        2.703        2.599        2.455        2.738        2.452        2.692        2.659        2.610        2.536        2.493        2.531        2.610        2.575        0.488        1.000        1.000        0.000        1.000        1.000        1.000        0.000        0.000        0.000        0.000        0.000        0.000        0.000        0.000        0.000        0.000        0.000        0.000        0.000        1.000        0.000        0.000        0.000        0.000        0.000        5.000        0.000        0.000        0.000        4.000        0.000        0.000        0.000        0.000        0.000      100.000        0.000        0.000        2.370        2.404        3.043
     340.000  -255983.924    25445.130    15226.906    39336.154       97.860  -382774.252    46684.278       25.314       25.698        2.495        2.680        2.599        2.619        2.630        2.540        2.703        2.378        2.686        2.686        2.637        2.446        2.506        2.562        2.649        2.540        0.475        1.000        2.000        0.000        1.000        0.000        0.000        0.000        0.000        1.000        0.000        0.000        0.000        0.000        0.000        0.000        0.000        0.000        0.000        0.000        0.000        0.000        0.000        0.000        0.000        0.000        5.000        0.000        1.000        0.000        6.000        0.000        4.000        0.000        0.000        0.000      100.000        0.000        0.000        2.411        2.469        3.137
     350.000  -255610.039    24614.170    15237.794    39359.073       93.425  -381915.569    47001.069       25.206       25.877        2.524        2.704        2.569        2.642        2.626        2.442        2.655        2.433        2.682        2.684        2.651        2.513        2.466        2.608        2.604        2.651        0.480        1.000        2.000        0.000        1.000        1.000        1.000        0.000        0.000        0.000        0.000        0.000        0.000        0.000        0.000        0.000        0.000        0.000        0.000        0.000        1.000        0.000        0.000        0.000        0.000        1.000        4.000        0.000        1.000        0.000        2.000        0.000        1.000        0.000        0.000        0.000      100.000        0.000        0.000        2.648        2.729        3.243
     360.000  -254978.652    25849.271    15483.084    39365.864       99.800  -380759.830    44983.158       25.477       25.676        2.558        2.673        2.607        2.654        2.585        2.501        2.730        2.450        2.675        2.644        2.633        2.498        2.507        2.565        2.556        2.582        0.497        1.000        2.000        0.000        1.000        1.000        1.000        0.000        0.000        0.000        0.000        0.000        0.000        0.000        0.000        0.000        0.000        0.000        0.000        0.000        0.000        0.000        0.000        0.000        0.000        1.000        1.000        0.000        1.000        1.000        6.000        0.000        1.000        0.000        0.000        0.000      100.000        0.000        0.000        2.801        2.850        3.350
     370.000  -255991.598    24568.084    15379.708    39476.296      118.709  -382551.591    47017.195       25.357       25.717        2.535        2.669        2.547        2.620        2.593        2.509        2.675        2.461        2.717        2.675        2.646        2.506        2.503        2.547        2.703        2.588        0.488        1.000        2.000        0.000        1.000        2.000        1.000        0.000        0.000        0.000        0.000        0.000        0.000        0.000        0.000        0.000        0.000        0.000        0.000        0.000        1.000        0.000        0.000        0.000        0.000        1.000        7.000        0.000        2.000        1.000        4.000        0.000        2.000        0.000        4.494        0.000       95.506        0.000        0.000        2.860        2.913        3.474
     380.000  -256023.469    24712.082    15505.953    39415.185       86.524  -383719.314    47976.102       24.973       25.640        2.566        2.702        2.595        2.640        2.601        2.524        2.702        2.461        2.642        2.708        2.623        2.492        2.481        2.576        2.695        2.558        0.497        1.000        2.000        0.000        1.000        0.000        1.000        0.000        0.000        0.000        0.000        0.000        0.000        0.000        1.000        0.000        0.000        0.000        0.000        0.000        0.000        0.000        0.000        0.000        0.000        1.000        3.000        0.000        4.000        1.000        1.000        0.000        2.000        0.000        0.000        0.000      100.000        0.000        0.000        2.979        3.031        3.588
     390.000  -256136.416    26098.944    15431.295    39349.388       89.831  -383824.388    46718.513       25.556       26.047        2.575        2.688        2.584        2.650        2.600        2.484        2.719        2.481        2.698        2.671        2.676        2.476        2.506        2.536        2.685        2.580        0.476        1.000        1.000        0.000        1.000        1.000        1.000        0.000        0.000        0.000        0.000        0.000        0.000        0.000        0.000        0.000        0.000        0.000        0.000        0.000        1.000        0.000        0.000        0.000        0.000        1.000        5.000        0.000        3.000        0.000        5.000        0.000        2.000        0.000        0.000        0.000      100.000        0.000        0.000        2.929        2.991        3.505
     400.000  -255369.363    24280.532    15565.411    39398.438      100.951  -382170.199    47455.504       25.290       25.842        2.620        2.668        2.600        2.631        2.646        2.508        2.683        2.423        2.708        2.671        2.675        2.545        2.473        2.532        2.621        2.595        0.488        1.000        2.000        0.000        1.000        0.000        1.000        0.000        0.000        0.000        0.000        0.000        0.000        0.000        1.000        0.000        0.000        0.000        0.000        0.000        1.000        0.000        0.000        0.000        0.000        0.000        1.000        0.000        2.000        0.000        5.000        0.000        5.000        0.000        0.000        0.000      100.000        0.000        0.000        2.544        2.638        3.208
     410.000  -256555.480    25649.150    15028.882    39257.290      111.782  -382428.646    45826.063       25.082       25.710        2.564        2.706        2.584        2.675        2.597        2.484        2.691        2.461        2.683        2.676        2.706        2.532        2.462        2.565        2.622        2.530        0.481        1.000        2.000        0.000        0.000        1.000        1.000        0.000        0.000        0.000        0.000        0.000        0.000        0.000        0.000        0.000        0.000        0.000        0.000        0.000        1.000        0.000        0.000        0.000        0.000        0.000        9.000        0.000        6.000        0.000        6.000        0.000        0.000        0.000        0.000        0.000      100.000        0.000        0.000        2.849        2.908        3.398
     420.000  -256069.584    26074.745    14754.058    39357.558       97.568  -382366.702    46013.189       25.472       26.134        2.542        2.691        2.569        2.669        2.584        2.505        2.645        2.439        2.701        2.662        2.684        2.557        2.501        2.548        2.622        2.605        0.497        1.000        2.000        0.000        0.000        1.000        1.000        0.000        0.000        0.000        0.000        0.000        0.000        0.000        0.000        0.000        0.000        0.000        0.000        0.000        1.000        0.000        0.000        0.000        0.000        0.000        2.000        0.000        3.000        0.000        5.000        0.000        2.000        0.000        0.000        0.000      100.000        0.000        0.000        2.621        2.664        3.151
     430.000  -256032.341    25556.157    15257.212    39529.639      109.687  -381480.633    44995.597       25.428       25.475        2.485        2.663        2.565        2.656        2.593        2.566        2.631        2.464        2.673        2.709        2.652        2.479        2.478        2.578        2.603        2.565        0.480        1.000        1.000        0.000        0.000        1.000        1.000        0.000        0.000        0.000        0.000        0.000        0.000        0.000        0.000        0.000        0.000        0.000        0.000        0.000        1.000        0.000        0.000        0.000        0.000        1.000        4.000        0.000        2.000        0.000        6.000        0.000        3.000        0.000        4.494        0.000       95.506        0.000        0.000        2.283        2.304        2.874
     440.000  -255471.609    24257.409    15019.407    39476.564      112.814  -381930.678    47592.874       25.289       25.668        2.610        2.679        2.593        2.596        2.609        2.516        2.689        2.479        2.668        2.644        2.675        2.513        2.485        2.533        2.590        2.548        0.501        1.000        1.000        0.000        1.000        0.000        1.000        0.000        0.000        0.000        0.000        0.000        0.000        0.000        0.000        0.000        0.000        0.000        0.000        0.000        1.000        0.000        0.000        0.000        0.000        0.000        0.000        0.000        1.000        1.000        7.000        0.000        2.000        0.000        0.000        0.000      100.000        0.000        0.000        2.583        2.632        3.138
     450.000  -255278.607    25749.245    15153.836    39226.435      100.790  -381183.377    45674.465       25.461       25.898        2.554        2.653        2.621        2.632        2.636        2.509        2.689        2.422        2.684        2.689        2.684        2.520        2.485        2.596        2.649        2.565        0.501        1.000        1.000        0.000        1.000        1.000        1.000        0.000        0.000        0.000        0.000        0.000        0.000        0.000        0.000        0.000        0.000        0.000        0.000        0.000        1.000        0.000        0.000        0.000        0.000        1.000        3.000        0.000        2.000        1.000        5.000        0.000        0.000        0.000        0.000        0.000      100.000        0.000        0.000        2.054        2.096        2.867
     460.000  -255898.456    25276.758    14826.333    39375.155      137.563  -381301.190    45786.925       25.417       25.680        2.585        2.675        2.581        2.652        2.576        2.441        2.720        2.530        2.673        2.723        2.706        2.538        2.459        2.576        2.651        2.559        0.495        1.000        1.000        0.000        1.000        1.000        1.000        0.000        0.000        1.000        0.000        0.000        0.000        0.000        0.000        0.000        0.000        0.000        0.000        0.000        1.000        0.000        0.000        0.000        0.000        0.000        5.000        0.000        2.000        0.000        7.000        0.000        1.000        0.000        0.000        0.000      100.000        0.000        0.000        1.786        1.816        2.601
     470.000  -255498.971    24020.893    14695.649    39502.399       89.367  -381917.350    48110.071       25.265       25.848        2.527        2.678        2.580        2.641        2.573        2.430        2.692        2.456        2.692        2.660        2.675        2.519        2.505        2.552        2.635        2.518        0.481        1.000        1.000        0.000        1.000        1.000        1.000        0.000        0.000        0.000        0.000        0.000        0.000        0.000        0.000        0.000        0.000        0.000        0.000        0.000        1.000        0.000        0.000        0.000        0.000        0.000        1.000        0.000        2.000        0.000       12.000        0.000        1.000        0.000        0.000        0.000      100.000        0.000        0.000        1.834        1.868        2.667
     480.000  -255624.610    25458.041    14883.086    39422.125      100.319  -381259.225    45771.044       25.579       26.008        2.527        2.665        2.603        2.627        2.616        2.474        2.675        2.426        2.691        2.688        2.716        2.517        2.533        2.569        2.630        2.596        0.490        1.000        0.000        0.000        1.000        0.000        1.000        0.000        0.000        0.000        0.000        0.000        0.000        0.000        0.000        0.000        0.000        0.000        0.000        0.000        1.000        0.000        0.000        0.000        0.000        0.000        4.000        0.000        1.000        0.000        8.000        0.000        2.000        0.000        4.494        0.000       95.506        0.000        0.000        2.207        2.223        2.908
     490.000  -255445.954    25369.596    15442.438    39268.891      120.244  -380799.665    45152.542       25.588       25.937        2.529        2.673        2.568        2.641        2.627        2.534        2.685        2.432        2.659        2.723        2.727        2.535        2.502        2.611        2.689        2.567        0.489        1.000        0.000        0.000        1.000        0.000        1.000        0.000        0.000        1.000        0.000        0.000        0.000        0.000        0.000        0.000        0.000        0.000        0.000        0.000        1.000        0.000        0.000        0.000        0.000        1.000        5.000        0.000        2.000        0.000        5.000        0.000        0.000        0.000        0.000        0.000      100.000        0.000        0.000        2.270        2.279        3.054
     500.000  -256292.183    26018.905    14816.640    39261.061       91.616  -382559.360    46078.957       25.343       25.819        2.578        2.679        2.657        2.648        2.588        2.470        2.680        2.383        2.686        2.648        2.694        2.486        2.470        2.561        2.659        2.565        0.494        1.000        1.000        0.000        1.000        1.000        1.000        0.000        0.000        0.000        0.000        0.000        0.000        0.000        0.000        0.000        0.000        0.000        0.000        0.000        1.000        0.000        0.000        0.000        0.000        0.000        3.000        0.000        1.000        1.000       11.000        0.000        2.000        0.000        0.000        0.000      100.000        0.000        0.000        2.239        2.246        3.050
     510.000  -255812.694    25001.057    15176.295    39363.217       99.843  -381722.952    46269.846       25.250       25.653        2.520        2.681        2.612        2.641        2.597        2.501        2.706        2.434        2.689        2.700        2.684        2.493        2.520        2.564        2.704        2.615        0.459        1.000        1.000        0.000        1.000        1.000        1.000        0.000        0.000        0.000        0.000        0.000        0.000        0.000        0.000        0.000        0.000        0.000        0.000        0.000        1.000        0.000        0.000        0.000        0.000        1.000        4.000        0.000        2.000        2.000        9.000        0.000        1.000        0.000        0.000        0.000      100.000        0.000        0.000        2.086        2.119        3.137
     520.000  -255844.348    25914.430    14882.026    39315.551      119.531  -382430.753    46354.866       25.364       26.000        2.526        2.660        2.651        2.630        2.609        2.496        2.658        2.475        2.699        2.695        2.689        2.524        2.496        2.567        2.641        2.588        0.489        0.000        2.000        0.000        1.000        0.000        1.000        0.000        0.000        0.000        0.000        0.000        0.000        0.000        0.000        0.000        0.000        0.000        0.000        0.000        1.000        0.000        0.000        0.000        0.000        1.000        1.000        0.000        1.000        0.000        7.000        0.000        2.000        0.000        0.000        0.000      100.000        0.000        0.000        2.294        2.338        3.236
     530.000  -255758.780    24849.746    14860.704    39366.145      116.074  -380943.650    45992.201       25.296       25.770        2.544        2.679        2.611        2.619        2.611        2.481        2.696        2.506        2.666        2.695        2.635        2.568        2.492        2.556        2.667        2.593        0.496        1.000        1.000        0.000        0.000        1.000        1.000        0.000        0.000        0.000        0.000        0.000        0.000        0.000        0.000        0.000        0.000        0.000        0.000        0.000        0.000        0.000        0.000        0.000        0.000        1.000        0.000        0.000        2.000        0.000        8.000        0.000        2.000        0.000        0.000        0.000      100.000        0.000        0.000        2.133        2.150        3.117
     540.000  -255745.497    25609.931    14798.716    39189.765      125.419  -379918.185    44448.857       25.111       25.536        2.582        2.676        2.624        2.621        2.625        2.440        2.711        2.520        2.679        2.662        2.681        2.524        2.500        2.539        2.640        2.593        0.487        1.000        1.000        0.000        0.000        1.000        1.000        0.000        0.000        1.000        0.000        0.000        0.000        0.000        0.000        0.000        0.000        0.000        0.000        0.000        1.000        0.000        0.000        0.000        0.000        0.000        1.000        0.000        2.000        0.000        3.000        0.000        1.000        0.000        0.000        0.000      100.000        0.000        0.000        2.190        2.182        3.126
     550.000  -255375.896    25476.225    15360.756    39283.799      121.969  -381837.983    46219.339       25.310       25.745        2.593        2.673        2.618        2.636        2.608        2.479        2.702        2.518        2.644        2.693        2.663        2.522        2.500        2.564        2.591        2.631        0.509        1.000        2.000        0.000        1.000        1.000        1.000        0.000        0.000        0.000        0.000        0.000        0.000        0.000        0.000        0.000        0.000        0.000        0.000        0.000        1.000        0.000        0.000        0.000        0.000        1.000        2.000        0.000        3.000        0.000        3.000        0.000        2.000        0.000        0.000        0.000      100.000        0.000        0.000        2.263        2.246        3.178
     560.000  -256390.323    25009.164    15014.588    39164.858      106.969  -381461.004    45775.103       25.407       25.774        2.631        2.723        2.682        2.622        2.538        2.446        2.662        2.479        2.650        2.702        2.662        2.521        2.524        2.596        2.615        2.533        0.485        1.000        2.000        0.000        1.000        1.000        1.000        0.000        0.000        0.000        0.000        0.000        0.000        0.000        0.000        0.000        0.000        0.000        0.000        0.000        1.000        0.000        0.000        0.000        0.000        2.000        2.000        0.000        2.000        0.000        3.000        0.000        0.000        0.000        0.000        0.000      100.000        0.000        0.000        1.865        1.876        2.873
     570.000  -255828.714    24246.170    15181.511    39186.849      117.576  -381656.008    47095.188       25.546       25.878        2.625        2.672        2.636        2.626        2.666        2.543        2.685        2.527        2.684        2.674        2.661        2.515        2.488        2.575        2.642        2.597        0.470        1.000        1.000        0.000        1.000        1.000        1.000        0.000        0.000        0.000        0.000        0.000        0.000        0.000        0.000        0.000        0.000        0.000        0.000        0.000        1.000        0.000        0.000        0.000        0.000        1.000        3.000        0.000        3.000        0.000        3.000        0.000        1.000        0.000        0.000        0.000      100.000        0.000        0.000        1.689        1.685        2.799
     580.000  -255104.641    24492.782    15401.383    39152.346       87.283  -380825.602    46587.168       25.565       25.829        2.590        2.638        2.645        2.621        2.582        2.521        2.699        2.481        2.651        2.720        2.689        2.519        2.535        2.551        2.620        2.567        0.474        1.000        1.000        0.000        1.000        1.000        0.000        0.000        0.000        0.000        0.000        0.000        0.000        0.000        0.000        0.000        0.000        0.000        0.000        0.000        1.000        0.000        0.000        0.000        0.000        0.000        0.000        0.000        2.000        0.000        7.000        0.000        4.000        0.000        0.000        0.000      100.000        0.000        0.000        1.637        1.627        2.702
     590.000  -256074.216    25233.769    15130.509    39017.538      106.903  -380745.676    45182.741       25.709       25.918        2.578        2.682        2.621        2.668        2.607        2.464        2.647        2.503        2.682        2.731        2.694        2.514        2.455        2.574        2.671        2.564        0.473        1.000        1.000        0.000        1.000        1.000        1.000        0.000        0.000        0.000        0.000        0.000        0.000        0.000        0.000        0.000        0.000        0.000        0.000        0.000        1.000        0.000        0.000        0.000        0.000        1.000        1.000        0.000        3.000        1.000        4.000        0.000        1.000        0.000        0.000        0.000      100.000        0.000        0.000        1.735        1.765        2.737
     600.000  -255482.705    24620.491    14974.918    39238.554      101.803  -381147.539    46729.069       25.245       25.542        2.549        2.711        2.644        2.566        2.614        2.499        2.687        2.488        2.684        2.692        2.696        2.566        2.511        2.560        2.685        2.583        0.504        0.000        1.000        0.000        1.000        1.000        1.000        0.000        0.000        0.000        0.000        0.000        0.000        0.000        0.000        0.000        0.000        0.000        0.000        0.000        1.000        0.000        0.000        0.000        0.000        2.000        1.000        0.000        3.000        0.000        5.000        0.000        1.000        0.000        0.000        0.000      100.000        0.000        0.000        2.066        2.086        3.017
     610.000  -255396.592    25393.199    14955.113    39159.901      109.689  -379512.961    44498.469       25.394       25.658        2.568        2.691        2.620        2.659        2.588        2.503        2.733        2.515        2.709        2.698        2.682        2.498        2.491        2.583        2.682        2.557        0.499        1.000        1.000        0.000        1.000        1.000        1.000        0.000        0.000        0.000        0.000        0.000        0.000        0.000        0.000        0.000        0.000        0.000        0.000        0.000        1.000        0.000        0.000        0.000        0.000        0.000        3.000        0.000        3.000        1.000        4.000        0.000        1.000        0.000        0.000        0.000      100.000        0.000        0.000        2.044        2.037        3.072
     620.000  -255416.053    25440.655    14807.714    39174.269      125.309  -381206.705    46242.705       25.474       25.687        2.520        2.676        2.624        2.692        2.578        2.478        2.712        2.473        2.659        2.693        2.696        2.493        2.471        2.588        2.698        2.593        0.478        1.000        1.000        0.000        1.000        0.000        1.000        0.000        0.000        0.000        0.000        0.000        0.000        0.000        0.000        0.000        0.000        0.000        0.000        0.000        1.000        0.000        0.000        0.000        0.000        1.000        3.000        0.000        4.000        2.000        8.000        0.000        1.000        0.000        0.000        0.000      100.000        0.000        0.000        2.147        2.169        3.054
     630.000  -255572.859    24635.051    14798.905    39283.252       89.617  -380832.326    46452.641       25.537       25.678        2.516        2.653        2.548        2.661        2.592        2.548        2.664        2.499        2.683        2.692        2.644        2.490        2.505        2.582        2.681        2.582        0.482        1.000        1.000        0.000        1.000        0.000        1.000        0.000        0.000        0.000        0.000        0.000        0.000        0.000        1.000        0.000        0.000        0.000        0.000        0.000        1.000        0.000        0.000        0.000        0.000        1.000        0.000        0.000        6.000        1.000        5.000        0.000        2.000        0.000        0.000        0.000      100.000        0.000        0.000        1.671        1.697        2.798
     640.000  -255083.987    25693.638    15044.514    39044.617      117.261  -379697.921    44713.904       25.547       26.026        2.645        2.702        2.526        2.700        2.620        2.601        2.700        2.535        2.682        2.655        2.632        2.507        2.498        2.577        2.609        2.633        0.476        1.000        1.000        0.000        1.000        1.000        1.000        0.000        0.000        0.000        0.000        0.000        0.000        0.000        0.000        0.000        0.000        0.000        0.000        0.000        0.000        0.000        0.000        0.000        0.000        1.000        0.000        0.000        1.000        0.000        4.000        0.000        1.000        0.000        0.000        0.000      100.000        0.000        0.000        1.646        1.691        2.671
     650.000  -255638.580    24811.155    15025.921    39260.007      110.518  -380897.697    46051.516       25.507       25.793        2.575        2.705        2.588        2.620        2.555        2.563        2.676        2.470        2.697        2.624        2.663        2.504        2.475        2.569        2.687        2.596        0.490        0.000        1.000        0.000        1.000        0.000        1.000        0.000        0.000        0.000        0.000        0.000        0.000        0.000        0.000        0.000        0.000        0.000        0.000        0.000        0.000        0.000        0.000        0.000        0.000        1.000        4.000        0.000        4.000        0.000        2.000        0.000        3.000        0.000        0.000        0.000      100.000        0.000        0.000        1.830        1.835        2.819
     660.000  -256201.999    25802.331    15191.019    39173.258       82.106  -382046.518    45595.804       25.714       25.926        2.609        2.695        2.548        2.691        2.590        2.580        2.665        2.582        2.701        2.669        2.639        2.524        2.519        2.629        2.639        2.571        0.520        1.000        1.000        0.000        1.000        1.000        0.000        0.000        0.000        0.000        0.000        0.000        0.000        0.000        0.000        0.000        0.000        0.000        0.000        0.000        0.000        0.000        0.000        0.000        0.000        2.000        2.000        0.000        1.000        0.000        4.000        0.000        4.000        0.000        0.000        0.000      100.000        0.000        0.000        1.880        1.869        2.909
     670.000  -255094.437    23620.621    15421.667    39081.703      100.617  -379400.701    46081.656       25.133       25.634        2.618        2.682        2.632        2.645        2.608        2.600        2.686        2.569        2.664        2.656        2.710        2.483        2.486        2.540        2.622        2.575        0.483        1.000        1.000        0.000        0.000        1.000        1.000        0.000        0.000        0.000        0.000        0.000        0.000        0.000        0.000        0.000        0.000        0.000        0.000        0.000        0.000        0.000        0.000        0.000        0.000        1.000        6.000        0.000        1.000        0.000        3.000        0.000        0.000        0.000        0.000        0.000      100.000        0.000        0.000        1.981        1.938        3.038
     680.000  -255789.255    24152.669    14833.536    39573.242       87.908  -381468.366    47031.757       25.409       25.887        2.543        2.644        2.616        2.637        2.569        2.619        2.679        2.469        2.707        2.693        2.668        2.530        2.483        2.565        2.635        2.586        0.497        0.000        1.000        0.000        1.000        1.000        1.000        0.000        0.000        0.000        0.000        0.000        0.000        0.000        0.000        0.000        0.000        0.000        0.000        0.000        0.000        0.000        0.000        0.000        0.000        0.000        7.000        0.000        3.000        0.000        5.000        0.000        0.000        0.000        0.000        0.000      100.000        0.000        0.000        1.613        1.602        2.831
     690.000  -255810.779    25744.085    14999.976    39096.125       94.146  -380897.816    45152.705       25.347       25.916        2.573        2.645        2.555        2.651        2.585        2.592        2.711        2.561        2.689        2.674        2.700        2.534        2.554        2.594        2.643        2.548        0.487        0.000        1.000        0.000        1.000        1.000        1.000        0.000        0.000        0.000        0.000        0.000        0.000        0.000        0.000        0.000        0.000        0.000        0.000        0.000        1.000        0.000        0.000        0.000        0.000        2.000        1.000        0.000        3.000        1.000        3.000        0.000        0.000        0.000        0.000        0.000      100.000        0.000        0.000        1.672        1.650        2.922
     700.000  -256764.811    24852.136    14819.114    39156.320      130.955  -382519.121    46795.785       25.631       26.221        2.592        2.712        2.643        2.665        2.584        2.604        2.712        2.526        2.730        2.670        2.654        2.528        2.489        2.551        2.696        2.568        0.486        0.000        0.000        0.000        1.000        0.000        1.000        0.000        0.000        0.000        0.000        0.000        0.000        0.000        1.000        0.000        0.000        0.000        0.000        0.000        1.000        0.000        0.000        0.000        0.000        0.000        4.000        0.000        3.000        0.000        4.000        0.000        0.000        0.000        0.000        0.000      100.000        0.000        0.000        1.696        1.685        2.847
     710.000  -255254.550    26009.997    14899.714    39199.092       90.471  -381170.696    45716.871       25.136       25.760        2.581        2.659        2.587        2.694        2.583        2.639        2.682        2.556        2.691        2.697        2.649        2.516        2.511        2.617        2.695        2.638        0.478        0.000        1.000        0.000        1.000        1.000        0.000        0.000        0.000        0.000        0.000        0.000        0.000        0.000        0.000        0.000        0.000        0.000        0.000        0.000        1.000        0.000        0.000        0.000        0.000        1.000        6.000        0.000        2.000        1.000        4.000        0.000        1.000        0.000        0.000        0.000      100.000        0.000        0.000        1.727        1.693        2.816
     720.000  -255246.263    26265.573    14954.950    39016.842      106.914  -381245.717    45655.175       25.458       25.781        2.595        2.697        2.608        2.615        2.602        2.592        2.733        2.511        2.699        2.702        2.727        2.567        2.531        2.602        2.699        2.629        0.489        1.000        1.000        0.000        1.000        0.000        1.000        0.000        0.000        0.000        0.000        0.000        0.000        0.000        0.000        0.000        0.000        0.000        0.000        0.000        1.000        0.000        0.000        0.000        0.000        1.000        6.000        0.000        2.000        1.000        5.000        0.000        3.000        0.000        0.000        0.000      100.000        0.000        0.000        1.953        1.927        3.051
     730.000  -255115.690    24044.690    14880.653    39341.556      102.636  -380909.502    47424.277       25.269       25.578        2.573        2.655        2.542        2.627        2.586        2.591        2.686        2.571        2.723        2.674        2.684        2.503        2.493        2.597        2.687        2.613        0.488        1.000        1.000        0.000        0.000        1.000        1.000        0.000        0.000        0.000        0.000        0.000        0.000        0.000        0.000        0.000        0.000        0.000        0.000        0.000        1.000        0.000        0.000        0.000        0.000        0.000        2.000        0.000        1.000        0.000        4.000        0.000        1.000        0.000        0.000        0.000      100.000        0.000        0.000        2.085        2.065        3.062
     740.000  -255432.492    26009.168    14781.511    39078.541       99.435  -380599.003    45197.856       25.235       25.670        2.568        2.660        2.568        2.647        2.618        2.624        2.711        2.558        2.671        2.700        2.654        2.506        2.477        2.604        2.670        2.548        0.490        1.000        1.000        0.000        1.000        0.000        1.000        0.000        0.000        0.000        0.000        0.000        0.000        0.000        0.000        0.000        0.000        0.000        0.000        0.000        1.000        0.000        0.000        0.000        0.000        0.000        4.000        0.000        2.000        0.000        9.000        0.000        0.000        0.000        0.000        0.000      100.000        0.000        0.000        2.150        2.123        3.166
     750.000  -255046.831    25556.624    15108.917    39295.803       91.582  -380574.623    45474.867       25.483       25.599        2.591        2.682        2.515        2.644        2.615        2.572        2.724        2.508        2.665        2.705        2.663        2.515        2.531        2.616        2.631        2.569        0.482        0.000        1.000        0.000        1.000        0.000        1.000        0.000        0.000        0.000        0.000        0.000        0.000        0.000        1.000        0.000        0.000        0.000        0.000        0.000        1.000        0.000        0.000        0.000        0.000        0.000        4.000        0.000        2.000        0.000        2.000        0.000        0.000        0.000        0.000        0.000      100.000        0.000        0.000        2.203        2.202        3.191
     760.000  -255985.064    25210.069    14840.481    38965.092      102.737  -380626.315    45522.872       25.556       25.877        2.610        2.679        2.527        2.633        2.598        2.556        2.691        2.475        2.682        2.698        2.697        2.528        2.493        2.580        2.704        2.586        0.468        1.000        0.000        0.000        1.000        1.000        0.000        0.000        0.000        0.000        0.000        0.000        0.000        0.000        1.000        0.000        0.000        0.000        0.000        0.000        1.000        0.000        0.000        0.000        0.000        0.000        0.000        0.000        2.000        0.000        3.000        0.000        2.000        0.000        0.000        0.000      100.000        0.000        0.000        2.217        2.213        3.291
     770.000  -255633.446    25236.447    14950.927    39155.985       99.209  -381059.885    45983.871       25.284       25.536        2.609        2.686        2.610        2.646        2.597        2.555        2.695        2.503        2.653        2.714        2.680        2.538        2.483        2.571        2.657        2.573        0.498        1.000        1.000        0.000        1.000        0.000        1.000        0.000        0.000        0.000        0.000        0.000        0.000        0.000        0.000        0.000        0.000        0.000        0.000        0.000        1.000        0.000        0.000        0.000        0.000        1.000        6.000        0.000        2.000        0.000        4.000        0.000        0.000        0.000        0.000        0.000      100.000        0.000        0.000        2.091        2.066        3.135
     780.000  -254709.093    25328.450    14971.454    39239.742       98.241  -380624.551    46277.571       25.462       25.482        2.517        2.672        2.582        2.608        2.580        2.596        2.648        2.584        2.691        2.676        2.669        2.558        2.495        2.572        2.656        2.561        0.491        0.000        1.000        0.000        0.000        0.000        0.000        0.000        0.000        0.000        0.000        0.000        0.000        0.000        0.000        0.000        0.000        0.000        0.000        0.000        1.000        0.000        0.000        0.000        0.000        0.000        6.000        0.000        4.000        0.000        1.000        0.000        1.000        0.000        0.000        0.000      100.000        0.000        0.000        2.178        2.159        3.223
     790.000  -255980.054    24691.952    14787.766    39223.639      102.902  -381705.612    46919.297       25.594       25.716        2.586        2.679        2.616        2.626        2.579        2.608        2.668        2.503        2.694        2.713        2.698        2.544        2.479        2.518        2.704        2.612        0.474        1.000        0.000        0.000        1.000        0.000        1.000        0.000        0.000        0.000        0.000        0.000        0.000        0.000        0.000        0.000        0.000        0.000        0.000        0.000        1.000        0.000        0.000        0.000        0.000        2.000        4.000        0.000        2.000        0.000        1.000        0.000        0.000        0.000        0.000        0.000      100.000        0.000        0.000        1.869        1.847        3.103
     800.000  -254873.277    24111.921    14938.146    39377.184      117.324  -380842.772    47424.921       25.455       25.318        2.550        2.694        2.597        2.605        2.631        2.619        2.707        2.593        2.678        2.680        2.646        2.498        2.511        2.533        2.684        2.532        0.477        1.000        1.000        0.000        1.000        1.000        1.000        0.000        0.000        0.000        0.000        0.000        0.000        0.000        0.000        0.000        0.000        0.000        0.000        0.000        1.000        0.000        0.000        0.000        0.000        2.000        0.000        0.000        2.000        0.000        1.000        0.000        0.000        0.000        4.494        0.000       95.506        0.000        0.000        2.522        2.541        3.417
     810.000  -255522.497    24011.509    15109.888    39406.094       97.789  -381685.574    47537.797       25.273       25.196        2.599        2.659        2.582        2.646        2.532        2.571        2.737        2.560        2.653        2.699        2.694        2.541        2.461        2.504        2.692        2.540        0.520        1.000        1.000        0.000        1.000        1.000        1.000        0.000        0.000        0.000        0.000        0.000        0.000        0.000        0.000        0.000        0.000        0.000        0.000        0.000        1.000        0.000        0.000        0.000        0.000        1.000        4.000        0.000        5.000        0.000        1.000        0.000        0.000        0.000        0.000        0.000      100.000        0.000        0.000        2.939        2.976        3.599
     820.000  -256071.904    25650.597    14640.396    39119.867       94.444  -381386.093    45808.885       25.214       25.409        2.584        2.648        2.551        2.665        2.671        2.568        2.721        2.521        2.677        2.707        2.678        2.491        2.509        2.539        2.607        2.533        0.487        1.000        1.000        0.000        1.000        0.000        1.000        0.000        0.000        0.000        0.000        0.000        0.000        0.000        0.000        0.000        0.000        0.000        0.000        0.000        1.000        0.000        0.000        0.000        0.000        2.000        2.000        0.000        2.000        0.000        1.000        0.000        0.000        0.000        0.000        0.000      100.000        0.000        0.000        3.332        3.366        3.970
     830.000  -254747.292    24606.040    14862.508    39508.983       91.328  -381622.880    47806.730       24.914       25.318        2.602        2.666        2.597        2.666        2.608        2.558        2.715        2.457        2.639        2.709        2.679        2.542        2.451        2.613        2.650        2.558        0.508        1.000        1.000        0.000        1.000        1.000        1.000        0.000        0.000        1.000        0.000        0.000        0.000        0.000        0.000        0.000        0.000        0.000        0.000        0.000        1.000        0.000        0.000        0.000        0.000        0.000        1.000        0.000        3.000        0.000        1.000        0.000        0.000        0.000        0.000        0.000      100.000        0.000        0.000        2.841        2.890        3.691
     840.000  -256078.200    25800.376    15010.924    39135.465      118.819  -381301.960    45158.177       25.334       25.569        2.625        2.654        2.618        2.665        2.539        2.595        2.708        2.506        2.658        2.727        2.710        2.531        2.520        2.532        2.643        2.510        0.489        1.000        1.000        0.000        1.000        0.000        1.000        0.000        0.000        0.000        0.000        0.000        0.000        0.000        0.000        0.000        0.000        0.000        0.000        0.000        1.000        0.000        0.000        0.000        0.000        2.000        0.000        0.000        6.000        0.000        1.000        0.000        3.000        0.000        0.000        0.000      100.000        0.000        0.000        2.356        2.384        3.435
     850.000  -255693.225    24962.869    14790.651    39054.733      107.814  -380384.888    45775.596       25.468       25.650        2.587        2.693        2.586        2.620        2.532        2.603        2.710        2.556        2.678        2.715        2.739        2.509        2.489        2.594        2.637        2.589        0.502        1.000        0.000        0.000        1.000        1.000        0.000        0.000        0.000        0.000        0.000        0.000        0.000        0.000        1.000        0.000        0.000        0.000        0.000        0.000        0.000        0.000        0.000        0.000        0.000        0.000        1.000        0.000        2.000        2.000        0.000        0.000        0.000        0.000        0.000        0.000      100.000        0.000        0.000        2.017        2.050        3.300
     860.000  -255905.742    25003.274    14905.752    39342.785       89.366  -381845.424    46598.505       25.372       25.491        2.618        2.679        2.676        2.651        2.640        2.579        2.693        2.503        2.644        2.709        2.688        2.497        2.493        2.600        2.637        2.637        0.496        1.000        1.000        0.000        1.000        1.000        0.000        0.000        0.000        0.000        0.000        0.000        0.000        0.000        0.000        0.000        0.000        0.000        0.000        0.000        1.000        0.000        0.000        0.000        0.000        1.000        1.000        0.000        3.000        0.000        0.000        0.000        1.000        0.000        0.000        0.000      100.000        0.000        0.000        2.006        2.020        3.153
     870.000  -255576.228    25780.228    15010.424    39115.457      106.616  -381819.622    46230.671       25.880       25.742        2.601        2.690        2.552        2.683        2.576        2.544        2.685        2.563        2.672        2.678        2.707        2.464        2.515        2.554        2.621        2.618        0.490        1.000        1.000        0.000        1.000        1.000        0.000        0.000        0.000        0.000        0.000        0.000        0.000        0.000        0.000        0.000        0.000        0.000        0.000        0.000        0.000        0.000        0.000        0.000        0.000        0.000        0.000        0.000        4.000        0.000        3.000        0.000        1.000        0.000        0.000        0.000      100.000        0.000        0.000        1.706        1.716        2.870
     880.000  -255783.005    25172.375    14931.130    39167.259       96.259  -380404.452    45254.424       25.915       26.128        2.617        2.701        2.635        2.635        2.587        2.606        2.699        2.584        2.724        2.727        2.629        2.508        2.446        2.542        2.605        2.576        0.472        1.000        1.000        0.000        1.000        0.000        0.000        0.000        0.000        0.000        0.000        0.000        0.000        0.000        1.000        0.000        0.000        0.000        0.000        0.000        1.000        0.000        0.000        0.000        0.000        0.000        4.000        0.000        3.000        0.000        2.000        0.000        1.000        0.000        0.000        0.000      100.000        0.000        0.000        1.450        1.475        2.770
     890.000  -255858.189    24858.475    15160.529    39163.065      119.681  -383039.827    47879.888       25.742       25.868        2.521        2.710        2.619        2.646        2.614        2.578        2.691        2.518        2.667        2.706        2.672        2.464        2.507        2.564        2.611        2.590        0.483        0.000        1.000        0.000        1.000        1.000        0.000        0.000        0.000        0.000        0.000        0.000        0.000        0.000        0.000        0.000        0.000        0.000        0.000        0.000        1.000        0.000        0.000        0.000        0.000        0.000        0.000        0.000        2.000        1.000        0.000        0.000        2.000        0.000        0.000        0.000      100.000        0.000        0.000        1.530        1.547        3.101
     900.000  -255448.537    25430.739    15221.053    39193.572      112.312  -381691.043    46284.829       25.781       25.846        2.634        2.671        2.661        2.698        2.601        2.518        2.647        2.571        2.658        2.674        2.699        2.465        2.469        2.553        2.656        2.592        0.486        1.000        1.000        0.000        2.000        0.000        0.000        0.000        0.000        0.000        0.000        0.000        0.000        0.000        0.000        0.000        0.000        0.000        0.000        0.000        1.000        0.000        0.000        0.000        0.000        0.000        1.000        0.000        1.000        0.000        1.000        0.000        1.000        0.000        0.000        0.000      100.000        0.000        0.000        1.734        1.736        3.010
     910.000  -255826.986    26399.804    15285.865    38977.163      111.342  -382575.697    45974.537       25.781       25.799        2.578        2.666        2.584        2.624        2.593        2.601        2.731        2.582        2.714        2.658        2.710        2.557        2.500        2.569        2.589        2.579        0.481        0.000        1.000        0.000        2.000        1.000        0.000        0.000        0.000        0.000        0.000        0.000        0.000        0.000        0.000        0.000        0.000        0.000        0.000        0.000        1.000        0.000        0.000        0.000        0.000        0.000        3.000        0.000        2.000        0.000        1.000        0.000        0.000        0.000        0.000        0.000      100.000        0.000        0.000        1.900        1.905        3.123
     920.000  -256332.726    24423.426    14590.185    39290.808      113.328  -381872.222    47121.748       25.809       25.890        2.545        2.674        2.618        2.629        2.508        2.581        2.677        2.554        2.688        2.663        2.647        2.512        2.565        2.557        2.590        2.635        0.480        1.000        0.000        0.000        2.000        0.000        0.000        0.000        0.000        0.000        0.000        0.000        0.000        0.000        0.000        0.000        0.000        0.000        0.000        0.000        2.000        0.000        0.000        0.000        0.000        0.000        0.000        0.000        4.000        0.000        1.000        0.000        0.000        0.000        0.000        0.000      100.000        0.000        0.000        1.712        1.733        3.041
     930.000  -255863.360    25174.624    15056.537    39082.920       91.046  -381552.662    46284.175       25.944       26.150        2.533        2.684        2.600        2.620        2.574        2.629        2.688        2.522        2.696        2.684        2.703        2.479        2.490        2.527        2.583        2.593        0.476        1.000        0.000        0.000        2.000        1.000        0.000        0.000        0.000        0.000        0.000        0.000        0.000        0.000        0.000        0.000        0.000        0.000        0.000        0.000        1.000        0.000        0.000        0.000        0.000        0.000        0.000        0.000        3.000        1.000        0.000        0.000        0.000        0.000        0.000        0.000      100.000        0.000        0.000        1.900        1.906        3.002
     940.000  -256383.608    24008.132    14545.296    39146.807       95.718  -381444.321    47264.759       25.689       25.833        2.558        2.662        2.619        2.647        2.510        2.589        2.695        2.537        2.692        2.669        2.671        2.546        2.533        2.528        2.608        2.622        0.499        1.000        1.000        0.000        2.000        1.000        0.000        0.000        0.000        0.000        0.000        0.000        0.000        0.000        0.000        0.000        0.000        0.000        0.000        0.000        1.000        0.000        0.000        0.000        0.000        0.000        2.000        0.000        4.000        0.000        0.000        0.000        1.000        0.000        4.494        0.000       95.506        0.000        0.000        1.515        1.543        2.929
     950.000  -255631.306    25169.773    14495.007    39446.317      111.678  -380296.441    45442.359       25.330       25.675        2.600        2.636        2.618        2.693        2.509        2.597        2.684        2.616        2.659        2.661        2.650        2.527        2.513        2.548        2.676        2.632        0.488        1.000        0.000        0.000        2.000        1.000        0.000        0.000        0.000        0.000        0.000        0.000        0.000        0.000        0.000        0.000        0.000        0.000        0.000        0.000        0.000        0.000        0.000        0.000        0.000        0.000        2.000        0.000        5.000        0.000        3.000        0.000        0.000        0.000        4.494        0.000       95.506        0.000        0.000        1.456        1.495        2.921
     960.000  -255642.726    24357.754    15143.359    39501.002      101.444  -381962.137    47215.852       25.509       25.667        2.553        2.634        2.574        2.649        2.559        2.570        2.689        2.510        2.689        2.664        2.657        2.508        2.471        2.580        2.661        2.611        0.506        1.000        0.000        0.000        2.000        0.000        0.000        0.000        0.000        0.000        0.000        0.000        0.000        0.000        0.000        0.000        0.000        0.000        0.000        0.000        1.000        0.000        0.000        0.000        0.000        0.000        2.000        0.000        5.000        1.000        0.000        0.000        0.000        0.000        4.494        0.000       95.506        0.000        0.000        1.541        1.588        2.969
     970.000  -255322.557    24749.660    15114.007    39207.360      125.033  -381553.424    47034.807       25.936       26.134        2.568        2.664        2.504        2.679        2.621        2.573        2.671        2.514        2.689        2.658        2.706        2.535        2.471        2.554        2.607        2.638        0.482        0.000        0.000        0.000        2.000        1.000        0.000        0.000        0.000        0.000        0.000        0.000        0.000        0.000        0.000        0.000        0.000        0.000        0.000        0.000        1.000        0.000        0.000        0.000        0.000        0.000        2.000        0.000        6.000        0.000        2.000        0.000        2.000        0.000        0.000        0.000      100.000        0.000        0.000        1.602        1.656        3.026
     980.000  -256770.064    24069.025    15180.625    39146.676      116.446  -382899.620    47616.784       25.936       25.959        2.558        2.669        2.590        2.644        2.522        2.606        2.679        2.544        2.669        2.641        2.668        2.504        2.490        2.574        2.650        2.544        0.491        0.000        0.000        0.000        2.000        0.000        1.000        0.000        0.000        1.000        0.000        0.000        0.000        0.000        0.000        0.000        0.000        0.000        0.000        0.000        1.000        0.000        0.000        0.000        0.000        0.000        2.000        0.000        5.000        0.000        3.000        0.000        2.000        0.000        0.000        0.000      100.000        0.000        0.000        2.015        2.054        3.252
     990.000  -256410.693    25736.091    15128.256    39214.693      101.614  -383335.015    46743.669       25.854       25.972        2.595        2.604        2.564        2.692        2.591        2.591        2.712        2.498        2.681        2.640        2.661        2.569        2.475        2.525        2.661        2.557        0.501        1.000        0.000        0.000        2.000        1.000        0.000        0.000        0.000        1.000        0.000        0.000        0.000        0.000        0.000        0.000        0.000        0.000        0.000        0.000        0.000        0.000        0.000        0.000        0.000        0.000        2.000        0.000        4.000        1.000        0.000        0.000        5.000        0.000        0.000        0.000      100.000        0.000        0.000        1.891        1.931        3.269
    1000.000  -256053.066    24277.286    15452.361    39298.918      107.276  -383046.133    47857.226       25.961       25.903        2.583        2.671        2.554        2.666        2.541        2.593        2.652        2.561        2.690        2.664        2.633        2.483        2.487        2.524        2.660        2.622        0.496        0.000        0.000        0.000        2.000        0.000        0.000        0.000        0.000        0.000        0.000        0.000        0.000        0.000        0.000        0.000        0.000        0.000        0.000        0.000        0.000        0.000        0.000        0.000        0.000        1.000        4.000        0.000        2.000        0.000        2.000        0.000        2.000        0.000        0.000        0.000      100.000        0.000        0.000        2.065        2.101        3.415
     Average  -257338.473    25460.305    15093.120    39280.185      103.279  -384198.154    46922.794       25.546       25.787        2.571        2.674        2.592        2.648        2.581        2.538        2.697        2.487        2.678        2.675        2.663        2.513        2.490        2.561        2.659        2.587        0.488        0.842        0.871        0.000        1.030        0.614        1.059        0.000        0.000        0.168        0.010        0.000        0.000        0.000        0.089        0.000        0.129        0.000        0.000        0.000        0.842        0.000        0.000        0.000        0.000        0.594        3.020        0.000        2.416        0.663        4.168        0.000        1.376        0.000        0.400        0.000       99.600        0.000        0.000        2.135        2.163        2.948

