____Time[ps] Energy[ kJ/mol ]_____Bond _______Angle ____Dihedral ___Planarity _____Coulomb _________VdW _Your result _Your result _Your result _Your result _Your result _Your result _Your result _Your result _Your result _Your result _Your result _Your result _Your result _Your result _Your result _Your result _Your result _Your result _Your result _Your result _Your result _Your result _Your result _Your result _Your result _Your result _Your result _Your result _Your result _Your result _Your result _Your result _Your result _Your result _Your result _Your result _Your result _Your result _Your result _Your result _Your result _Your result _Your result _Your result _Your result _Your result _Your result _Your result _Your result _Your result _Your result _Your result _Your result _Your result _Your result _Your result _Your result _RMSDs[A]:CA ____Backbone __HeavyAtoms
       0.000  -347246.066     9891.748     5284.663    37900.315       23.717  -467715.989    67369.480       25.370       25.385        3.095        2.936        3.169        3.182        3.206        3.012        3.252        3.005        3.221        3.253        3.048        3.198        2.513        2.574        2.620        2.581        0.489        1.000        1.000        1.000        1.000        2.000        3.000        0.000        0.000        0.000        0.000        0.000        0.000        0.000        0.000        0.000        1.000        0.000        0.000        0.000        0.000        0.000        0.000        0.000        0.000        1.000        1.000        2.000        1.000        1.000        3.000        1.000        1.000        0.000        0.000        0.000      100.000        0.000        0.000        0.514        0.555        0.689
      10.000  -259989.628    29565.481    15461.418    37993.351      120.384  -393194.403    50064.141       26.058       26.032        3.079        2.976        3.083        3.181        3.204        3.074        3.190        2.979        3.199        3.279        3.079        3.137        2.467        2.597        2.612        2.622        0.494        1.000        1.000        1.000        1.000        2.000        3.000        0.000        0.000        0.000        0.000        1.000        1.000        0.000        0.000        0.000        1.000        0.000        0.000        0.000        0.000        0.000        0.000        0.000        0.000        1.000        1.000        0.000        0.000        2.000        0.000        1.000        3.000        0.000        0.000        0.000      100.000        0.000        0.000        1.497        1.524        1.662
      20.000  -258717.010    28694.373    15688.900    37960.478       90.393  -390774.076    49622.923       25.792       25.807        3.060        3.163        3.084        3.196        3.219        3.071        3.231        2.991        3.229        3.257        3.002        3.107        2.493        2.574        2.672        2.603        0.497        1.000        1.000        1.000        1.000        2.000        2.000        0.000        0.000        0.000        0.000        0.000        0.000        0.000        0.000        0.000        0.000        0.000        0.000        0.000        0.000        0.000        0.000        0.000        0.000        0.000        1.000        0.000        4.000        1.000        2.000        2.000        3.000        0.000        0.000        0.000      100.000        0.000        0.000        1.392        1.397        1.659
      30.000  -259250.192    30047.982    15591.582    37849.414       87.046  -390791.882    47965.666       25.900       25.848        3.101        3.219        3.123        3.180        3.192        3.049        3.231        3.009        3.181        3.225        3.035        3.120        2.539        2.604        2.625        2.571        0.481        1.000        1.000        1.000        1.000        2.000        2.000        0.000        0.000        0.000        0.000        0.000        0.000        0.000        0.000        1.000        1.000        0.000        0.000        0.000        0.000        0.000        0.000        0.000        0.000        1.000        0.000        1.000        2.000        2.000        5.000        0.000        6.000        0.000        0.000        0.000      100.000        0.000        0.000        1.203        1.207        1.568
      40.000  -259471.099    29707.699    15582.636    37623.398       94.896  -390901.086    48421.357       26.025       25.636        3.098        3.213        3.143        3.202        3.202        3.002        3.256        2.992        3.223        3.162        3.012        3.055        2.540        2.567        2.668        2.594        0.505        1.000        1.000        1.000        1.000        2.000        2.000        0.000        0.000        0.000        0.000        0.000        1.000        0.000        0.000        1.000        0.000        0.000        0.000        0.000        0.000        0.000        0.000        0.000        0.000        1.000        5.000        0.000        1.000        1.000        6.000        1.000        2.000        0.000        0.000        0.000      100.000        0.000        0.000        1.398        1.434        1.791
      50.000  -258912.884    28700.271    15763.939    37756.728       99.075  -390822.607    49589.710       26.409       25.918        3.126        3.179        3.112        3.171        3.176        3.084        3.248        3.065        3.241        3.226        3.000        3.141        2.566        2.558        2.658        2.585        0.477        0.000        1.000        1.000        1.000        1.000        2.000        0.000        0.000        0.000        0.000        0.000        1.000        0.000        0.000        0.000        0.000        0.000        0.000        0.000        0.000        0.000        0.000        0.000        0.000        0.000        2.000        0.000        2.000        1.000        5.000        0.000        2.000        0.000        0.000        0.000      100.000        0.000        0.000        1.856        1.868        2.137
      60.000  -258307.129    27075.722    15716.655    37762.556      137.171  -389201.579    50202.347       26.107       25.670        3.137        3.211        3.063        3.141        3.187        3.017        3.238        3.018        3.205        3.231        3.054        3.082        2.512        2.542        2.648        2.550        0.495        0.000        1.000        1.000        1.000        1.000        2.000        0.000        0.000        0.000        0.000        1.000        0.000        0.000        0.000        1.000        0.000        0.000        0.000        0.000        0.000        0.000        0.000        0.000        0.000        1.000        2.000        1.000        1.000        3.000        4.000        3.000        1.000        0.000        0.000        0.000      100.000        0.000        0.000        2.016        2.023        2.364
      70.000  -258119.498    28862.477    16209.270    37715.767       83.103  -389397.395    48407.279       26.042       25.885        3.123        3.199        3.165        3.201        3.218        3.042        3.256        3.001        3.237        3.234        3.073        3.145        2.505        2.530        2.666        2.574        0.501        1.000        1.000        1.000        0.000        1.000        2.000        0.000        0.000        0.000        0.000        0.000        0.000        1.000        1.000        0.000        0.000        0.000        0.000        0.000        0.000        0.000        0.000        0.000        0.000        0.000        4.000        1.000        2.000        3.000        2.000        3.000        1.000        0.000        0.000        0.000      100.000        0.000        0.000        1.779        1.783        2.243
      80.000  -257664.699    27942.738    16107.958    37721.617      136.037  -386391.066    46818.018       26.003       25.987        3.145        3.199        3.127        3.151        3.245        3.119        3.198        2.981        3.161        3.132        3.119        3.088        2.551        2.546        2.611        2.561        0.492        1.000        1.000        1.000        0.000        1.000        2.000        0.000        0.000        0.000        0.000        0.000        0.000        0.000        0.000        0.000        0.000        0.000        0.000        0.000        0.000        0.000        0.000        0.000        0.000        0.000        2.000        0.000        1.000        1.000        3.000        0.000        2.000        0.000        0.000        0.000      100.000        0.000        0.000        1.660        1.672        2.217
      90.000  -257120.242    27541.827    15757.625    37789.336      127.857  -386977.236    48640.350       25.888       25.681        3.105        3.244        3.072        3.183        3.227        3.056        3.292        2.957        3.178        3.170        3.027        3.087        2.486        2.562        2.655        2.542        0.494        1.000        1.000        1.000        0.000        2.000        2.000        0.000        0.000        0.000        0.000        0.000        0.000        0.000        0.000        0.000        1.000        0.000        0.000        0.000        0.000        0.000        0.000        0.000        0.000        0.000        1.000        1.000        3.000        2.000        4.000        0.000        2.000        0.000        0.000        0.000      100.000        0.000        0.000        1.961        1.970        2.395
     100.000  -257579.737    27090.765    15659.142    37702.193       98.813  -386566.440    48435.790       26.007       25.774        3.064        3.205        3.140        3.262        3.140        3.072        3.245        2.917        3.182        3.182        3.014        3.106        2.490        2.549        2.639        2.557        0.497        0.000        1.000        0.000        0.000        1.000        1.000        0.000        0.000        0.000        0.000        0.000        0.000        0.000        0.000        0.000        1.000        0.000        0.000        0.000        0.000        0.000        0.000        0.000        0.000        0.000        3.000        1.000        3.000        1.000        6.000        2.000        2.000        0.000        0.000        0.000      100.000        0.000        0.000        2.302        2.303        2.689
     110.000  -257316.247    26944.870    15620.109    37824.267      107.715  -386203.776    48390.568       25.674       25.648        3.098        3.165        3.104        3.212        3.171        3.019        3.274        2.997        3.173        3.151        3.119        3.069        2.488        2.570        2.628        2.545        0.498        1.000        1.000        0.000        0.000        0.000        2.000        0.000        0.000        0.000        0.000        0.000        0.000        0.000        0.000        1.000        1.000        0.000        0.000        0.000        0.000        0.000        0.000        0.000        0.000        0.000        1.000        1.000        0.000        1.000        3.000        1.000        4.000        0.000        0.000        0.000      100.000        0.000        0.000        2.144        2.163        2.617
     120.000  -256700.267    26520.768    15528.067    37591.413      109.096  -384303.148    47853.536       25.758       25.678        3.041        3.183        3.089        3.203        3.120        3.018        3.236        2.974        3.177        3.153        3.011        3.089        2.562        2.579        2.638        2.576        0.496        1.000        1.000        0.000        0.000        1.000        2.000        0.000        0.000        0.000        0.000        0.000        1.000        0.000        0.000        0.000        0.000        0.000        0.000        0.000        0.000        0.000        0.000        0.000        0.000        0.000        4.000        0.000        2.000        0.000        4.000        1.000        3.000        0.000        0.000        0.000      100.000        0.000        0.000        2.011        2.006        2.503
     130.000  -256541.530    26840.275    15593.578    37619.402      134.980  -384614.276    47884.511       25.915       25.647        3.029        3.320        3.034        3.170        3.149        3.133        3.283        2.973        3.178        3.181        3.048        3.158        2.555        2.518        2.646        2.576        0.487        0.000        1.000        1.000        0.000        1.000        1.000        1.000        0.000        0.000        0.000        0.000        1.000        0.000        1.000        1.000        1.000        0.000        0.000        0.000        0.000        0.000        0.000        0.000        0.000        0.000        5.000        0.000        2.000        2.000        4.000        0.000        4.000        0.000        0.000        0.000      100.000        0.000        0.000        2.012        2.004        2.417
     140.000  -256517.941    27161.565    15728.851    37523.899      118.499  -383965.640    46914.886       26.110       25.863        2.974        3.265        3.059        3.245        3.137        3.070        3.228        2.912        3.157        3.143        3.015        3.115        2.542        2.539        2.676        2.575        0.493        1.000        1.000        0.000        0.000        0.000        2.000        0.000        0.000        0.000        0.000        1.000        0.000        0.000        1.000        0.000        1.000        0.000        0.000        0.000        0.000        0.000        0.000        0.000        0.000        0.000        2.000        1.000        2.000        2.000        5.000        2.000        1.000        0.000        0.000        0.000      100.000        0.000        0.000        2.214        2.232        2.667
     150.000  -256535.265    27056.183    15463.912    37494.777      104.688  -383666.495    47011.669       26.217       26.207        3.057        3.373        3.090        3.223        3.153        3.065        3.210        2.965        3.198        3.167        3.078        3.092        2.502        2.515        2.635        2.585        0.470        1.000        1.000        0.000        0.000        0.000        2.000        0.000        0.000        0.000        0.000        0.000        0.000        0.000        0.000        0.000        0.000        0.000        0.000        0.000        0.000        0.000        0.000        0.000        0.000        0.000        3.000        0.000        1.000        2.000        3.000        0.000        3.000        0.000        0.000        0.000      100.000        0.000        0.000        2.257        2.254        2.752
     160.000  -256291.497    27363.816    15666.829    37653.933      101.032  -383560.160    46483.053       25.995       25.870        3.075        3.269        3.072        3.212        3.129        3.055        3.258        3.050        3.204        3.162        3.041        3.102        2.473        2.583        2.676        2.568        0.486        1.000        1.000        0.000        0.000        0.000        2.000        0.000        0.000        0.000        0.000        0.000        0.000        0.000        0.000        2.000        2.000        0.000        0.000        0.000        0.000        0.000        0.000        0.000        0.000        0.000        2.000        0.000        1.000        1.000        2.000        2.000        3.000        0.000        0.000        0.000      100.000        0.000        0.000        1.734        1.728        2.388
     170.000  -255712.853    27356.138    15667.872    37383.171       89.838  -381878.049    45668.176       25.898       26.035        3.052        3.241        3.075        3.262        3.189        3.043        3.254        3.033        3.189        3.173        3.092        3.160        2.468        2.611        2.632        2.615        0.484        0.000        1.000        0.000        0.000        1.000        2.000        0.000        0.000        0.000        0.000        0.000        0.000        0.000        1.000        0.000        2.000        0.000        0.000        0.000        0.000        0.000        0.000        0.000        0.000        0.000        2.000        0.000        1.000        2.000        2.000        1.000        1.000        0.000        0.000        0.000      100.000        0.000        0.000        2.094        2.083        2.725
     180.000  -256136.941    27096.848    15692.717    37474.841      106.547  -382452.905    45945.012       25.394       25.603        3.056        3.225        3.066        3.249        3.182        3.072        3.269        2.983        3.192        3.129        3.113        3.090        2.551        2.571        2.618        2.552        0.498        1.000        1.000        0.000        0.000        0.000        2.000        0.000        0.000        0.000        0.000        0.000        0.000        0.000        0.000        0.000        1.000        0.000        0.000        0.000        0.000        0.000        0.000        0.000        0.000        0.000        2.000        0.000        1.000        0.000        1.000        1.000        0.000        0.000        0.000        0.000      100.000        0.000        0.000        2.175        2.155        2.769
     190.000  -255672.152    26692.597    15662.595    37450.480      128.156  -382532.086    46926.105       25.393       25.421        3.116        3.242        3.047        3.244        3.158        3.058        3.210        3.048        3.201        3.142        3.131        3.136        2.490        2.608        2.655        2.555        0.495        0.000        1.000        1.000        0.000        0.000        2.000        0.000        0.000        0.000        0.000        0.000        0.000        0.000        1.000        1.000        0.000        0.000        0.000        0.000        0.000        0.000        0.000        0.000        0.000        0.000        2.000        1.000        1.000        1.000        2.000        1.000        1.000        0.000        0.000        0.000      100.000        0.000        0.000        2.365        2.329        2.914
     200.000  -255404.252    25938.853    15056.195    37699.214      152.972  -382554.551    48303.066       25.520       25.375        3.066        3.250        3.067        3.218        3.124        3.184        3.225        3.071        3.235        3.198        3.112        3.112        2.467        2.598        2.649        2.530        0.468        1.000        1.000        1.000        0.000        0.000        2.000        0.000        0.000        0.000        0.000        0.000        0.000        0.000        1.000        0.000        2.000        0.000        0.000        0.000        0.000        0.000        0.000        0.000        0.000        0.000        2.000        0.000        4.000        2.000        4.000        2.000        2.000        0.000        0.000        0.000      100.000        0.000        0.000        2.490        2.498        2.903
     210.000  -255021.423    25854.295    15556.733    37571.459      115.412  -380800.880    46681.559       25.571       25.504        3.054        3.275        3.027        3.247        3.171        3.004        3.253        2.955        3.219        3.185        3.148        3.063        2.452        2.567        2.640        2.643        0.502        1.000        0.000        1.000        0.000        0.000        2.000        0.000        0.000        0.000        0.000        1.000        0.000        0.000        1.000        0.000        0.000        0.000        0.000        0.000        0.000        0.000        0.000        0.000        0.000        0.000        1.000        0.000        0.000        0.000        1.000        2.000        0.000        0.000        0.000        0.000      100.000        0.000        0.000        2.498        2.506        2.881
     220.000  -256354.724    26942.262    15468.847    37414.720      112.916  -383303.823    47010.353       25.808       25.754        3.048        3.287        3.099        3.271        3.193        3.065        3.227        3.021        3.213        3.161        3.060        3.163        2.457        2.572        2.652        2.540        0.482        0.000        1.000        1.000        0.000        0.000        2.000        0.000        0.000        0.000        0.000        1.000        0.000        0.000        0.000        0.000        1.000        0.000        0.000        0.000        0.000        0.000        0.000        0.000        0.000        0.000        5.000        1.000        1.000        3.000        5.000        0.000        2.000        0.000        0.000        0.000      100.000        0.000        0.000        2.215        2.218        2.684
     230.000  -255174.024    26268.233    15526.856    37396.292      137.557  -380927.085    46424.123       25.899       25.856        3.060        3.292        3.069        3.251        3.214        3.134        3.246        3.012        3.195        3.145        3.100        3.133        2.494        2.595        2.640        2.595        0.488        0.000        1.000        1.000        0.000        0.000        2.000        0.000        0.000        0.000        0.000        0.000        0.000        0.000        0.000        1.000        3.000        0.000        0.000        0.000        0.000        0.000        0.000        0.000        0.000        2.000        5.000        0.000        0.000        0.000        4.000        1.000        1.000        0.000        0.000        0.000      100.000        0.000        0.000        2.201        2.215        2.608
     240.000  -255172.954    25921.078    15624.528    37412.023      105.435  -381180.846    46944.828       25.971       25.763        3.060        3.243        3.113        3.267        3.146        3.018        3.255        2.979        3.166        3.122        3.054        3.147        2.439        2.577        2.670        2.622        0.479        0.000        0.000        1.000        0.000        0.000        2.000        0.000        0.000        0.000        0.000        1.000        0.000        0.000        0.000        0.000        1.000        0.000        0.000        0.000        0.000        0.000        0.000        0.000        0.000        3.000        3.000        0.000        0.000        1.000        2.000        1.000        2.000        0.000        0.000        0.000      100.000        0.000        0.000        2.221        2.255        2.672
     250.000  -254664.635    25810.905    15375.931    37685.993       99.751  -381848.614    48211.398       26.012       25.692        3.044        3.319        3.057        3.242        3.199        3.033        3.224        2.989        3.200        3.202        3.098        3.071        2.474        2.593        2.661        2.579        0.478        0.000        1.000        1.000        0.000        0.000        2.000        0.000        0.000        0.000        0.000        1.000        0.000        0.000        0.000        0.000        2.000        0.000        0.000        0.000        0.000        0.000        0.000        0.000        0.000        1.000        2.000        0.000        2.000        1.000        4.000        0.000        0.000        0.000        0.000        0.000      100.000        0.000        0.000        2.764        2.791        3.028
     260.000  -255333.099    25934.543    15358.787    37320.164      130.734  -380324.432    46247.106       25.572       25.345        3.043        3.266        3.035        3.255        3.118        3.018        3.250        3.020        3.184        3.160        3.089        3.110        2.519        2.603        2.649        2.621        0.515        0.000        1.000        1.000        0.000        0.000        2.000        0.000        0.000        0.000        0.000        0.000        0.000        0.000        0.000        0.000        1.000        0.000        0.000        0.000        0.000        0.000        0.000        0.000        0.000        1.000        4.000        0.000        0.000        3.000        5.000        5.000        3.000        0.000        0.000        0.000      100.000        0.000        0.000        2.909        2.952        3.176
     270.000  -255503.250    26590.718    15583.549    37557.209      101.511  -383365.249    48029.011       25.969       25.624        2.984        3.271        2.977        3.236        3.163        3.107        3.230        3.039        3.162        3.133        3.086        3.073        2.506        2.527        2.629        2.601        0.493        0.000        1.000        1.000        0.000        0.000        2.000        0.000        0.000        0.000        0.000        1.000        0.000        0.000        1.000        0.000        1.000        0.000        0.000        0.000        0.000        0.000        0.000        0.000        0.000        1.000        4.000        1.000        0.000        1.000        2.000        2.000        2.000        0.000        0.000        0.000      100.000        0.000        0.000        2.894        2.918        3.224
     280.000  -255850.437    25920.404    15021.957    37774.023      130.181  -382212.121    47515.120       25.574       25.365        2.976        3.270        3.078        3.184        3.205        3.018        3.225        3.055        3.139        3.172        3.054        3.136        2.542        2.556        2.633        2.610        0.495        0.000        1.000        0.000        0.000        1.000        2.000        0.000        0.000        0.000        0.000        1.000        0.000        0.000        0.000        0.000        3.000        0.000        0.000        0.000        0.000        0.000        0.000        0.000        0.000        1.000        1.000        1.000        2.000        0.000        5.000        1.000        3.000        0.000        0.000        0.000      100.000        0.000        0.000        2.796        2.832        3.131
     290.000  -254443.453    25313.418    15235.636    37593.140       93.149  -379929.234    47250.437       25.620       25.328        3.053        3.255        3.048        3.187        3.128        3.026        3.220        3.054        3.252        3.211        3.057        3.102        2.475        2.594        2.650        2.572        0.492        0.000        1.000        1.000        0.000        0.000        2.000        0.000        0.000        0.000        0.000        0.000        0.000        0.000        0.000        1.000        1.000        0.000        0.000        0.000        0.000        0.000        0.000        0.000        0.000        1.000        1.000        0.000        2.000        2.000        2.000        1.000        1.000        0.000        0.000        0.000      100.000        0.000        0.000        2.631        2.646        2.953
     300.000  -254389.124    26710.968    15309.990    37484.642      115.432  -379489.114    45478.958       25.670       25.304        3.096        3.221        3.037        3.199        3.219        3.012        3.247        2.978        3.211        3.207        3.048        3.075        2.517        2.575        2.671        2.585        0.486        0.000        1.000        1.000        0.000        0.000        2.000        0.000        0.000        0.000        0.000        0.000        0.000        0.000        0.000        0.000        1.000        0.000        0.000        0.000        0.000        0.000        0.000        0.000        0.000        1.000        2.000        0.000        1.000        2.000        6.000        4.000        2.000        0.000        4.494        0.000       95.506        0.000        0.000        2.808        2.822        3.241
     310.000  -254621.114    26594.766    15519.467    37428.661       92.755  -380245.678    45988.915       25.713       25.466        3.052        3.212        3.058        3.189        3.228        3.061        3.259        3.017        3.212        3.175        3.063        3.126        2.585        2.578        2.616        2.600        0.478        0.000        1.000        1.000        0.000        0.000        2.000        0.000        0.000        0.000        0.000        0.000        0.000        0.000        1.000        0.000        1.000        0.000        0.000        0.000        0.000        0.000        0.000        0.000        0.000        1.000        2.000        0.000        0.000        2.000        5.000        2.000        5.000        0.000        0.000        0.000      100.000        0.000        0.000        2.571        2.615        3.055
     320.000  -255012.694    25343.237    15512.219    37665.492       93.712  -380762.398    47135.044       25.938       25.696        3.003        3.267        3.027        3.204        3.184        3.056        3.255        3.020        3.214        3.173        2.987        3.140        2.568        2.555        2.638        2.588        0.476        0.000        1.000        1.000        0.000        1.000        2.000        0.000        0.000        0.000        0.000        1.000        0.000        0.000        0.000        0.000        1.000        0.000        0.000        0.000        0.000        0.000        0.000        0.000        0.000        1.000        0.000        1.000        1.000        3.000        1.000        4.000        0.000        0.000        0.000        0.000      100.000        0.000        0.000        2.801        2.789        3.355
     330.000  -254712.798    25251.963    15206.867    37583.662      107.738  -380007.488    47144.459       25.570       25.508        3.115        3.205        3.086        3.202        3.162        3.035        3.240        3.028        3.224        3.178        3.057        3.139        2.569        2.588        2.642        2.565        0.484        0.000        1.000        1.000        0.000        0.000        2.000        0.000        0.000        0.000        0.000        1.000        0.000        0.000        1.000        0.000        0.000        0.000        0.000        0.000        0.000        0.000        0.000        0.000        0.000        1.000        1.000        0.000        2.000        4.000        5.000        5.000        3.000        0.000        0.000        0.000      100.000        0.000        0.000        3.134        3.168        3.387
     340.000  -254685.182    25163.918    15142.335    37698.815      111.710  -379429.215    46627.255       25.676       25.338        3.094        3.256        3.074        3.259        3.175        3.091        3.240        2.967        3.186        3.162        3.027        3.086        2.514        2.557        2.626        2.538        0.492        0.000        1.000        1.000        0.000        0.000        2.000        0.000        0.000        0.000        0.000        1.000        0.000        0.000        1.000        0.000        0.000        0.000        0.000        0.000        0.000        0.000        0.000        0.000        0.000        1.000        0.000        0.000        2.000        2.000        7.000        3.000        0.000        0.000        0.000        0.000      100.000        0.000        0.000        2.917        2.960        3.195
     350.000  -254687.778    24856.763    15068.648    37455.096       95.691  -378995.807    46831.830       25.929       25.453        3.087        3.254        3.031        3.284        3.163        3.039        3.287        2.965        3.238        3.214        3.025        3.153        2.552        2.589        2.657        2.542        0.494        0.000        1.000        0.000        0.000        0.000        2.000        0.000        0.000        0.000        0.000        0.000        0.000        0.000        1.000        0.000        2.000        0.000        0.000        0.000        0.000        0.000        0.000        0.000        0.000        1.000        2.000        0.000        3.000        3.000        3.000        2.000        2.000        0.000        0.000        0.000      100.000        0.000        0.000        2.906        2.963        3.266
     360.000  -255055.986    25486.194    15077.214    37741.339      125.503  -379654.599    46168.363       25.793       25.219        3.104        3.299        3.082        3.238        3.159        3.037        3.223        3.064        3.167        3.216        3.018        3.105        2.552        2.578        2.604        2.580        0.494        0.000        1.000        1.000        0.000        0.000        2.000        0.000        0.000        0.000        0.000        0.000        0.000        0.000        0.000        0.000        1.000        0.000        0.000        0.000        0.000        0.000        0.000        0.000        0.000        1.000        0.000        0.000        1.000        3.000        2.000        3.000        2.000        0.000        0.000        0.000      100.000        0.000        0.000        3.426        3.485        3.759
     370.000  -253996.232    25152.655    15618.728    37565.877      104.048  -379200.886    46763.346       25.580       25.358        3.122        3.269        3.017        3.229        3.141        2.965        3.225        3.067        3.227        3.178        3.054        3.075        2.528        2.560        2.662        2.590        0.490        0.000        1.000        1.000        0.000        0.000        2.000        0.000        0.000        0.000        0.000        0.000        0.000        0.000        1.000        1.000        0.000        0.000        0.000        0.000        0.000        0.000        0.000        0.000        0.000        1.000        1.000        0.000        4.000        2.000        5.000        3.000        1.000        0.000        0.000        0.000      100.000        0.000        0.000        3.013        3.078        3.289
     380.000  -254340.228    25610.774    15011.498    37633.141      115.432  -379577.221    46866.148       25.398       25.316        3.069        3.255        3.108        3.244        3.105        3.085        3.274        3.014        3.187        3.187        2.987        3.104        2.555        2.579        2.637        2.602        0.505        0.000        1.000        1.000        0.000        1.000        2.000        0.000        0.000        0.000        0.000        0.000        0.000        0.000        1.000        1.000        2.000        0.000        0.000        0.000        0.000        0.000        0.000        0.000        0.000        0.000        4.000        0.000        0.000        4.000        6.000        4.000        4.000        0.000        0.000        0.000      100.000        0.000        0.000        3.182        3.224        3.428
     390.000  -254028.324    25996.976    15206.857    37485.497      108.261  -379002.819    46176.904       25.523       25.557        3.042        3.215        3.072        3.253        3.169        3.018        3.276        3.058        3.150        3.122        3.061        3.099        2.505        2.550        2.637        2.568        0.476        0.000        1.000        0.000        0.000        0.000        2.000        0.000        0.000        0.000        0.000        0.000        1.000        0.000        1.000        0.000        2.000        0.000        0.000        0.000        0.000        0.000        0.000        0.000        0.000        2.000        2.000        0.000        1.000        2.000        2.000        1.000        4.000        0.000        0.000        0.000      100.000        0.000        0.000        3.260        3.287        3.512
     400.000  -254093.510    25937.847    15449.595    37401.999      127.126  -378426.923    45416.847       25.745       25.509        3.007        3.258        3.050        3.181        3.171        3.001        3.268        2.973        3.145        3.169        2.997        3.113        2.573        2.570        2.609        2.547        0.480        0.000        1.000        1.000        0.000        0.000        2.000        0.000        0.000        0.000        0.000        1.000        0.000        0.000        1.000        0.000        0.000        0.000        0.000        0.000        0.000        0.000        0.000        0.000        0.000        1.000        1.000        0.000        2.000        3.000        6.000        0.000        3.000        0.000        0.000        0.000      100.000        0.000        0.000        3.273        3.313        3.554
     410.000  -253808.631    24680.438    15300.574    37727.248      104.546  -378602.207    46980.770       25.418       25.343        2.979        3.239        3.092        3.212        3.144        3.107        3.241        2.996        3.194        3.152        3.059        3.007        2.528        2.579        2.639        2.559        0.512        0.000        1.000        0.000        0.000        0.000        2.000        0.000        0.000        0.000        0.000        0.000        0.000        0.000        0.000        0.000        2.000        0.000        0.000        0.000        0.000        0.000        0.000        0.000        0.000        1.000        2.000        1.000        0.000        1.000        5.000        3.000        0.000        0.000        0.000        0.000      100.000        0.000        0.000        3.246        3.270        3.598
     420.000  -253974.828    25120.276    15148.071    37586.734       97.246  -379209.158    47282.003       25.468       25.337        3.049        3.302        3.049        3.214        3.141        3.016        3.266        3.026        3.179        3.236        3.018        3.068        2.578        2.534        2.634        2.554        0.481        0.000        1.000        1.000        0.000        0.000        2.000        0.000        0.000        0.000        0.000        1.000        0.000        0.000        1.000        0.000        1.000        0.000        0.000        0.000        0.000        0.000        0.000        0.000        0.000        1.000        3.000        0.000        2.000        3.000        8.000        3.000        3.000        0.000        0.000        0.000      100.000        0.000        0.000        3.271        3.303        3.687
     430.000  -253911.650    24809.156    15082.470    37782.859      119.609  -379389.774    47684.029       25.689       25.497        3.026        3.245        3.065        3.212        3.152        2.971        3.228        3.040        3.195        3.170        3.059        3.032        2.533        2.553        2.647        2.555        0.486        0.000        1.000        1.000        0.000        0.000        2.000        0.000        0.000        0.000        0.000        0.000        0.000        0.000        0.000        0.000        1.000        0.000        0.000        0.000        0.000        0.000        0.000        0.000        0.000        1.000        1.000        1.000        1.000        2.000        6.000        2.000        2.000        0.000        0.000        0.000      100.000        0.000        0.000        2.910        2.947        3.294
     440.000  -254881.961    24957.620    15042.898    37799.850      111.043  -379198.551    46405.180       25.531       25.514        3.065        3.274        3.140        3.183        3.184        2.968        3.200        3.065        3.240        3.175        3.023        3.108        2.483        2.572        2.656        2.573        0.510        0.000        1.000        1.000        0.000        1.000        2.000        0.000        0.000        0.000        0.000        0.000        0.000        0.000        1.000        0.000        1.000        0.000        0.000        0.000        0.000        0.000        0.000        0.000        0.000        1.000        2.000        0.000        2.000        2.000        4.000        4.000        2.000        0.000        0.000        0.000      100.000        0.000        0.000        2.412        2.418        2.952
     450.000  -254319.395    25873.721    15057.586    37352.626      110.522  -377963.270    45249.420       25.967       25.838        3.008        3.272        3.127        3.253        3.179        2.993        3.237        3.094        3.220        3.176        3.054        3.140        2.580        2.613        2.622        2.555        0.498        0.000        1.000        1.000        0.000        0.000        2.000        0.000        0.000        0.000        0.000        0.000        0.000        0.000        1.000        0.000        2.000        0.000        0.000        0.000        0.000        0.000        0.000        0.000        0.000        2.000        3.000        0.000        1.000        2.000        7.000        1.000        1.000        0.000        0.000        0.000      100.000        0.000        0.000        2.141        2.158        2.582
     460.000  -254918.183    25543.413    15199.876    37480.904      102.038  -379446.104    46201.691       25.863       25.902        3.021        3.288        3.097        3.273        3.151        3.058        3.276        3.031        3.147        3.208        3.055        3.091        2.596        2.590        2.651        2.597        0.499        0.000        1.000        1.000        0.000        0.000        2.000        0.000        0.000        0.000        0.000        1.000        0.000        0.000        1.000        0.000        1.000        0.000        0.000        0.000        0.000        0.000        0.000        0.000        0.000        1.000        0.000        0.000        2.000        2.000        5.000        2.000        0.000        0.000        4.494        0.000       95.506        0.000        0.000        2.147        2.151        2.655
     470.000  -253431.241    24695.893    15113.302    37776.931       95.034  -377635.700    46523.298       25.710       25.480        3.048        3.284        3.158        3.185        3.187        3.060        3.198        3.057        3.199        3.202        3.044        3.132        2.534        2.592        2.637        2.619        0.488        0.000        1.000        1.000        0.000        0.000        2.000        0.000        0.000        0.000        0.000        0.000        0.000        0.000        0.000        0.000        2.000        0.000        0.000        0.000        0.000        0.000        0.000        0.000        0.000        1.000        2.000        1.000        4.000        2.000        5.000        3.000        1.000        0.000        0.000        0.000      100.000        0.000        0.000        2.310        2.325        2.697
     480.000  -253933.967    25598.484    15332.281    37526.213      145.025  -378713.928    46177.959       25.588       25.981        3.002        3.248        3.077        3.197        3.164        3.003        3.229        3.047        3.203        3.267        3.046        3.111        2.573        2.588        2.599        2.554        0.491        0.000        1.000        1.000        0.000        0.000        3.000        0.000        0.000        0.000        0.000        1.000        0.000        0.000        0.000        0.000        0.000        0.000        0.000        0.000        0.000        0.000        0.000        0.000        0.000        1.000        2.000        2.000        0.000        1.000        7.000        0.000        1.000        0.000        0.000        0.000      100.000        0.000        0.000        2.375        2.375        2.798
     490.000  -254810.611    25937.341    14771.080    37567.651      119.695  -379201.422    45995.043       25.597       25.978        3.033        3.235        3.110        3.202        3.170        3.102        3.244        2.989        3.156        3.231        3.053        3.138        2.549        2.600        2.595        2.636        0.471        0.000        1.000        1.000        0.000        0.000        2.000        0.000        0.000        0.000        0.000        0.000        1.000        0.000        2.000        0.000        1.000        0.000        0.000        0.000        0.000        0.000        0.000        0.000        0.000        2.000        1.000        0.000        1.000        2.000        5.000        2.000        2.000        0.000        0.000        0.000      100.000        0.000        0.000        2.407        2.390        2.751
     500.000  -254242.362    25771.382    14866.522    37585.994       99.950  -377563.255    44997.045       25.688       25.777        3.012        3.274        3.016        3.164        3.157        3.058        3.188        3.048        3.154        3.251        3.030        3.089        2.509        2.593        2.635        2.596        0.504        0.000        1.000        1.000        0.000        0.000        2.000        0.000        0.000        0.000        0.000        0.000        0.000        0.000        0.000        0.000        0.000        0.000        0.000        0.000        0.000        0.000        0.000        0.000        0.000        0.000        1.000        3.000        1.000        5.000        5.000        2.000        2.000        0.000        0.000        0.000      100.000        0.000        0.000        2.253        2.271        2.618
     510.000  -253820.584    24939.097    15049.815    37553.660      110.028  -378840.139    47366.955       25.819       25.901        3.063        3.303        3.056        3.164        3.137        3.030        3.217        3.043        3.222        3.270        3.071        3.086        2.521        2.570        2.665        2.506        0.513        0.000        1.000        1.000        0.000        0.000        2.000        0.000        0.000        0.000        0.000        0.000        0.000        0.000        0.000        0.000        1.000        0.000        0.000        0.000        0.000        0.000        0.000        0.000        0.000        0.000        1.000        0.000        1.000        1.000        0.000        2.000        3.000        0.000        4.494        0.000       95.506        0.000        0.000        2.366        2.347        2.822
     520.000  -254317.682    25003.264    15195.949    37867.708      123.960  -379332.110    46823.547       25.631       25.712        2.899        3.254        3.046        3.215        3.145        3.077        3.224        3.021        3.139        3.201        3.009        3.061        2.557        2.559        2.654        2.508        0.484        0.000        1.000        1.000        0.000        0.000        2.000        0.000        0.000        0.000        0.000        0.000        0.000        0.000        1.000        0.000        1.000        0.000        0.000        0.000        0.000        0.000        0.000        0.000        0.000        2.000        2.000        0.000        0.000        2.000        7.000        3.000        3.000        0.000        0.000        0.000      100.000        0.000        0.000        2.385        2.379        2.840
     530.000  -254946.987    24944.896    15023.406    37714.562      105.877  -381350.451    48614.722       25.409       25.644        2.993        3.272        3.077        3.203        3.154        2.997        3.228        2.967        3.191        3.287        3.014        3.092        2.563        2.582        2.655        2.524        0.479        0.000        1.000        1.000        0.000        0.000        2.000        0.000        0.000        0.000        0.000        1.000        0.000        0.000        0.000        0.000        1.000        0.000        0.000        0.000        0.000        0.000        0.000        0.000        0.000        1.000        0.000        0.000        3.000        2.000        4.000        3.000        2.000        0.000        0.000        0.000      100.000        0.000        0.000        2.097        2.087        2.578
     540.000  -253840.588    25639.243    15610.294    37413.187      115.658  -379254.189    46635.220       25.632       25.691        2.957        3.217        3.028        3.187        3.128        3.067        3.237        3.052        3.176        3.265        3.034        3.109        2.555        2.575        2.669        2.526        0.481        0.000        1.000        1.000        0.000        0.000        2.000        0.000        0.000        0.000        0.000        0.000        0.000        0.000        1.000        0.000        0.000        0.000        0.000        0.000        0.000        0.000        0.000        0.000        0.000        2.000        1.000        2.000        2.000        1.000        6.000        1.000        4.000        0.000        4.494        0.000       95.506        0.000        0.000        2.434        2.426        2.924
     550.000  -254401.325    25321.857    14879.903    37675.307       83.022  -379539.059    47177.647       25.662       25.749        3.007        3.288        3.050        3.258        3.136        3.003        3.238        3.029        3.202        3.248        3.051        3.054        2.509        2.574        2.641        2.572        0.492        0.000        1.000        1.000        0.000        0.000        2.000        0.000        0.000        0.000        0.000        1.000        0.000        0.000        0.000        0.000        0.000        0.000        0.000        0.000        0.000        0.000        0.000        0.000        0.000        2.000        3.000        1.000        3.000        1.000        7.000        2.000        2.000        0.000        0.000        0.000      100.000        0.000        0.000        2.097        2.106        2.515
     560.000  -253948.922    25742.465    15384.657    37572.987      127.737  -378944.086    46167.318       25.828       26.054        2.921        3.244        3.057        3.219        3.183        3.030        3.210        3.020        3.172        3.191        3.045        3.108        2.520        2.595        2.679        2.516        0.487        0.000        1.000        1.000        0.000        0.000        2.000        0.000        0.000        0.000        0.000        1.000        0.000        0.000        0.000        0.000        0.000        0.000        0.000        0.000        0.000        0.000        0.000        0.000        0.000        1.000        1.000        0.000        1.000        1.000        7.000        0.000        2.000        0.000        0.000        0.000      100.000        0.000        0.000        2.057        2.067        2.562
     570.000  -253902.803    23993.654    15303.737    37715.777      120.684  -378541.679    47505.025       25.634       25.905        2.827        3.248        3.057        3.186        3.177        3.027        3.238        3.011        3.215        3.179        2.984        3.106        2.524        2.562        2.609        2.578        0.480        0.000        1.000        1.000        0.000        0.000        2.000        0.000        0.000        0.000        0.000        0.000        0.000        0.000        0.000        0.000        0.000        0.000        0.000        0.000        0.000        0.000        0.000        0.000        0.000        0.000        2.000        0.000        0.000        1.000        7.000        1.000        3.000        0.000        4.494        0.000       95.506        0.000        0.000        2.008        2.007        2.570
     580.000  -254615.966    24860.136    15179.428    37759.688       99.876  -378636.939    46121.844       25.522       25.759        2.985        3.232        3.165        3.229        3.150        3.097        3.233        2.971        3.176        3.177        3.018        3.175        2.567        2.568        2.658        2.602        0.490        0.000        1.000        1.000        0.000        0.000        2.000        0.000        0.000        0.000        0.000        0.000        0.000        0.000        0.000        0.000        1.000        0.000        0.000        0.000        0.000        0.000        0.000        0.000        0.000        0.000        3.000        1.000        1.000        1.000        5.000        1.000        2.000        0.000        0.000        0.000      100.000        0.000        0.000        1.904        1.895        2.667
     590.000  -253933.562    24449.346    15495.079    37928.839      110.151  -379719.361    47802.384       25.187       25.608        2.855        3.258        3.148        3.226        3.198        3.012        3.178        2.916        3.215        3.166        3.031        3.124        2.484        2.583        2.611        2.592        0.497        0.000        1.000        1.000        0.000        0.000        2.000        0.000        0.000        0.000        0.000        0.000        0.000        0.000        1.000        1.000        2.000        0.000        0.000        0.000        0.000        0.000        0.000        0.000        0.000        1.000        1.000        0.000        1.000        1.000        8.000        0.000        2.000        0.000        0.000        0.000      100.000        0.000        0.000        1.765        1.766        2.508
     600.000  -254403.025    24148.527    15564.625    37566.919      122.148  -379014.415    47209.172       25.691       25.758        2.770        3.222        3.135        3.222        3.162        3.073        3.222        2.984        3.188        3.235        3.062        3.101        2.519        2.525        2.656        2.548        0.481        0.000        1.000        1.000        0.000        0.000        2.000        0.000        0.000        0.000        0.000        0.000        0.000        0.000        0.000        0.000        0.000        0.000        0.000        0.000        0.000        0.000        0.000        0.000        0.000        1.000        3.000        0.000        0.000        1.000        2.000        0.000        3.000        0.000        0.000        0.000      100.000        0.000        0.000        2.164        2.166        2.671
     610.000  -254498.927    26351.436    15286.920    37433.624      130.591  -378760.304    45058.806       25.519       25.739        2.894        3.256        3.130        3.253        3.196        3.045        3.267        2.986        3.189        3.254        3.010        3.153        2.546        2.530        2.676        2.560        0.467        0.000        1.000        1.000        0.000        0.000        2.000        0.000        0.000        0.000        0.000        0.000        0.000        0.000        0.000        0.000        1.000        0.000        0.000        0.000        0.000        0.000        0.000        0.000        0.000        2.000        2.000        0.000        1.000        2.000        6.000        1.000        2.000        0.000        0.000        0.000      100.000        0.000        0.000        2.266        2.261        2.749
     620.000  -255081.388    25507.644    15265.137    37611.634      132.133  -379322.383    45724.447       25.674       25.681        3.033        3.289        3.106        3.227        3.160        3.039        3.214        2.926        3.182        3.182        3.025        3.063        2.599        2.538        2.635        2.558        0.460        0.000        0.000        1.000        0.000        0.000        2.000        0.000        0.000        0.000        0.000        0.000        0.000        0.000        0.000        0.000        0.000        0.000        0.000        0.000        0.000        0.000        0.000        0.000        0.000        2.000        1.000        0.000        0.000        2.000        6.000        0.000        4.000        0.000        4.494        0.000       95.506        0.000        0.000        2.367        2.389        2.826
     630.000  -253844.511    25869.578    15254.420    37597.492      113.561  -377589.556    44909.994       25.318       25.566        2.927        3.321        3.073        3.188        3.192        2.964        3.262        3.057        3.226        3.241        3.008        3.108        2.496        2.528        2.652        2.601        0.464        0.000        0.000        1.000        0.000        0.000        2.000        0.000        0.000        0.000        0.000        0.000        0.000        0.000        1.000        0.000        2.000        0.000        0.000        0.000        0.000        0.000        0.000        0.000        0.000        0.000        0.000        1.000        0.000        2.000        4.000        4.000        2.000        0.000        0.000        0.000      100.000        0.000        0.000        2.217        2.217        2.766
     640.000  -254675.217    25288.712    15499.334    37801.298      111.754  -379195.251    45818.936       25.544       25.540        2.960        3.248        3.153        3.227        3.150        2.966        3.296        2.983        3.203        3.182        2.981        3.045        2.545        2.555        2.590        2.559        0.498        0.000        0.000        1.000        0.000        0.000        2.000        0.000        0.000        0.000        0.000        1.000        1.000        0.000        1.000        0.000        1.000        0.000        0.000        0.000        0.000        0.000        0.000        0.000        0.000        1.000        4.000        0.000        0.000        1.000        7.000        0.000        2.000        0.000        0.000        0.000      100.000        0.000        0.000        1.970        1.967        2.505
     650.000  -254324.786    25610.895    15025.022    37650.935      140.136  -378143.397    45391.622       25.699       25.757        3.003        3.287        3.125        3.193        3.191        3.032        3.200        3.038        3.228        3.123        3.013        3.093        2.589        2.575        2.619        2.588        0.498        0.000        0.000        1.000        0.000        0.000        2.000        0.000        0.000        0.000        0.000        0.000        1.000        0.000        1.000        0.000        2.000        0.000        0.000        0.000        0.000        0.000        0.000        0.000        0.000        3.000        2.000        1.000        0.000        1.000        4.000        0.000        0.000        0.000        4.494        0.000       95.506        0.000        0.000        1.968        1.964        2.461
     660.000  -255014.086    24887.460    14954.400    37734.254      138.681  -379755.101    47026.220       25.946       25.910        2.946        3.238        3.079        3.201        3.167        3.025        3.190        3.024        3.241        3.218        3.018        3.076        2.517        2.577        2.631        2.604        0.504        0.000        0.000        1.000        0.000        0.000        2.000        0.000        0.000        0.000        0.000        0.000        0.000        0.000        1.000        0.000        1.000        0.000        0.000        0.000        0.000        0.000        0.000        0.000        0.000        2.000        1.000        1.000        0.000        0.000        6.000        3.000        1.000        0.000        0.000        0.000      100.000        0.000        0.000        1.920        1.918        2.466
     670.000  -254723.680    25131.961    15051.692    37585.345      106.650  -378838.715    46239.386       25.807       25.926        2.943        3.228        3.132        3.207        3.186        2.994        3.224        3.070        3.171        3.227        3.067        3.127        2.530        2.549        2.616        2.550        0.489        0.000        1.000        1.000        0.000        0.000        2.000        0.000        0.000        0.000        0.000        0.000        0.000        0.000        2.000        0.000        1.000        0.000        0.000        0.000        0.000        0.000        0.000        0.000        0.000        0.000        2.000        1.000        0.000        1.000        6.000        0.000        3.000        0.000        0.000        0.000      100.000        0.000        0.000        1.817        1.813        2.452
     680.000  -254257.017    25574.484    15280.787    37683.324      121.685  -378393.889    45476.593       25.457       25.859        2.996        3.239        3.092        3.213        3.222        3.083        3.286        2.992        3.214        3.170        3.010        3.147        2.547        2.564        2.587        2.575        0.524        0.000        1.000        1.000        0.000        0.000        2.000        0.000        0.000        0.000        0.000        0.000        2.000        0.000        1.000        0.000        4.000        0.000        0.000        0.000        0.000        0.000        0.000        0.000        0.000        3.000        4.000        0.000        1.000        1.000        4.000        3.000        0.000        0.000        0.000        0.000      100.000        0.000        0.000        1.924        1.923        2.465
     690.000  -254051.818    24724.997    15167.341    37763.815      140.260  -379789.194    47940.962       25.672       26.157        2.964        3.278        3.112        3.210        3.179        3.075        3.238        2.980        3.153        3.136        3.025        3.111        2.575        2.562        2.697        2.625        0.474        0.000        1.000        1.000        0.000        0.000        2.000        0.000        0.000        0.000        0.000        0.000        0.000        0.000        0.000        0.000        1.000        0.000        0.000        0.000        0.000        0.000        0.000        0.000        0.000        2.000        1.000        0.000        2.000        2.000        3.000        4.000        1.000        0.000        4.494        0.000       95.506        0.000        0.000        1.906        1.896        2.344
     700.000  -254093.621    24978.126    15317.075    38019.311      120.243  -379163.717    46635.341       25.636       26.034        2.953        3.243        3.081        3.178        3.136        2.995        3.208        2.955        3.216        3.218        3.045        3.052        2.557        2.604        2.636        2.480        0.494        0.000        1.000        1.000        0.000        0.000        2.000        0.000        0.000        0.000        0.000        0.000        0.000        0.000        1.000        0.000        2.000        0.000        0.000        0.000        0.000        0.000        0.000        0.000        0.000        2.000        2.000        1.000        0.000        2.000        5.000        0.000        1.000        0.000        4.494        0.000       95.506        0.000        0.000        1.940        1.954        2.393
     710.000  -254276.463    25852.992    15026.537    37560.862      116.286  -378359.622    45526.482       25.663       25.802        2.965        3.287        3.113        3.179        3.214        3.057        3.242        2.986        3.174        3.179        3.107        3.102        2.541        2.575        2.616        2.555        0.484        0.000        1.000        1.000        0.000        0.000        2.000        0.000        0.000        0.000        0.000        1.000        0.000        0.000        1.000        0.000        3.000        0.000        0.000        0.000        0.000        0.000        0.000        0.000        0.000        1.000        2.000        0.000        1.000        3.000        5.000        1.000        2.000        0.000        4.494        0.000       95.506        0.000        0.000        2.135        2.151        2.582
     720.000  -254361.065    25650.371    15192.615    37826.794      116.849  -379528.429    46380.736       25.656       25.845        2.950        3.220        3.135        3.240        3.190        3.105        3.238        3.058        3.230        3.269        3.043        3.072        2.530        2.574        2.648        2.560        0.475        0.000        1.000        0.000        0.000        0.000        2.000        0.000        0.000        0.000        0.000        0.000        0.000        0.000        1.000        0.000        1.000        0.000        0.000        0.000        0.000        0.000        0.000        0.000        0.000        1.000        1.000        1.000        3.000        2.000        3.000        1.000        2.000        0.000        0.000        0.000      100.000        0.000        0.000        2.309        2.322        2.709
     730.000  -254261.364    24909.456    15650.988    37531.054       92.099  -378803.313    46358.351       25.545       25.750        2.900        3.252        3.134        3.200        3.193        2.972        3.269        3.021        3.182        3.290        3.024        3.089        2.567        2.515        2.673        2.544        0.496        0.000        1.000        1.000        0.000        0.000        2.000        0.000        0.000        0.000        0.000        1.000        0.000        0.000        1.000        0.000        0.000        0.000        0.000        0.000        0.000        0.000        0.000        0.000        0.000        1.000        2.000        0.000        2.000        3.000        3.000        2.000        2.000        0.000        0.000        0.000      100.000        0.000        0.000        2.274        2.305        2.734
     740.000  -253770.394    25512.814    15446.267    37588.719      100.540  -377870.049    45451.315       25.638       25.899        2.913        3.324        3.158        3.200        3.186        2.999        3.182        3.044        3.188        3.203        3.072        3.105        2.569        2.510        2.654        2.529        0.475        0.000        0.000        1.000        1.000        0.000        1.000        0.000        0.000        0.000        0.000        1.000        1.000        0.000        1.000        0.000        0.000        0.000        0.000        0.000        0.000        0.000        0.000        0.000        0.000        2.000        1.000        1.000        2.000        3.000        3.000        2.000        3.000        0.000        0.000        0.000      100.000        0.000        0.000        2.351        2.378        2.764
     750.000  -254773.924    24532.094    15531.344    37628.595      129.268  -380153.111    47557.886       25.597       25.724        2.934        3.272        3.175        3.173        3.167        3.058        3.190        3.037        3.220        3.201        3.047        3.065        2.529        2.566        2.642        2.552        0.494        0.000        0.000        1.000        0.000        0.000        2.000        0.000        0.000        0.000        0.000        0.000        1.000        0.000        0.000        0.000        3.000        0.000        0.000        0.000        0.000        0.000        0.000        0.000        0.000        0.000        1.000        1.000        2.000        1.000        3.000        0.000        1.000        0.000        0.000        0.000      100.000        0.000        0.000        2.426        2.475        2.775
     760.000  -253560.194    25276.590    15364.556    37829.040      113.164  -378983.185    46839.641       25.962       26.084        2.899        3.279        3.128        3.232        3.164        3.058        3.235        3.020        3.167        3.179        3.024        3.105        2.529        2.545        2.631        2.599        0.484        0.000        1.000        1.000        0.000        0.000        2.000        0.000        0.000        0.000        0.000        0.000        1.000        0.000        1.000        0.000        1.000        0.000        0.000        0.000        0.000        0.000        0.000        0.000        0.000        1.000        2.000        1.000        1.000        1.000        3.000        2.000        1.000        0.000        0.000        0.000      100.000        0.000        0.000        2.209        2.225        2.492
     770.000  -254179.054    25784.887    14920.377    37763.702      108.578  -378599.822    45843.224       25.852       25.963        2.791        3.288        3.136        3.190        3.150        3.076        3.205        3.024        3.195        3.188        2.998        3.075        2.545        2.609        2.626        2.608        0.473        0.000        1.000        1.000        0.000        0.000        2.000        0.000        0.000        0.000        0.000        1.000        1.000        0.000        1.000        0.000        1.000        0.000        0.000        0.000        0.000        0.000        0.000        0.000        0.000        1.000        2.000        0.000        2.000        2.000        4.000        0.000        1.000        0.000        0.000        0.000      100.000        0.000        0.000        1.665        1.665        2.093
     780.000  -254644.419    26049.761    15365.903    37502.252      119.543  -379200.245    45518.368       25.810       26.051        2.970        3.245        3.045        3.265        3.191        3.117        3.232        3.059        3.164        3.134        3.006        3.089        2.539        2.559        2.633        2.547        0.511        0.000        1.000        1.000        0.000        0.000        2.000        0.000        0.000        0.000        0.000        0.000        0.000        0.000        1.000        1.000        2.000        0.000        0.000        0.000        0.000        0.000        0.000        0.000        0.000        3.000        1.000        1.000        0.000        2.000        2.000        2.000        3.000        0.000        0.000        0.000      100.000        0.000        0.000        1.838        1.809        2.433
     790.000  -253625.289    24755.073    15401.336    37872.867      136.753  -378226.085    46434.768       25.441       25.716        2.904        3.256        3.078        3.184        3.149        3.083        3.250        3.067        3.176        3.193        3.068        3.139        2.554        2.550        2.599        2.642        0.479        0.000        1.000        1.000        0.000        0.000        2.000        0.000        0.000        0.000        0.000        1.000        0.000        0.000        0.000        0.000        1.000        0.000        0.000        0.000        0.000        0.000        0.000        0.000        0.000        2.000        1.000        0.000        0.000        3.000        3.000        2.000        1.000        0.000        4.494        0.000       95.506        0.000        0.000        1.534        1.525        2.238
     800.000  -253954.749    26273.092    15326.596    37491.757      110.356  -379731.021    46574.472       25.613       25.940        2.983        3.225        3.118        3.227        3.147        3.047        3.275        2.998        3.210        3.212        3.082        3.105        2.546        2.556        2.662        2.594        0.483        0.000        1.000        1.000        0.000        0.000        2.000        0.000        0.000        0.000        0.000        1.000        0.000        0.000        1.000        0.000        1.000        0.000        0.000        0.000        0.000        0.000        0.000        0.000        0.000        1.000        1.000        0.000        2.000        4.000        3.000        2.000        0.000        0.000        0.000        0.000      100.000        0.000        0.000        1.719        1.718        2.454
     810.000  -253779.409    25691.684    15230.105    37672.325      115.201  -379062.479    46573.756       25.662       25.989        2.979        3.276        3.080        3.259        3.133        3.077        3.232        3.011        3.133        3.203        3.040        3.099        2.574        2.581        2.643        2.550        0.467        0.000        1.000        1.000        0.000        0.000        2.000        0.000        0.000        0.000        0.000        1.000        0.000        0.000        0.000        0.000        1.000        0.000        0.000        0.000        0.000        0.000        0.000        0.000        0.000        1.000        2.000        0.000        4.000        3.000        4.000        1.000        3.000        0.000        4.494        0.000       95.506        0.000        0.000        1.647        1.639        2.384
     820.000  -253458.032    26062.127    15134.474    37722.786      124.720  -377731.961    45229.822       25.614       25.863        2.954        3.235        3.187        3.237        3.191        2.999        3.220        3.048        3.190        3.208        3.037        3.049        2.566        2.574        2.627        2.557        0.483        0.000        0.000        0.000        0.000        0.000        2.000        0.000        0.000        0.000        0.000        1.000        0.000        0.000        0.000        0.000        1.000        0.000        0.000        0.000        0.000        0.000        0.000        0.000        0.000        1.000        2.000        0.000        1.000        1.000        6.000        0.000        0.000        0.000        0.000        0.000      100.000        0.000        0.000        1.458        1.489        2.284
     830.000  -253749.255    25111.583    14981.894    37534.446      107.229  -377565.661    46081.254       25.772       26.024        2.958        3.269        3.105        3.237        3.188        2.969        3.231        2.994        3.214        3.163        3.073        3.102        2.577        2.578        2.642        2.545        0.481        0.000        0.000        1.000        0.000        0.000        2.000        0.000        0.000        0.000        0.000        0.000        0.000        0.000        0.000        1.000        1.000        0.000        0.000        0.000        0.000        0.000        0.000        0.000        0.000        1.000        1.000        0.000        0.000        2.000        1.000        0.000        1.000        0.000        0.000        0.000      100.000        0.000        0.000        1.482        1.515        2.295
     840.000  -253635.759    25685.100    15114.146    37733.830      114.259  -378706.375    46423.280       25.641       25.879        2.948        3.266        3.100        3.187        3.170        3.089        3.210        3.125        3.152        3.265        2.972        3.162        2.571        2.534        2.633        2.626        0.478        0.000        0.000        1.000        0.000        0.000        2.000        0.000        0.000        0.000        0.000        0.000        1.000        0.000        1.000        0.000        2.000        0.000        0.000        0.000        0.000        0.000        0.000        0.000        0.000        0.000        1.000        0.000        0.000        3.000        5.000        3.000        3.000        0.000        0.000        0.000      100.000        0.000        0.000        1.727        1.754        2.402
     850.000  -254177.325    24467.908    14963.754    37748.495      128.208  -379316.821    47831.130       25.786       25.966        2.928        3.172        3.113        3.267        3.178        3.030        3.216        2.956        3.238        3.220        3.008        3.142        2.540        2.590        2.668        2.616        0.473        0.000        1.000        1.000        0.000        0.000        2.000        0.000        0.000        0.000        0.000        1.000        1.000        0.000        0.000        1.000        2.000        0.000        0.000        0.000        0.000        0.000        0.000        0.000        0.000        2.000        2.000        0.000        3.000        4.000        7.000        1.000        4.000        0.000        0.000        0.000      100.000        0.000        0.000        1.704        1.741        2.257
     860.000  -254442.417    24800.522    15158.542    37800.565      130.727  -379078.464    46745.690       25.638       25.646        2.934        3.219        3.111        3.193        3.119        3.068        3.214        3.081        3.233        3.198        3.045        3.119        2.511        2.588        2.625        2.578        0.485        0.000        1.000        1.000        0.000        0.000        2.000        0.000        0.000        0.000        0.000        0.000        1.000        0.000        0.000        1.000        0.000        0.000        0.000        0.000        0.000        0.000        0.000        0.000        0.000        1.000        0.000        0.000        0.000        3.000        5.000        1.000        0.000        0.000        0.000        0.000      100.000        0.000        0.000        1.733        1.786        2.358
     870.000  -254236.070    24247.566    15145.136    37776.268      109.478  -378600.381    47085.863       25.890       26.123        2.964        3.274        3.115        3.222        3.162        3.094        3.269        3.037        3.171        3.218        3.032        3.128        2.523        2.520        2.616        2.639        0.479        0.000        1.000        1.000        0.000        0.000        2.000        0.000        0.000        0.000        0.000        2.000        1.000        0.000        1.000        0.000        1.000        0.000        0.000        0.000        0.000        0.000        0.000        0.000        0.000        1.000        1.000        0.000        2.000        3.000        3.000        0.000        2.000        0.000        0.000        0.000      100.000        0.000        0.000        1.742        1.772        2.390
     880.000  -254745.841    25318.284    15384.836    37459.852      113.465  -379323.577    46301.298       25.853       25.946        2.939        3.250        3.079        3.218        3.137        3.098        3.222        2.987        3.204        3.214        3.028        3.106        2.511        2.596        2.614        2.612        0.493        0.000        1.000        1.000        0.000        0.000        2.000        0.000        0.000        0.000        0.000        0.000        0.000        0.000        0.000        1.000        0.000        0.000        0.000        0.000        0.000        0.000        0.000        0.000        0.000        2.000        1.000        0.000        1.000        2.000        2.000        0.000        3.000        0.000        4.494        0.000       95.506        0.000        0.000        1.491        1.546        2.092
     890.000  -253420.562    25705.133    15125.208    37691.640      125.450  -377791.274    45723.281       25.396       25.776        2.961        3.282        3.020        3.267        3.129        2.973        3.237        3.013        3.183        3.227        3.042        3.060        2.555        2.581        2.672        2.530        0.501        0.000        1.000        1.000        0.000        0.000        2.000        0.000        0.000        0.000        0.000        0.000        1.000        0.000        0.000        0.000        2.000        0.000        0.000        0.000        0.000        0.000        0.000        0.000        0.000        1.000        0.000        0.000        0.000        3.000        3.000        0.000        3.000        0.000        4.494        0.000       95.506        0.000        0.000        1.459        1.475        2.104
     900.000  -253455.064    25629.456    15097.184    37726.294      132.858  -378015.324    45974.469       25.416       25.982        2.971        3.284        3.067        3.205        3.154        2.978        3.232        2.990        3.239        3.235        3.045        3.111        2.552        2.571        2.686        2.552        0.481        0.000        1.000        1.000        0.000        1.000        1.000        0.000        0.000        0.000        0.000        2.000        1.000        0.000        0.000        0.000        0.000        0.000        0.000        0.000        0.000        0.000        0.000        0.000        0.000        1.000        0.000        1.000        1.000        1.000        2.000        2.000        1.000        0.000        4.494        0.000       95.506        0.000        0.000        1.482        1.482        2.206
     910.000  -252982.768    26689.598    15006.178    37490.088      109.924  -376535.720    44257.163       25.586       26.030        3.029        3.251        3.051        3.310        3.174        3.053        3.278        3.035        3.211        3.277        3.073        3.077        2.549        2.586        2.697        2.589        0.476        0.000        1.000        1.000        0.000        1.000        2.000        0.000        0.000        0.000        0.000        0.000        0.000        0.000        0.000        0.000        3.000        0.000        0.000        0.000        0.000        0.000        0.000        0.000        0.000        0.000        1.000        0.000        3.000        2.000        3.000        0.000        1.000        0.000        4.494        0.000       95.506        0.000        0.000        1.410        1.456        2.049
     920.000  -254823.311    26226.128    14890.552    37670.206       98.186  -379952.149    46243.766       25.736       25.909        2.968        3.319        3.147        3.253        3.145        3.082        3.258        3.016        3.197        3.235        3.021        3.097        2.519        2.664        2.690        2.647        0.512        0.000        1.000        1.000        0.000        1.000        2.000        0.000        0.000        0.000        0.000        1.000        1.000        0.000        2.000        1.000        3.000        0.000        0.000        0.000        0.000        0.000        0.000        0.000        0.000        1.000        2.000        0.000        0.000        3.000        9.000        0.000        2.000        0.000        4.494        0.000       95.506        0.000        0.000        1.364        1.408        2.005
     930.000  -254329.256    25074.027    14916.673    37913.267      108.690  -379310.433    46968.520       25.766       26.043        2.958        3.305        3.033        3.241        3.114        3.052        3.218        2.962        3.220        3.236        3.092        3.110        2.555        2.598        2.674        2.533        0.495        0.000        1.000        1.000        0.000        0.000        2.000        0.000        0.000        0.000        0.000        0.000        0.000        0.000        0.000        0.000        1.000        0.000        0.000        0.000        0.000        0.000        0.000        0.000        0.000        1.000        0.000        0.000        0.000        3.000        2.000        0.000        0.000        0.000        4.494        0.000       95.506        0.000        0.000        1.633        1.645        2.415
     940.000  -253834.975    25691.939    15057.312    37624.960      130.093  -378095.572    45756.293       25.985       26.141        2.920        3.322        3.049        3.195        3.158        3.098        3.210        3.013        3.206        3.247        3.049        3.149        2.533        2.581        2.655        2.530        0.498        0.000        1.000        1.000        0.000        1.000        1.000        0.000        0.000        0.000        0.000        0.000        0.000        0.000        1.000        0.000        1.000        0.000        0.000        0.000        0.000        0.000        0.000        0.000        0.000        1.000        0.000        0.000        1.000        1.000        5.000        1.000        1.000        0.000        4.494        0.000       95.506        0.000        0.000        1.621        1.642        2.302
     950.000  -254015.034    24562.119    15166.092    37935.894      126.920  -378976.489    47170.431       26.050       26.145        2.959        3.286        3.102        3.257        3.185        2.997        3.270        3.037        3.184        3.178        3.011        3.105        2.560        2.575        2.715        2.589        0.504        0.000        1.000        1.000        0.000        0.000        1.000        0.000        0.000        0.000        0.000        3.000        0.000        0.000        0.000        1.000        3.000        0.000        0.000        0.000        0.000        0.000        0.000        0.000        0.000        1.000        1.000        1.000        3.000        1.000        2.000        1.000        0.000        0.000        4.494        0.000       95.506        0.000        0.000        1.523        1.532        2.203
     960.000  -253638.156    25125.642    15169.565    37685.163      124.786  -378327.094    46583.782       25.862       26.220        2.936        3.283        3.043        3.162        3.148        2.956        3.286        3.093        3.176        3.198        2.993        3.054        2.507        2.583        2.684        2.630        0.477        0.000        0.000        1.000        0.000        1.000        2.000        0.000        0.000        0.000        0.000        1.000        1.000        0.000        1.000        0.000        1.000        0.000        0.000        0.000        0.000        0.000        0.000        0.000        0.000        0.000        0.000        0.000        0.000        5.000        3.000        0.000        0.000        0.000        0.000        0.000      100.000        0.000        0.000        1.550        1.607        2.323
     970.000  -254093.837    25308.115    15093.032    37596.879      125.550  -378179.942    45962.529       25.879       25.938        2.927        3.319        3.086        3.310        3.166        3.044        3.202        3.039        3.206        3.146        3.048        3.075        2.503        2.618        2.721        2.579        0.483        0.000        0.000        1.000        0.000        0.000        2.000        0.000        0.000        0.000        0.000        2.000        1.000        0.000        1.000        0.000        1.000        0.000        0.000        0.000        0.000        0.000        0.000        0.000        0.000        0.000        1.000        1.000        2.000        3.000        4.000        2.000        2.000        0.000        0.000        0.000      100.000        0.000        0.000        1.455        1.523        2.218
     980.000  -254481.617    25699.802    15249.484    37600.979      122.595  -378320.820    45166.343       25.936       26.022        2.944        3.248        3.023        3.241        3.149        3.052        3.268        3.062        3.189        3.219        3.053        3.035        2.586        2.573        2.702        2.568        0.477        0.000        1.000        1.000        0.000        0.000        2.000        0.000        0.000        0.000        0.000        0.000        0.000        0.000        1.000        0.000        1.000        0.000        0.000        0.000        0.000        0.000        0.000        0.000        0.000        2.000        2.000        1.000        3.000        3.000        6.000        4.000        0.000        0.000        0.000        0.000      100.000        0.000        0.000        1.769        1.808        2.278
     990.000  -253837.251    25752.666    14884.715    37616.605      111.932  -377497.697    45294.528       25.751       25.870        2.938        3.277        3.084        3.267        3.097        3.014        3.276        3.000        3.191        3.200        3.051        3.097        2.567        2.538        2.657        2.610        0.499        0.000        1.000        1.000        0.000        1.000        2.000        0.000        0.000        0.000        0.000        1.000        0.000        0.000        2.000        0.000        1.000        0.000        0.000        0.000        0.000        0.000        0.000        0.000        0.000        4.000        1.000        0.000        0.000        3.000        2.000        0.000        0.000        0.000        4.494        0.000       95.506        0.000        0.000        1.708        1.733        2.229
    1000.000  -253498.908    24292.855    15150.958    37754.743       96.917  -378034.704    47240.323       25.871       25.991        2.916        3.274        3.017        3.262        3.163        3.028        3.232        3.066        3.186        3.215        3.031        3.037        2.600        2.592        2.640        2.604        0.479        0.000        1.000        1.000        0.000        0.000        2.000        0.000        0.000        0.000        0.000        2.000        1.000        0.000        1.000        0.000        2.000        0.000        0.000        0.000        0.000        0.000        0.000        0.000        0.000        1.000        1.000        0.000        2.000        2.000        7.000        1.000        1.000        0.000        4.494        0.000       95.506        0.000        0.000        1.693        1.746        2.275
     Average  -255854.645    25727.226    15210.206    37648.984      113.428  -381525.489    46971.000       25.729       25.760        3.002        3.251        3.087        3.219        3.168        3.044        3.238        3.015        3.195        3.198        3.044        3.103        2.533        2.571        2.645        2.575        0.489        0.158        0.861        0.861        0.079        0.297        1.970        0.010        0.000        0.000        0.000        0.426        0.248        0.010        0.515        0.198        1.089        0.000        0.000        0.000        0.000        0.000        0.000        0.000        0.000        0.980        1.723        0.396        1.287        1.931        4.178        1.475        1.842        0.000        0.979        0.000       99.021        0.000        0.000        2.125        2.141        2.609

