____Time[ps] Energy[ kJ/mol ]_____Bond _______Angle ____Dihedral ___Planarity _____Coulomb _________VdW _Your result _Your result _Your result _Your result _Your result _Your result _Your result _Your result _Your result _Your result _Your result _Your result _Your result _Your result _Your result _Your result _Your result _Your result _Your result _Your result _Your result _Your result _Your result _Your result _Your result _Your result _Your result _Your result _Your result _Your result _Your result _Your result _Your result _Your result _Your result _Your result _Your result _Your result _Your result _Your result _Your result _Your result _Your result _Your result _Your result _Your result _Your result _Your result _Your result _Your result _Your result _Your result _Your result _Your result _Your result _Your result _Your result _RMSDs[A]:CA ____Backbone __HeavyAtoms
       0.000  -324356.805     9872.901     4961.552    38197.290       18.505  -440272.367    62865.313       25.302       25.347        3.060        3.095        3.103        3.233        3.193        3.018        2.532        2.564        2.673        2.650        2.553        2.675        2.895        3.010        3.114        3.014        0.491        0.000        1.000        0.000        0.000        2.000        3.000        0.000        1.000        0.000        0.000        0.000        0.000        0.000        0.000        0.000        3.000        0.000        0.000        0.000        0.000        0.000        0.000        0.000        0.000        0.000        0.000        0.000        0.000        1.000        3.000        0.000        3.000        0.000        0.000        0.000      100.000        0.000        0.000        0.484        0.516        0.597
      10.000  -242932.691    28402.370    14645.285    38236.427       96.836  -369745.009    45431.400       25.653       25.404        3.023        3.006        3.132        3.208        3.205        3.025        2.537        2.564        2.711        2.622        2.550        2.521        2.913        3.046        3.051        3.089        0.502        0.000        1.000        0.000        0.000        2.000        2.000        0.000        1.000        0.000        0.000        0.000        0.000        0.000        0.000        0.000        3.000        0.000        0.000        0.000        0.000        0.000        0.000        0.000        0.000        0.000        0.000        0.000        0.000        0.000        1.000        0.000        4.000        0.000        4.494        0.000       95.506        0.000        0.000        1.142        1.153        1.373
      20.000  -242576.893    27634.908    14629.151    37966.180       97.025  -369415.978    46511.820       26.215       26.006        2.948        2.977        3.080        3.200        3.203        3.030        2.563        2.535        2.715        2.639        2.513        2.518        2.942        2.992        3.043        3.042        0.470        0.000        1.000        0.000        0.000        2.000        2.000        0.000        1.000        0.000        0.000        0.000        0.000        0.000        0.000        0.000        2.000        0.000        0.000        0.000        0.000        0.000        0.000        0.000        0.000        0.000        1.000        0.000        0.000        1.000        3.000        0.000        3.000        0.000        0.000        0.000      100.000        0.000        0.000        1.353        1.360        1.691
      30.000  -241952.332    27716.934    14809.250    37792.130      126.527  -367109.969    44712.796       26.272       25.631        3.090        3.015        3.072        3.269        3.189        3.033        2.585        2.548        2.721        2.607        2.551        2.528        2.947        3.037        3.094        3.113        0.497        0.000        1.000        0.000        0.000        1.000        3.000        0.000        0.000        0.000        0.000        0.000        0.000        0.000        0.000        0.000        2.000        0.000        0.000        0.000        0.000        0.000        0.000        0.000        0.000        0.000        1.000        0.000        0.000        0.000        5.000        0.000        3.000        0.000        4.494        0.000       95.506        0.000        0.000        1.403        1.416        1.861
      40.000  -241202.697    26546.988    14975.577    38034.524       94.528  -366120.658    45266.343       26.235       25.860        3.045        3.021        3.037        3.274        3.189        3.058        2.564        2.586        2.697        2.618        2.604        2.518        2.952        2.981        3.126        3.040        0.475        0.000        1.000        0.000        0.000        1.000        3.000        0.000        0.000        0.000        0.000        0.000        0.000        0.000        0.000        0.000        1.000        0.000        0.000        0.000        0.000        0.000        0.000        0.000        0.000        1.000        0.000        0.000        0.000        0.000        5.000        0.000        3.000        0.000        0.000        0.000      100.000        0.000        0.000        1.603        1.620        2.124
      50.000  -241386.316    27352.447    14705.544    37745.758       95.282  -366557.178    45271.832       26.116       25.838        3.037        3.045        3.077        3.214        3.143        3.043        2.644        2.543        2.692        2.664        2.542        2.526        2.926        2.964        3.125        3.049        0.501        0.000        1.000        0.000        0.000        1.000        3.000        0.000        0.000        0.000        0.000        0.000        0.000        0.000        0.000        0.000        0.000        0.000        0.000        0.000        0.000        0.000        0.000        0.000        0.000        0.000        2.000        0.000        0.000        1.000        5.000        0.000        1.000        0.000        0.000        0.000      100.000        0.000        0.000        1.631        1.647        2.275
      60.000  -241276.587    26346.629    14965.051    37846.334      114.000  -366451.990    45903.389       26.322       26.215        3.035        3.034        3.060        3.236        3.198        3.018        2.577        2.593        2.682        2.644        2.518        2.461        2.914        3.015        3.172        3.064        0.475        0.000        1.000        0.000        0.000        1.000        3.000        0.000        0.000        0.000        0.000        0.000        0.000        0.000        1.000        0.000        2.000        0.000        0.000        0.000        0.000        0.000        0.000        0.000        0.000        1.000        0.000        0.000        0.000        0.000        6.000        0.000        1.000        0.000        0.000        0.000      100.000        0.000        0.000        1.773        1.791        2.299
      70.000  -241361.958    25446.999    15190.724    37766.509      111.967  -366069.844    46191.687       26.355       26.134        3.025        3.027        3.081        3.262        3.184        3.005        2.563        2.576        2.722        2.666        2.541        2.557        2.875        2.981        3.040        3.022        0.502        0.000        1.000        0.000        0.000        2.000        3.000        0.000        1.000        0.000        0.000        0.000        0.000        0.000        0.000        0.000        1.000        0.000        0.000        0.000        0.000        0.000        0.000        0.000        0.000        0.000        0.000        0.000        0.000        1.000        6.000        0.000        0.000        0.000        0.000        0.000      100.000        0.000        0.000        1.804        1.816        2.406
      80.000  -241260.199    25720.037    14907.016    37890.322      106.814  -366345.164    46460.777       26.039       25.755        2.980        3.009        3.109        3.244        3.218        2.949        2.525        2.588        2.683        2.624        2.558        2.496        2.907        2.981        3.167        3.062        0.463        0.000        1.000        0.000        0.000        2.000        3.000        0.000        1.000        0.000        0.000        0.000        0.000        0.000        0.000        0.000        2.000        0.000        0.000        0.000        0.000        0.000        0.000        0.000        0.000        0.000        1.000        0.000        0.000        0.000        2.000        0.000        1.000        0.000        0.000        0.000      100.000        0.000        0.000        1.691        1.714        2.390
      90.000  -241334.899    25808.878    14985.674    38031.712       79.071  -365140.333    44900.098       26.027       25.686        2.972        3.005        3.096        3.247        3.218        3.006        2.570        2.541        2.673        2.569        2.592        2.519        2.982        2.980        3.085        3.043        0.472        0.000        1.000        0.000        0.000        2.000        3.000        0.000        1.000        0.000        0.000        0.000        0.000        0.000        2.000        0.000        1.000        0.000        0.000        0.000        0.000        0.000        0.000        0.000        0.000        0.000        0.000        0.000        0.000        0.000        5.000        0.000        0.000        0.000        0.000        0.000      100.000        0.000        0.000        1.467        1.490        2.303
     100.000  -239960.835    25928.703    15076.680    37751.556      113.235  -362377.742    43546.733       25.883       25.671        2.918        2.988        3.081        3.177        3.087        3.067        2.585        2.554        2.684        2.607        2.565        2.492        2.959        2.960        3.095        3.109        0.476        0.000        1.000        0.000        0.000        2.000        4.000        0.000        1.000        0.000        0.000        0.000        0.000        0.000        2.000        0.000        3.000        0.000        0.000        0.000        0.000        0.000        0.000        0.000        0.000        0.000        1.000        0.000        0.000        0.000        7.000        0.000        5.000        0.000        0.000        0.000      100.000        0.000        0.000        1.705        1.751        2.557
     110.000  -240241.382    25187.263    15253.559    37908.318      123.463  -363804.688    45090.703       25.987       25.783        2.939        3.010        3.091        3.227        3.169        3.052        2.571        2.565        2.674        2.576        2.546        2.557        2.934        2.960        3.092        3.120        0.498        0.000        1.000        0.000        0.000        1.000        2.000        0.000        1.000        0.000        0.000        0.000        0.000        0.000        0.000        0.000        1.000        0.000        0.000        0.000        0.000        0.000        0.000        0.000        0.000        1.000        1.000        0.000        0.000        1.000        6.000        0.000        1.000        0.000        0.000        0.000      100.000        0.000        0.000        2.075        2.118        2.749
     120.000  -239712.077    25698.385    15165.276    37880.965      111.249  -361277.412    42709.459       25.990       25.677        3.025        2.977        3.004        3.187        3.208        3.013        2.595        2.604        2.671        2.596        2.548        2.524        2.928        2.966        3.244        3.062        0.494        0.000        1.000        0.000        0.000        1.000        3.000        0.000        1.000        0.000        0.000        0.000        0.000        0.000        1.000        0.000        1.000        0.000        0.000        0.000        0.000        0.000        0.000        0.000        0.000        0.000        0.000        0.000        0.000        0.000        4.000        0.000        1.000        0.000        0.000        0.000      100.000        0.000        0.000        2.245        2.298        3.050
     130.000  -239788.921    25940.643    14800.925    38039.631      119.538  -362895.347    44205.690       25.692       25.495        3.035        2.938        3.041        3.189        3.170        2.991        2.614        2.559        2.706        2.625        2.585        2.492        2.906        2.965        3.224        3.048        0.496        0.000        1.000        0.000        0.000        2.000        2.000        0.000        0.000        0.000        0.000        0.000        0.000        0.000        1.000        0.000        0.000        0.000        0.000        0.000        0.000        0.000        0.000        0.000        0.000        0.000        0.000        0.000        0.000        0.000        4.000        0.000        1.000        0.000        4.494        0.000       95.506        0.000        0.000        2.222        2.241        3.180
     140.000  -240002.837    26044.645    15205.833    37755.979      116.125  -363192.946    44067.526       25.953       25.577        3.026        2.953        3.110        3.183        3.225        2.931        2.629        2.656        2.706        2.623        2.574        2.544        2.921        3.011        3.279        3.081        0.496        0.000        0.000        0.000        0.000        2.000        2.000        0.000        0.000        0.000        0.000        0.000        0.000        0.000        0.000        0.000        1.000        0.000        0.000        0.000        0.000        0.000        0.000        0.000        0.000        1.000        0.000        0.000        0.000        1.000        4.000        0.000        1.000        0.000        0.000        0.000      100.000        0.000        0.000        2.251        2.279        3.254
     150.000  -239711.230    24130.202    15084.392    38094.680      105.448  -362381.280    45255.328       25.777       25.396        3.053        2.944        3.079        3.179        3.202        3.039        2.646        2.524        2.597        2.661        2.580        2.581        2.937        2.941        3.206        3.104        0.498        0.000        1.000        0.000        0.000        1.000        3.000        0.000        0.000        0.000        0.000        0.000        0.000        0.000        0.000        0.000        3.000        0.000        0.000        0.000        0.000        0.000        0.000        0.000        0.000        0.000        0.000        0.000        0.000        1.000        6.000        0.000        2.000        0.000        4.494        0.000       95.506        0.000        0.000        2.117        2.130        3.160
     160.000  -239374.922    24765.505    14932.292    37838.117      136.125  -360128.865    43081.906       25.882       25.651        3.076        3.025        3.086        3.221        3.158        2.943        2.617        2.551        2.698        2.655        2.567        2.527        2.962        2.918        3.278        3.076        0.480        0.000        0.000        0.000        0.000        2.000        3.000        0.000        0.000        0.000        0.000        0.000        0.000        0.000        0.000        0.000        2.000        0.000        0.000        0.000        0.000        0.000        0.000        0.000        0.000        0.000        2.000        0.000        0.000        0.000        3.000        0.000        6.000        0.000        0.000        0.000      100.000        0.000        0.000        2.319        2.356        3.544
     170.000  -239729.639    25118.065    14918.224    37729.978      136.082  -362178.251    44546.264       25.984       25.593        3.006        2.979        3.060        3.218        3.189        2.902        2.608        2.515        2.689        2.618        2.529        2.506        2.943        2.995        3.277        3.094        0.496        0.000        1.000        0.000        0.000        1.000        2.000        0.000        0.000        0.000        0.000        0.000        0.000        0.000        1.000        0.000        0.000        0.000        0.000        0.000        0.000        0.000        0.000        0.000        0.000        0.000        1.000        0.000        0.000        1.000        6.000        0.000        4.000        0.000        0.000        0.000      100.000        0.000        0.000        1.858        1.901        3.006
     180.000  -239461.374    24252.047    14781.152    37852.572      129.980  -361966.477    45489.352       25.876       25.636        2.977        2.944        3.085        3.164        3.200        2.896        2.662        2.596        2.639        2.679        2.614        2.523        2.963        2.915        3.259        3.080        0.498        0.000        1.000        0.000        0.000        2.000        3.000        0.000        1.000        0.000        0.000        0.000        0.000        0.000        1.000        0.000        2.000        0.000        0.000        0.000        0.000        0.000        0.000        0.000        0.000        0.000        0.000        0.000        0.000        0.000        7.000        0.000        2.000        0.000        0.000        0.000      100.000        0.000        0.000        1.682        1.732        2.873
     190.000  -239464.575    24645.254    14783.278    37869.600      108.955  -361467.117    44595.456       25.746       25.517        3.035        2.969        3.076        3.208        3.171        2.967        2.652        2.555        2.650        2.620        2.657        2.472        2.971        2.931        3.276        3.002        0.474        0.000        1.000        0.000        0.000        1.000        1.000        0.000        1.000        0.000        0.000        0.000        0.000        1.000        0.000        0.000        2.000        0.000        0.000        0.000        0.000        0.000        0.000        0.000        0.000        0.000        0.000        0.000        0.000        0.000        8.000        0.000        3.000        0.000        4.494        0.000       95.506        0.000        0.000        1.806        1.862        2.975
     200.000  -238991.186    25215.857    14569.508    37649.503      119.571  -358979.189    42433.566       26.062       25.678        3.059        2.995        3.127        3.230        3.152        3.011        2.655        2.548        2.682        2.636        2.669        2.527        2.912        2.972        3.271        3.035        0.472        0.000        1.000        0.000        0.000        2.000        3.000        0.000        1.000        0.000        0.000        0.000        0.000        0.000        0.000        0.000        2.000        0.000        0.000        0.000        0.000        0.000        0.000        0.000        0.000        0.000        0.000        0.000        0.000        2.000        5.000        0.000        4.000        0.000        0.000        0.000      100.000        0.000        0.000        1.605        1.647        2.754
     210.000  -239335.757    24859.308    15043.795    37693.003      119.446  -359773.784    42722.476       26.288       26.060        3.049        2.977        3.064        3.256        3.177        3.020        2.652        2.547        2.722        2.634        2.664        2.524        2.961        2.897        3.218        3.017        0.498        0.000        1.000        0.000        0.000        2.000        3.000        0.000        1.000        0.000        0.000        0.000        0.000        0.000        1.000        0.000        1.000        0.000        0.000        0.000        0.000        0.000        0.000        0.000        0.000        0.000        0.000        0.000        0.000        0.000        4.000        0.000        2.000        0.000        0.000        0.000      100.000        0.000        0.000        1.775        1.821        2.945
     220.000  -238495.622    24588.741    15326.525    37650.544      108.368  -359905.674    43735.873       26.391       26.333        3.010        3.000        3.034        3.196        3.230        2.934        2.706        2.549        2.713        2.698        2.683        2.480        2.954        2.942        3.193        3.019        0.481        0.000        1.000        0.000        0.000        1.000        4.000        0.000        1.000        0.000        0.000        0.000        0.000        0.000        0.000        0.000        1.000        0.000        0.000        0.000        0.000        0.000        0.000        0.000        0.000        0.000        0.000        0.000        0.000        1.000        6.000        0.000        2.000        0.000        0.000        0.000      100.000        0.000        0.000        2.001        2.059        3.125
     230.000  -238191.860    23994.790    14524.823    37976.734      109.760  -359078.565    44280.598       25.964       25.935        3.117        3.042        3.077        3.198        3.204        2.868        2.622        2.570        2.700        2.665        2.688        2.520        2.944        2.977        3.164        3.086        0.473        0.000        1.000        0.000        0.000        1.000        2.000        0.000        1.000        0.000        0.000        0.000        0.000        0.000        1.000        0.000        2.000        0.000        0.000        0.000        0.000        0.000        0.000        0.000        0.000        0.000        0.000        0.000        0.000        0.000        3.000        0.000        1.000        0.000        0.000        0.000      100.000        0.000        0.000        1.683        1.736        2.792
     240.000  -239342.930    24887.942    14496.704    37730.708      106.818  -360790.906    44225.804       26.032       25.914        3.050        2.934        3.065        3.184        3.166        2.975        2.630        2.578        2.696        2.642        2.709        2.451        2.923        2.917        3.261        3.027        0.468        0.000        1.000        0.000        0.000        2.000        3.000        0.000        0.000        0.000        0.000        0.000        0.000        0.000        0.000        0.000        0.000        0.000        0.000        0.000        0.000        0.000        0.000        0.000        0.000        0.000        1.000        0.000        0.000        0.000        7.000        0.000        2.000        0.000        4.494        0.000       95.506        0.000        0.000        1.475        1.541        2.562
     250.000  -238007.798    24631.085    15291.161    37945.143      107.793  -360034.951    44051.970       25.861       25.754        3.068        2.864        3.115        3.201        3.179        2.978        2.624        2.550        2.670        2.650        2.656        2.476        2.950        2.985        3.270        3.023        0.486        0.000        1.000        0.000        0.000        2.000        1.000        0.000        0.000        0.000        0.000        0.000        0.000        0.000        0.000        0.000        1.000        0.000        0.000        0.000        0.000        0.000        0.000        0.000        0.000        1.000        0.000        0.000        0.000        0.000        3.000        0.000        2.000        0.000        0.000        0.000      100.000        0.000        0.000        1.638        1.713        2.690
     260.000  -238471.397    24731.732    14863.887    37625.340      105.930  -357866.554    42068.268       26.026       25.849        3.108        3.046        3.035        3.263        3.185        2.973        2.622        2.567        2.728        2.651        2.629        2.548        2.958        3.003        3.259        3.064        0.455        0.000        1.000        0.000        0.000        0.000        2.000        0.000        0.000        0.000        0.000        0.000        0.000        0.000        0.000        0.000        0.000        0.000        0.000        0.000        0.000        0.000        0.000        0.000        0.000        0.000        0.000        0.000        0.000        2.000        7.000        0.000        4.000        0.000        0.000        0.000      100.000        0.000        0.000        1.941        1.987        2.832
     270.000  -237902.842    23670.953    14758.985    37994.718      130.871  -359632.037    45173.668       25.886       25.671        3.066        3.032        3.105        3.255        3.222        2.966        2.628        2.581        2.703        2.598        2.660        2.452        2.932        3.047        3.241        3.006        0.490        0.000        1.000        0.000        0.000        2.000        3.000        0.000        0.000        0.000        0.000        0.000        0.000        0.000        1.000        0.000        1.000        0.000        0.000        0.000        0.000        0.000        0.000        0.000        0.000        0.000        0.000        0.000        0.000        0.000        5.000        0.000        4.000        0.000        0.000        0.000      100.000        0.000        0.000        1.456        1.504        2.472
     280.000  -237967.715    24428.618    14712.343    37982.366       94.271  -358099.793    42914.480       25.780       25.617        3.081        2.938        3.100        3.221        3.191        2.908        2.653        2.555        2.682        2.622        2.631        2.510        2.948        3.031        3.235        3.055        0.465        0.000        1.000        0.000        0.000        2.000        2.000        0.000        0.000        0.000        0.000        0.000        0.000        0.000        0.000        0.000        1.000        0.000        0.000        0.000        0.000        0.000        0.000        0.000        0.000        0.000        3.000        0.000        0.000        1.000       10.000        0.000        1.000        0.000        0.000        0.000      100.000        0.000        0.000        1.229        1.281        2.399
     290.000  -238403.806    23838.525    14669.284    37900.648      105.464  -358264.845    43347.118       26.407       25.900        3.025        2.955        3.100        3.218        3.210        2.907        2.626        2.555        2.703        2.596        2.724        2.471        2.937        2.979        3.272        3.093        0.489        0.000        1.000        0.000        0.000        2.000        3.000        0.000        0.000        1.000        0.000        0.000        0.000        0.000        0.000        0.000        0.000        0.000        0.000        0.000        0.000        0.000        0.000        0.000        0.000        0.000        1.000        0.000        0.000        2.000       11.000        0.000        0.000        0.000        0.000        0.000      100.000        0.000        0.000        1.912        1.964        2.878
     300.000  -237790.486    23331.477    14538.859    38029.159      121.904  -357576.830    43764.945       25.994       25.720        2.997        2.917        3.081        3.230        3.192        2.971        2.573        2.546        2.690        2.654        2.678        2.518        2.964        2.893        3.214        3.054        0.463        0.000        1.000        0.000        0.000        1.000        2.000        0.000        1.000        0.000        0.000        0.000        0.000        0.000        0.000        0.000        2.000        0.000        0.000        0.000        0.000        0.000        0.000        0.000        0.000        0.000        2.000        0.000        0.000        0.000        6.000        0.000        1.000        0.000        0.000        0.000      100.000        0.000        0.000        1.901        1.921        2.917
     310.000  -237946.122    23108.593    15041.888    37765.219      104.684  -358152.902    44186.395       26.127       25.734        3.018        3.058        3.132        3.167        3.196        2.971        2.676        2.557        2.692        2.632        2.695        2.515        2.950        2.939        3.294        3.017        0.486        0.000        1.000        0.000        0.000        0.000        2.000        0.000        0.000        0.000        0.000        0.000        0.000        0.000        0.000        0.000        1.000        0.000        0.000        0.000        0.000        0.000        0.000        0.000        0.000        0.000        1.000        0.000        0.000        0.000        8.000        0.000        1.000        0.000        0.000        0.000      100.000        0.000        0.000        1.756        1.809        2.930
     320.000  -238378.300    23427.152    14766.362    37973.837      116.485  -358679.124    44016.987       25.791       25.588        3.008        2.914        3.092        3.175        3.214        2.953        2.641        2.582        2.715        2.670        2.702        2.520        2.948        2.992        3.265        3.063        0.482        0.000        1.000        0.000        0.000        1.000        3.000        0.000        1.000        0.000        0.000        0.000        0.000        0.000        0.000        0.000        1.000        0.000        0.000        0.000        0.000        0.000        0.000        0.000        0.000        0.000        2.000        0.000        0.000        0.000        6.000        0.000        2.000        0.000        0.000        0.000      100.000        0.000        0.000        1.719        1.801        2.821
     330.000  -238275.688    23441.842    14508.282    37750.018      132.776  -358724.211    44615.604       26.213       26.076        2.984        2.957        3.076        3.192        3.261        2.891        2.679        2.552        2.720        2.665        2.697        2.543        2.949        2.938        3.281        3.099        0.471        0.000        1.000        0.000        0.000        1.000        2.000        0.000        1.000        0.000        0.000        0.000        0.000        0.000        1.000        0.000        1.000        0.000        0.000        0.000        0.000        0.000        0.000        0.000        0.000        0.000        1.000        0.000        0.000        0.000        5.000        0.000        0.000        0.000        0.000        0.000      100.000        0.000        0.000        1.620        1.654        2.672
     340.000  -237280.670    23165.057    14684.468    38121.627      123.963  -357755.385    44379.601       25.978       25.798        2.956        2.982        3.007        3.227        3.231        2.904        2.723        2.516        2.717        2.618        2.667        2.501        2.911        2.964        3.294        3.074        0.498        0.000        0.000        0.000        0.000        1.000        1.000        0.000        0.000        0.000        0.000        0.000        0.000        0.000        0.000        0.000        2.000        0.000        0.000        0.000        0.000        0.000        0.000        0.000        0.000        0.000        0.000        0.000        0.000        1.000       13.000        0.000        4.000        0.000        0.000        0.000      100.000        0.000        0.000        1.641        1.665        2.674
     350.000  -238570.436    24422.259    14427.928    37818.699      117.879  -359213.263    43856.062       26.367       26.079        2.987        2.935        3.054        3.197        3.227        2.976        2.605        2.551        2.698        2.674        2.695        2.509        2.913        2.943        3.239        3.028        0.475        0.000        1.000        0.000        0.000        1.000        0.000        0.000        0.000        0.000        0.000        0.000        0.000        0.000        0.000        0.000        0.000        0.000        0.000        0.000        0.000        0.000        0.000        0.000        0.000        0.000        0.000        0.000        0.000        0.000       13.000        0.000        3.000        0.000        0.000        0.000      100.000        0.000        0.000        1.952        1.969        2.956
     360.000  -238337.441    24646.250    14657.097    37987.279      125.011  -358370.748    42617.671       25.931       25.872        2.997        2.957        3.035        3.238        3.229        3.081        2.634        2.568        2.662        2.682        2.696        2.510        2.925        3.001        3.260        3.055        0.483        0.000        1.000        0.000        0.000        1.000        1.000        0.000        0.000        0.000        0.000        0.000        0.000        0.000        0.000        0.000        0.000        0.000        0.000        0.000        0.000        0.000        0.000        0.000        0.000        0.000        1.000        0.000        0.000        0.000        8.000        0.000        4.000        0.000        0.000        0.000      100.000        0.000        0.000        1.724        1.752        2.753
     370.000  -238209.876    23351.694    14287.319    37904.458      122.547  -359246.477    45370.583       26.052       25.741        3.021        2.873        3.134        3.207        3.214        2.933        2.596        2.592        2.671        2.658        2.668        2.497        2.967        2.962        3.277        2.977        0.488        0.000        1.000        0.000        0.000        0.000        1.000        0.000        1.000        0.000        0.000        0.000        0.000        0.000        1.000        0.000        3.000        0.000        0.000        0.000        0.000        0.000        0.000        0.000        0.000        0.000        2.000        0.000        0.000        0.000       12.000        0.000        1.000        0.000        0.000        0.000      100.000        0.000        0.000        1.787        1.813        2.751
     380.000  -238235.576    23977.932    14581.811    37903.606      130.818  -359734.782    44905.039       26.212       25.942        3.085        3.007        3.053        3.154        3.185        3.031        2.635        2.564        2.718        2.661        2.634        2.536        2.934        3.018        3.194        3.028        0.477        0.000        1.000        0.000        0.000        1.000        2.000        0.000        1.000        0.000        0.000        0.000        0.000        1.000        0.000        0.000        2.000        0.000        0.000        0.000        0.000        0.000        0.000        0.000        0.000        0.000        1.000        0.000        0.000        0.000        7.000        0.000        5.000        0.000        0.000        0.000      100.000        0.000        0.000        1.802        1.818        2.906
     390.000  -237891.642    23283.041    14619.099    37891.061      102.444  -358020.500    44233.214       26.189       25.876        3.099        2.890        3.010        3.235        3.198        2.948        2.670        2.573        2.638        2.663        2.611        2.534        2.927        2.948        3.281        3.030        0.494        0.000        1.000        0.000        0.000        1.000        1.000        0.000        1.000        1.000        0.000        0.000        0.000        1.000        0.000        0.000        3.000        0.000        0.000        0.000        0.000        0.000        0.000        0.000        0.000        0.000        2.000        0.000        0.000        0.000        9.000        0.000        3.000        0.000        4.494        0.000       95.506        0.000        0.000        1.833        1.864        2.947
     400.000  -238260.456    23707.814    14212.622    37801.026      141.702  -357951.508    43827.887       26.069       25.927        3.022        2.958        3.094        3.244        3.173        2.964        2.679        2.547        2.691        2.671        2.624        2.513        2.931        3.024        3.238        3.004        0.499        0.000        1.000        0.000        0.000        1.000        1.000        0.000        1.000        1.000        0.000        0.000        0.000        1.000        0.000        0.000        4.000        0.000        0.000        0.000        0.000        0.000        0.000        0.000        0.000        1.000        1.000        0.000        0.000        0.000       11.000        0.000        3.000        0.000        0.000        0.000      100.000        0.000        0.000        1.980        2.011        2.883
     410.000  -238166.093    24022.650    14510.240    38026.468      121.768  -359015.034    44167.815       25.949       25.931        3.069        3.042        3.045        3.259        3.177        2.965        2.650        2.556        2.691        2.602        2.640        2.491        2.937        2.996        3.271        2.995        0.489        0.000        1.000        0.000        0.000        1.000        2.000        0.000        1.000        0.000        0.000        0.000        0.000        0.000        1.000        0.000        3.000        0.000        0.000        0.000        0.000        0.000        0.000        0.000        0.000        1.000        0.000        0.000        0.000        0.000        7.000        0.000        3.000        0.000        0.000        0.000      100.000        0.000        0.000        1.646        1.686        2.845
     420.000  -237092.830    24787.225    14178.103    37899.172      116.826  -357172.105    43097.949       25.820       25.813        2.968        3.082        3.082        3.275        3.242        2.921        2.629        2.532        2.733        2.686        2.646        2.520        2.929        3.010        3.233        3.009        0.488        0.000        1.000        0.000        0.000        1.000        2.000        0.000        1.000        0.000        0.000        0.000        0.000        1.000        1.000        0.000        3.000        0.000        0.000        0.000        0.000        0.000        0.000        0.000        0.000        0.000        1.000        0.000        0.000        0.000        9.000        0.000        2.000        0.000        0.000        0.000      100.000        0.000        0.000        1.627        1.657        2.888
     430.000  -237786.486    24078.618    14352.419    37939.213       92.372  -357892.668    43643.560       25.935       25.915        3.038        2.984        3.116        3.213        3.268        2.956        2.622        2.532        2.670        2.621        2.672        2.479        2.937        3.082        3.210        3.094        0.480        0.000        1.000        0.000        0.000        1.000        1.000        0.000        1.000        0.000        0.000        0.000        0.000        0.000        0.000        0.000        2.000        0.000        0.000        0.000        0.000        0.000        0.000        0.000        0.000        0.000        2.000        0.000        0.000        0.000        7.000        0.000        0.000        0.000        0.000        0.000      100.000        0.000        0.000        1.730        1.757        2.877
     440.000  -238232.800    23571.433    14347.680    38004.538      104.767  -358293.831    44032.614       25.839       25.976        2.924        3.012        3.088        3.223        3.180        3.082        2.674        2.556        2.606        2.663        2.663        2.509        2.920        2.924        3.243        2.963        0.485        0.000        1.000        0.000        0.000        1.000        0.000        0.000        1.000        0.000        0.000        0.000        0.000        0.000        0.000        0.000        2.000        0.000        0.000        0.000        0.000        0.000        0.000        0.000        0.000        1.000        0.000        0.000        0.000        1.000       14.000        0.000        0.000        0.000        0.000        0.000      100.000        0.000        0.000        1.928        1.935        2.946
     450.000  -237476.402    24166.640    14918.600    38007.069      115.255  -358152.351    43468.385       25.878       26.016        3.090        3.042        3.146        3.185        3.238        2.900        2.681        2.593        2.683        2.667        2.682        2.510        2.950        2.949        3.201        3.003        0.504        0.000        1.000        0.000        0.000        1.000        0.000        0.000        1.000        0.000        0.000        0.000        0.000        0.000        1.000        0.000        2.000        0.000        0.000        0.000        0.000        0.000        0.000        0.000        0.000        0.000        0.000        0.000        0.000        0.000       14.000        0.000        3.000        0.000        0.000        0.000      100.000        0.000        0.000        1.917        1.930        2.961
     460.000  -237528.515    24142.037    14351.356    37952.976       98.868  -356675.009    42601.257       25.652       25.837        3.035        3.067        3.103        3.179        3.236        3.040        2.689        2.593        2.719        2.640        2.701        2.517        2.926        2.999        3.320        3.071        0.510        0.000        1.000        0.000        0.000        1.000        2.000        0.000        1.000        0.000        0.000        0.000        0.000        0.000        0.000        0.000        0.000        0.000        0.000        0.000        0.000        0.000        0.000        0.000        0.000        1.000        1.000        0.000        0.000        0.000       11.000        0.000        1.000        0.000        0.000        0.000      100.000        0.000        0.000        1.640        1.647        2.947
     470.000  -237960.960    23176.711    14269.764    38011.402      156.413  -357243.874    43668.624       25.830       25.731        3.009        3.025        3.093        3.195        3.183        2.935        2.699        2.577        2.654        2.585        2.666        2.535        2.972        2.953        3.256        3.033        0.493        0.000        1.000        0.000        0.000        0.000        2.000        0.000        0.000        0.000        0.000        0.000        0.000        0.000        0.000        0.000        3.000        0.000        0.000        0.000        0.000        0.000        0.000        0.000        0.000        0.000        0.000        0.000        0.000        0.000       13.000        0.000        8.000        0.000        0.000        0.000      100.000        0.000        0.000        1.682        1.690        2.927
     480.000  -237905.480    23978.512    14327.099    37998.579      103.169  -358873.043    44560.204       25.850       25.993        3.030        3.066        3.132        3.232        3.190        2.937        2.640        2.584        2.664        2.626        2.641        2.525        2.897        2.975        3.272        3.006        0.488        0.000        1.000        0.000        0.000        1.000        1.000        0.000        0.000        0.000        0.000        0.000        0.000        0.000        0.000        0.000        1.000        0.000        0.000        0.000        0.000        0.000        0.000        0.000        0.000        0.000        1.000        0.000        0.000        0.000        9.000        0.000        3.000        0.000        0.000        0.000      100.000        0.000        0.000        1.787        1.815        3.197
     490.000  -237262.080    23560.888    14427.116    38088.540       96.550  -356662.238    43227.065       25.989       25.981        3.087        3.029        3.045        3.274        3.236        2.989        2.637        2.513        2.671        2.575        2.623        2.523        2.980        3.096        3.286        3.050        0.497        0.000        1.000        0.000        0.000        1.000        1.000        0.000        0.000        0.000        0.000        0.000        0.000        0.000        1.000        0.000        1.000        0.000        0.000        0.000        0.000        0.000        0.000        0.000        0.000        0.000        1.000        0.000        0.000        0.000        8.000        0.000        0.000        0.000        4.494        0.000       95.506        0.000        0.000        1.905        1.936        3.240
     500.000  -238005.148    24760.385    14558.852    37848.458      128.004  -357351.879    42051.031       26.094       25.863        3.091        3.035        3.044        3.263        3.219        3.040        2.663        2.542        2.694        2.682        2.688        2.467        2.943        3.061        3.257        2.984        0.497        0.000        1.000        0.000        0.000        2.000        2.000        0.000        1.000        0.000        0.000        0.000        0.000        0.000        0.000        0.000        2.000        0.000        0.000        0.000        0.000        0.000        0.000        0.000        0.000        0.000        1.000        0.000        0.000        0.000       10.000        0.000        3.000        0.000        4.494        0.000       95.506        0.000        0.000        1.722        1.761        3.171
     510.000  -237227.763    23181.051    14606.809    38018.579      118.659  -358244.748    45091.887       26.057       25.807        3.078        3.092        3.099        3.217        3.202        2.900        2.655        2.543        2.708        2.650        2.653        2.505        2.892        2.949        3.280        2.989        0.491        0.000        1.000        0.000        0.000        2.000        1.000        0.000        0.000        0.000        1.000        0.000        0.000        0.000        0.000        0.000        2.000        0.000        0.000        0.000        0.000        0.000        0.000        0.000        0.000        0.000        0.000        0.000        0.000        0.000       10.000        0.000        4.000        0.000        4.494        0.000       95.506        0.000        0.000        2.055        2.089        3.340
     520.000  -238116.197    24059.969    14653.296    37916.489      116.571  -358906.073    44043.551       26.093       25.931        3.168        2.972        3.030        3.203        3.173        2.948        2.643        2.544        2.685        2.666        2.702        2.500        2.956        2.879        3.195        2.955        0.482        0.000        1.000        0.000        0.000        1.000        1.000        0.000        0.000        0.000        0.000        0.000        0.000        0.000        0.000        0.000        0.000        0.000        0.000        0.000        0.000        0.000        0.000        0.000        0.000        0.000        0.000        0.000        0.000        0.000       10.000        0.000        5.000        0.000        0.000        0.000      100.000        0.000        0.000        2.193        2.241        3.337
     530.000  -237053.194    23968.257    14299.925    37837.442      115.547  -355133.459    41859.093       25.947       25.738        3.030        2.948        3.148        3.259        3.154        2.908        2.664        2.532        2.686        2.664        2.670        2.475        2.955        2.994        3.286        2.950        0.498        0.000        1.000        0.000        0.000        1.000        1.000        0.000        0.000        0.000        0.000        0.000        0.000        1.000        0.000        0.000        3.000        0.000        0.000        0.000        0.000        0.000        0.000        0.000        0.000        0.000        4.000        0.000        0.000        1.000       10.000        0.000        4.000        0.000        0.000        0.000      100.000        0.000        0.000        1.703        1.727        2.964
     540.000  -238078.582    22983.127    14463.492    37860.596      116.357  -357014.636    43512.482       25.700       25.747        3.085        2.917        3.196        3.264        3.245        3.076        2.637        2.537        2.668        2.701        2.634        2.480        2.974        3.015        3.219        2.990        0.480        0.000        1.000        0.000        0.000        0.000        0.000        0.000        0.000        0.000        0.000        0.000        0.000        0.000        0.000        0.000        1.000        0.000        0.000        0.000        0.000        0.000        0.000        0.000        0.000        0.000        0.000        0.000        0.000        0.000       11.000        0.000        4.000        0.000        0.000        0.000      100.000        0.000        0.000        1.660        1.683        3.098
     550.000  -237119.296    22716.521    14168.904    38029.449      116.038  -355267.310    43117.103       26.021       25.988        3.035        2.988        3.136        3.252        3.223        3.035        2.634        2.538        2.661        2.608        2.634        2.571        2.953        2.936        3.231        2.926        0.488        0.000        1.000        0.000        0.000        1.000        0.000        0.000        1.000        0.000        0.000        0.000        0.000        1.000        0.000        0.000        3.000        0.000        0.000        0.000        0.000        0.000        0.000        0.000        0.000        0.000        0.000        0.000        0.000        0.000        9.000        0.000        6.000        0.000        0.000        0.000      100.000        0.000        0.000        1.636        1.661        3.136
     560.000  -237475.163    23907.966    14521.783    37973.040      101.701  -357025.100    43045.447       25.911       25.742        3.106        2.943        3.146        3.280        3.201        3.029        2.593        2.528        2.657        2.661        2.685        2.546        2.932        2.948        3.300        2.936        0.469        0.000        1.000        0.000        0.000        2.000        2.000        0.000        1.000        0.000        0.000        0.000        0.000        0.000        0.000        0.000        0.000        0.000        0.000        0.000        0.000        0.000        0.000        0.000        0.000        0.000        0.000        0.000        0.000        0.000       10.000        0.000        3.000        0.000        0.000        0.000      100.000        0.000        0.000        1.665        1.682        3.118
     570.000  -237700.844    23931.385    14203.061    38038.143      110.473  -356667.215    42683.309       25.919       25.671        3.056        2.981        3.151        3.241        3.233        3.055        2.611        2.546        2.699        2.660        2.628        2.552        2.922        2.996        3.253        2.950        0.471        0.000        1.000        0.000        0.000        2.000        2.000        0.000        0.000        0.000        0.000        0.000        0.000        0.000        0.000        0.000        2.000        0.000        0.000        0.000        0.000        0.000        0.000        0.000        0.000        0.000        0.000        0.000        0.000        0.000        5.000        0.000        6.000        0.000        0.000        0.000      100.000        0.000        0.000        1.558        1.554        3.172
     580.000  -238244.417    24103.600    14162.292    37940.967      125.845  -355564.300    40987.178       26.169       25.962        3.027        2.979        3.073        3.222        3.236        2.998        2.644        2.562        2.646        2.629        2.648        2.490        2.966        2.962        3.236        3.008        0.490        0.000        1.000        0.000        0.000        2.000        1.000        0.000        2.000        0.000        0.000        0.000        0.000        0.000        0.000        0.000        2.000        0.000        0.000        0.000        0.000        0.000        0.000        0.000        0.000        0.000        1.000        0.000        0.000        0.000        6.000        0.000        4.000        0.000        0.000        0.000      100.000        0.000        0.000        1.853        1.859        3.223
     590.000  -237879.254    23593.272    14133.881    37948.868      127.839  -355800.908    42117.793       26.247       25.912        3.084        2.927        3.127        3.213        3.247        3.026        2.662        2.557        2.658        2.626        2.650        2.546        2.947        3.045        3.313        3.001        0.501        0.000        1.000        0.000        0.000        2.000        2.000        0.000        2.000        0.000        0.000        0.000        0.000        0.000        1.000        0.000        1.000        0.000        0.000        0.000        0.000        0.000        0.000        0.000        0.000        0.000        0.000        0.000        0.000        0.000        6.000        0.000        2.000        0.000        0.000        0.000      100.000        0.000        0.000        1.894        1.890        3.257
     600.000  -236584.297    22966.287    14570.738    37955.046      137.193  -355947.899    43734.338       26.294       25.973        2.994        2.943        3.086        3.257        3.196        2.987        2.673        2.614        2.671        2.639        2.658        2.444        2.955        2.964        3.244        2.946        0.492        0.000        1.000        0.000        0.000        2.000        3.000        0.000        0.000        0.000        0.000        0.000        0.000        0.000        0.000        0.000        1.000        0.000        0.000        0.000        0.000        0.000        0.000        0.000        0.000        0.000        1.000        0.000        0.000        0.000        1.000        0.000        6.000        0.000        0.000        0.000      100.000        0.000        0.000        1.995        2.015        3.481
     610.000  -237838.916    23890.839    14321.016    37853.435      101.060  -358016.136    44010.870       26.047       25.753        3.054        3.033        3.055        3.274        3.231        2.902        2.598        2.564        2.703        2.682        2.626        2.517        2.874        3.021        3.289        2.984        0.475        0.000        1.000        0.000        0.000        2.000        3.000        0.000        0.000        0.000        0.000        0.000        0.000        0.000        0.000        0.000        1.000        0.000        0.000        0.000        0.000        0.000        0.000        0.000        0.000        0.000        1.000        0.000        0.000        1.000        4.000        0.000        2.000        0.000        0.000        0.000      100.000        0.000        0.000        1.749        1.770        3.347
     620.000  -237964.931    23200.191    14575.346    38157.788      124.417  -355737.218    41714.545       26.095       25.932        3.020        3.013        3.113        3.272        3.134        3.037        2.657        2.603        2.639        2.642        2.686        2.509        2.908        2.979        3.298        3.062        0.468        0.000        1.000        0.000        0.000        1.000        2.000        0.000        1.000        0.000        0.000        0.000        0.000        0.000        0.000        0.000        1.000        0.000        0.000        0.000        0.000        0.000        0.000        0.000        0.000        0.000        0.000        0.000        0.000        0.000        7.000        0.000        2.000        0.000        0.000        0.000      100.000        0.000        0.000        1.705        1.732        3.240
     630.000  -236734.432    23873.305    14452.425    37734.706      123.102  -355361.997    42444.028       26.176       25.905        3.036        3.031        3.100        3.226        3.215        2.920        2.664        2.540        2.622        2.667        2.683        2.516        2.925        2.944        3.283        3.031        0.484        0.000        1.000        0.000        0.000        2.000        2.000        0.000        1.000        0.000        0.000        0.000        0.000        0.000        0.000        0.000        4.000        0.000        0.000        0.000        0.000        0.000        0.000        0.000        0.000        0.000        1.000        0.000        0.000        0.000        6.000        0.000        4.000        0.000        0.000        0.000      100.000        0.000        0.000        1.727        1.744        3.315
     640.000  -236730.443    23312.270    14167.042    38085.862      134.108  -356716.561    44286.836       25.839       25.672        3.008        3.034        3.168        3.252        3.236        2.961        2.661        2.544        2.684        2.676        2.653        2.524        2.927        3.005        3.245        3.026        0.470        0.000        1.000        0.000        0.000        2.000        2.000        0.000        1.000        0.000        0.000        0.000        0.000        0.000        1.000        0.000        1.000        0.000        0.000        0.000        0.000        0.000        0.000        0.000        0.000        0.000        0.000        0.000        0.000        2.000        6.000        0.000        6.000        0.000        0.000        0.000      100.000        0.000        0.000        1.561        1.598        3.143
     650.000  -237329.027    23470.643    14524.844    37771.647       95.718  -356351.494    43159.615       25.987       25.792        3.044        3.049        3.085        3.278        3.216        2.973        2.630        2.557        2.644        2.668        2.700        2.528        2.916        2.975        3.235        3.011        0.466        0.000        1.000        0.000        0.000        2.000        2.000        0.000        1.000        1.000        0.000        0.000        0.000        0.000        0.000        0.000        0.000        0.000        0.000        0.000        0.000        0.000        0.000        0.000        0.000        0.000        1.000        0.000        0.000        0.000        4.000        0.000        2.000        0.000        0.000        0.000      100.000        0.000        0.000        1.588        1.607        3.033
     660.000  -237337.392    23250.517    14098.421    38091.386      129.533  -356068.259    43161.010       25.855       25.861        3.055        3.005        3.107        3.231        3.164        2.899        2.674        2.561        2.641        2.682        2.647        2.553        2.925        2.975        3.239        3.002        0.472        0.000        1.000        0.000        0.000        1.000        2.000        0.000        1.000        0.000        0.000        0.000        0.000        0.000        0.000        0.000        1.000        0.000        0.000        0.000        0.000        0.000        0.000        0.000        0.000        0.000        0.000        0.000        0.000        0.000        2.000        0.000        4.000        0.000        0.000        0.000      100.000        0.000        0.000        1.471        1.484        3.153
     670.000  -237302.936    24293.536    14584.209    37849.619      138.617  -356754.729    42585.812       26.061       25.976        3.042        3.002        3.152        3.270        3.262        2.981        2.669        2.513        2.704        2.686        2.646        2.525        2.902        3.032        3.269        3.063        0.468        0.000        1.000        0.000        0.000        1.000        1.000        0.000        2.000        0.000        0.000        0.000        0.000        0.000        0.000        0.000        3.000        0.000        0.000        0.000        0.000        0.000        0.000        0.000        0.000        0.000        0.000        0.000        0.000        0.000        4.000        0.000        3.000        0.000        0.000        0.000      100.000        0.000        0.000        1.493        1.514        3.076
     680.000  -237988.578    23005.346    14197.759    37802.108       98.667  -358022.075    44929.618       26.021       25.754        3.027        2.970        3.078        3.201        3.182        3.000        2.655        2.548        2.699        2.654        2.697        2.529        2.896        2.975        3.182        3.035        0.475        0.000        1.000        0.000        0.000        2.000        2.000        0.000        1.000        0.000        0.000        0.000        0.000        0.000        0.000        0.000        3.000        0.000        0.000        0.000        0.000        0.000        0.000        0.000        0.000        1.000        0.000        0.000        0.000        0.000        3.000        0.000        2.000        0.000        0.000        0.000      100.000        0.000        0.000        1.471        1.506        3.078
     690.000  -237534.584    23114.521    14224.473    37615.958      147.931  -355898.547    43261.079       26.173       25.797        3.111        2.993        3.056        3.196        3.172        2.982        2.657        2.544        2.654        2.610        2.657        2.479        2.905        2.987        3.314        2.989        0.492        0.000        1.000        0.000        0.000        1.000        3.000        0.000        0.000        0.000        1.000        0.000        0.000        1.000        1.000        0.000        1.000        0.000        0.000        0.000        0.000        0.000        0.000        0.000        0.000        1.000        1.000        0.000        0.000        0.000        7.000        0.000        5.000        0.000        0.000        0.000      100.000        0.000        0.000        1.868        1.942        3.183
     700.000  -237260.100    23140.628    14174.019    37761.087      153.688  -355955.515    43465.993       25.915       25.622        3.071        2.976        3.143        3.216        3.178        3.039        2.664        2.565        2.677        2.637        2.674        2.518        2.916        2.963        3.225        2.966        0.460        0.000        1.000        0.000        0.000        1.000        2.000        0.000        0.000        0.000        0.000        0.000        0.000        0.000        0.000        0.000        2.000        0.000        0.000        0.000        0.000        0.000        0.000        0.000        0.000        0.000        0.000        0.000        0.000        0.000        5.000        0.000        1.000        0.000        0.000        0.000      100.000        0.000        0.000        1.978        2.020        3.475
     710.000  -237235.783    24260.611    14464.611    37655.374      100.931  -356502.319    42785.009       25.923       25.712        3.127        3.084        3.091        3.298        3.124        2.891        2.660        2.516        2.657        2.677        2.706        2.503        2.955        2.976        3.208        3.000        0.495        0.000        1.000        0.000        0.000        2.000        2.000        0.000        0.000        0.000        0.000        0.000        0.000        0.000        0.000        0.000        2.000        0.000        0.000        0.000        0.000        0.000        0.000        0.000        0.000        0.000        1.000        0.000        0.000        0.000        6.000        0.000        2.000        0.000        0.000        0.000      100.000        0.000        0.000        2.014        2.058        3.499
     720.000  -237910.728    23363.245    14511.743    37790.857      119.964  -356943.806    43247.270       26.071       25.631        3.065        3.093        3.102        3.226        3.182        3.006        2.587        2.526        2.666        2.664        2.627        2.547        2.917        3.022        3.222        3.012        0.469        0.000        1.000        0.000        0.000        1.000        1.000        0.000        0.000        0.000        0.000        0.000        0.000        0.000        0.000        0.000        2.000        0.000        0.000        0.000        0.000        0.000        0.000        0.000        0.000        0.000        0.000        0.000        0.000        0.000        6.000        0.000        5.000        0.000        0.000        0.000      100.000        0.000        0.000        1.942        1.999        3.444
     730.000  -237490.080    23928.762    14574.563    37816.102      108.373  -357262.701    43344.822       25.974       25.873        3.116        3.056        3.111        3.271        3.121        2.923        2.557        2.518        2.666        2.691        2.665        2.504        2.893        3.038        3.250        3.007        0.488        0.000        1.000        0.000        0.000        2.000        3.000        0.000        0.000        0.000        0.000        0.000        0.000        0.000        0.000        0.000        0.000        0.000        0.000        0.000        0.000        0.000        0.000        0.000        0.000        0.000        0.000        0.000        0.000        0.000        4.000        0.000        1.000        0.000        0.000        0.000      100.000        0.000        0.000        2.270        2.332        3.830
     740.000  -237931.574    24297.000    14305.625    37744.723      124.408  -357141.130    42737.799       25.955       25.728        3.008        3.032        3.248        3.266        3.195        3.022        2.638        2.547        2.695        2.678        2.735        2.477        2.938        2.990        3.263        3.042        0.485        0.000        1.000        0.000        0.000        2.000        2.000        0.000        0.000        0.000        0.000        0.000        0.000        0.000        0.000        0.000        1.000        0.000        0.000        0.000        0.000        0.000        0.000        0.000        0.000        0.000        1.000        0.000        0.000        0.000        7.000        0.000        2.000        0.000        0.000        0.000      100.000        0.000        0.000        2.305        2.333        3.788
     750.000  -237720.628    23171.326    14262.701    38053.856      169.589  -357985.022    44606.922       26.101       25.747        3.071        3.110        3.122        3.276        3.231        2.963        2.673        2.560        2.666        2.670        2.658        2.521        2.924        2.948        3.242        2.967        0.501        0.000        1.000        0.000        0.000        2.000        3.000        0.000        0.000        0.000        0.000        0.000        0.000        1.000        0.000        0.000        1.000        0.000        0.000        0.000        0.000        0.000        0.000        0.000        0.000        0.000        1.000        0.000        0.000        0.000        6.000        0.000        3.000        0.000        0.000        0.000      100.000        0.000        0.000        2.344        2.386        3.681
     760.000  -237718.188    23499.479    14288.300    37729.027       94.881  -355451.114    42121.239       25.807       25.767        3.115        3.110        3.105        3.283        3.168        2.959        2.676        2.540        2.623        2.675        2.674        2.528        2.937        3.040        3.245        3.028        0.474        0.000        1.000        0.000        0.000        2.000        2.000        0.000        1.000        0.000        0.000        0.000        0.000        0.000        1.000        0.000        2.000        0.000        0.000        0.000        0.000        0.000        0.000        0.000        0.000        0.000        1.000        0.000        0.000        0.000        3.000        0.000        4.000        0.000        0.000        0.000      100.000        0.000        0.000        2.018        2.064        3.693
     770.000  -237464.982    24955.264    14282.199    38029.850      104.232  -357135.596    42299.068       25.632       25.552        3.042        3.069        3.132        3.300        3.253        2.998        2.668        2.584        2.679        2.658        2.642        2.502        2.937        3.015        3.246        3.070        0.496        0.000        1.000        0.000        0.000        2.000        2.000        0.000        0.000        0.000        0.000        0.000        0.000        0.000        0.000        0.000        0.000        0.000        0.000        0.000        0.000        0.000        0.000        0.000        0.000        0.000        0.000        0.000        0.000        1.000        7.000        0.000        4.000        0.000        0.000        0.000      100.000        0.000        0.000        1.795        1.841        3.695
     780.000  -236907.208    23662.385    14476.105    37999.546      113.020  -355968.552    42810.289       25.866       25.612        3.027        3.096        3.187        3.280        3.103        2.957        2.665        2.589        2.746        2.576        2.678        2.572        2.899        2.965        3.199        3.013        0.486        0.000        1.000        0.000        0.000        2.000        2.000        0.000        0.000        0.000        0.000        0.000        0.000        0.000        0.000        0.000        3.000        0.000        0.000        0.000        0.000        0.000        0.000        0.000        0.000        0.000        1.000        0.000        0.000        1.000        3.000        0.000        2.000        0.000        0.000        0.000      100.000        0.000        0.000        1.772        1.806        3.522
     790.000  -237361.679    22578.468    14278.084    37804.318      139.762  -356129.750    43967.439       25.817       25.670        3.128        3.084        3.084        3.293        3.146        2.877        2.647        2.553        2.652        2.627        2.677        2.520        2.906        3.080        3.194        3.046        0.468        0.000        1.000        0.000        0.000        1.000        2.000        0.000        0.000        0.000        0.000        0.000        0.000        0.000        0.000        0.000        1.000        0.000        0.000        0.000        0.000        0.000        0.000        0.000        0.000        0.000        0.000        0.000        0.000        1.000        6.000        0.000        7.000        0.000        0.000        0.000      100.000        0.000        0.000        1.788        1.827        3.468
     800.000  -237430.134    23644.569    14469.895    37987.029      100.231  -357019.102    43387.243       25.775       25.745        3.145        3.043        3.051        3.274        3.147        2.959        2.654        2.539        2.749        2.590        2.617        2.529        2.918        3.054        3.202        3.051        0.478        0.000        1.000        0.000        0.000        1.000        2.000        0.000        0.000        0.000        0.000        0.000        0.000        0.000        0.000        0.000        2.000        0.000        0.000        0.000        0.000        0.000        0.000        0.000        0.000        0.000        1.000        0.000        0.000        1.000        4.000        0.000        4.000        0.000        0.000        0.000      100.000        0.000        0.000        1.903        1.942        3.638
     810.000  -237191.745    23786.366    14470.281    37965.735      110.962  -357745.988    44220.900       25.616       25.658        3.177        2.998        3.115        3.210        3.187        3.038        2.646        2.536        2.706        2.568        2.720        2.512        2.918        3.046        3.222        3.042        0.485        0.000        1.000        0.000        0.000        1.000        0.000        0.000        0.000        0.000        0.000        0.000        0.000        0.000        1.000        0.000        1.000        0.000        0.000        0.000        0.000        0.000        0.000        0.000        0.000        0.000        0.000        0.000        0.000        1.000        4.000        0.000        4.000        0.000        0.000        0.000      100.000        0.000        0.000        1.878        1.910        3.497
     820.000  -237152.427    23210.926    14541.410    38032.275      113.701  -356757.271    43706.532       25.664       25.786        3.044        3.094        3.081        3.241        3.206        2.996        2.663        2.541        2.688        2.627        2.694        2.501        2.949        3.047        3.263        3.017        0.488        0.000        1.000        0.000        0.000        2.000        2.000        0.000        0.000        0.000        0.000        0.000        0.000        0.000        0.000        0.000        1.000        0.000        0.000        0.000        0.000        0.000        0.000        0.000        0.000        1.000        0.000        0.000        0.000        1.000        4.000        0.000        4.000        0.000        0.000        0.000      100.000        0.000        0.000        1.987        2.032        3.534
     830.000  -238070.168    23441.940    14286.861    37864.612      113.928  -355510.890    41733.382       25.857       25.616        3.060        3.007        3.166        3.284        3.108        3.066        2.671        2.570        2.720        2.631        2.615        2.507        2.951        3.000        3.266        3.005        0.490        0.000        1.000        0.000        0.000        2.000        2.000        0.000        0.000        0.000        0.000        0.000        0.000        0.000        0.000        0.000        0.000        0.000        0.000        0.000        0.000        0.000        0.000        0.000        0.000        0.000        1.000        0.000        0.000        1.000        6.000        0.000        4.000        0.000        0.000        0.000      100.000        0.000        0.000        1.958        1.985        3.585
     840.000  -237752.121    23923.797    14304.080    38002.977      119.253  -356452.701    42350.473       25.450       25.578        3.094        2.895        3.094        3.263        3.096        3.038        2.612        2.591        2.710        2.611        2.708        2.480        2.945        2.898        3.260        3.063        0.471        0.000        1.000        0.000        0.000        1.000        2.000        0.000        0.000        0.000        0.000        0.000        0.000        0.000        0.000        0.000        1.000        0.000        0.000        0.000        0.000        0.000        0.000        0.000        0.000        0.000        0.000        0.000        0.000        0.000        7.000        0.000        3.000        0.000        0.000        0.000      100.000        0.000        0.000        1.835        1.857        3.536
     850.000  -237478.378    23588.484    14597.175    37844.923      124.381  -355768.566    42135.225       25.357       25.454        3.090        2.909        3.220        3.311        3.133        3.047        2.596        2.541        2.697        2.614        2.701        2.537        2.964        2.947        3.275        3.032        0.461        0.000        1.000        0.000        0.000        1.000        3.000        0.000        0.000        0.000        0.000        0.000        0.000        0.000        0.000        0.000        1.000        0.000        0.000        0.000        0.000        0.000        0.000        0.000        0.000        0.000        1.000        0.000        0.000        1.000        7.000        0.000        2.000        0.000        0.000        0.000      100.000        0.000        0.000        1.920        1.940        3.375
     860.000  -237504.282    23467.116    14587.261    37938.663      153.707  -357113.205    43462.175       25.742       25.599        3.156        2.959        3.088        3.221        3.044        3.060        2.621        2.555        2.688        2.611        2.696        2.488        2.908        3.070        3.277        3.052        0.476        0.000        1.000        0.000        0.000        1.000        2.000        0.000        0.000        0.000        0.000        0.000        0.000        0.000        0.000        0.000        1.000        0.000        0.000        0.000        0.000        0.000        0.000        0.000        0.000        0.000        1.000        0.000        0.000        0.000        4.000        0.000        5.000        0.000        0.000        0.000      100.000        0.000        0.000        2.387        2.407        3.714
     870.000  -237052.996    23803.069    14149.142    37794.315      120.352  -355294.391    42374.518       25.418       25.574        3.103        3.005        3.062        3.270        3.134        3.005        2.680        2.546        2.683        2.621        2.659        2.484        2.964        3.014        3.237        3.011        0.491        0.000        1.000        0.000        0.000        1.000        2.000        0.000        0.000        0.000        0.000        0.000        0.000        0.000        0.000        0.000        5.000        0.000        0.000        0.000        0.000        0.000        0.000        0.000        0.000        1.000        1.000        0.000        0.000        0.000        0.000        0.000        3.000        0.000        0.000        0.000      100.000        0.000        0.000        2.337        2.375        3.683
     880.000  -237823.829    23415.768    14618.556    38027.321      105.189  -357651.805    43661.142       25.276       25.375        3.111        2.938        3.121        3.241        3.082        3.080        2.698        2.549        2.735        2.642        2.720        2.539        2.912        2.928        3.241        3.006        0.496        0.000        1.000        0.000        0.000        2.000        3.000        0.000        0.000        0.000        0.000        0.000        0.000        0.000        0.000        0.000        1.000        0.000        0.000        0.000        0.000        0.000        0.000        0.000        0.000        0.000        0.000        0.000        0.000        0.000       10.000        0.000        1.000        0.000        0.000        0.000      100.000        0.000        0.000        2.345        2.411        3.922
     890.000  -237081.093    22640.175    14212.309    37998.512      104.754  -356530.058    44493.215       25.670       25.833        3.077        2.985        3.032        3.303        3.195        2.978        2.658        2.506        2.697        2.613        2.660        2.557        2.927        2.958        3.219        3.091        0.500        0.000        1.000        0.000        0.000        1.000        3.000        0.000        0.000        0.000        0.000        0.000        0.000        0.000        0.000        0.000        0.000        0.000        0.000        0.000        0.000        0.000        0.000        0.000        0.000        0.000        0.000        0.000        0.000        0.000        6.000        0.000        0.000        0.000        0.000        0.000      100.000        0.000        0.000        2.351        2.383        3.945
     900.000  -238470.895    24076.811    14226.728    37838.914       97.854  -357265.928    42554.727       25.575       25.609        3.107        2.959        3.142        3.292        3.266        3.064        2.653        2.524        2.705        2.666        2.699        2.486        2.938        3.050        3.199        3.060        0.500        0.000        1.000        0.000        0.000        1.000        4.000        0.000        0.000        0.000        0.000        0.000        0.000        0.000        0.000        0.000        1.000        0.000        0.000        0.000        0.000        0.000        0.000        0.000        0.000        0.000        1.000        0.000        0.000        0.000        7.000        0.000        2.000        0.000        0.000        0.000      100.000        0.000        0.000        2.181        2.231        3.847
     910.000  -237658.053    23899.735    14546.261    37851.641      139.680  -355815.419    41720.049       25.651       25.602        3.051        3.005        3.155        3.290        3.183        3.042        2.651        2.581        2.649        2.632        2.678        2.542        2.930        3.015        3.268        3.045        0.491        0.000        1.000        0.000        0.000        1.000        3.000        0.000        0.000        0.000        0.000        0.000        0.000        0.000        0.000        0.000        2.000        0.000        0.000        0.000        0.000        0.000        0.000        0.000        0.000        0.000        0.000        0.000        0.000        0.000        5.000        0.000        3.000        0.000        4.494        0.000       95.506        0.000        0.000        2.506        2.538        4.050
     920.000  -237223.319    23073.524    14508.449    38133.693      107.416  -357635.544    44589.143       25.767       25.637        3.204        2.998        3.060        3.223        3.102        3.017        2.665        2.537        2.665        2.643        2.682        2.521        2.937        3.000        3.210        3.012        0.474        0.000        1.000        0.000        0.000        0.000        4.000        0.000        0.000        0.000        0.000        0.000        0.000        1.000        1.000        0.000        4.000        0.000        0.000        0.000        0.000        0.000        0.000        0.000        0.000        0.000        0.000        0.000        0.000        1.000        6.000        0.000        3.000        0.000        0.000        0.000      100.000        0.000        0.000        2.292        2.323        3.659
     930.000  -238003.733    24143.717    14199.961    37676.211       87.506  -357431.390    43320.262       25.607       25.577        3.042        3.085        3.149        3.238        3.116        2.955        2.667        2.578        2.655        2.685        2.707        2.499        2.960        2.980        3.251        2.984        0.461        0.000        1.000        0.000        0.000        2.000        2.000        0.000        0.000        0.000        0.000        0.000        0.000        0.000        0.000        0.000        2.000        0.000        0.000        0.000        0.000        0.000        0.000        0.000        0.000        0.000        1.000        0.000        0.000        0.000        4.000        0.000        1.000        0.000        0.000        0.000      100.000        0.000        0.000        2.264        2.291        3.624
     940.000  -237158.122    22955.607    14374.267    37935.737      143.738  -356790.162    44222.691       25.704       25.613        3.090        3.079        3.079        3.239        3.154        2.953        2.644        2.532        2.712        2.561        2.664        2.458        2.956        3.034        3.217        3.051        0.471        0.000        1.000        0.000        0.000        1.000        4.000        0.000        0.000        0.000        0.000        0.000        0.000        0.000        0.000        0.000        1.000        0.000        0.000        0.000        0.000        0.000        0.000        0.000        0.000        0.000        1.000        0.000        0.000        1.000        5.000        0.000        3.000        0.000        0.000        0.000      100.000        0.000        0.000        2.157        2.160        3.684
     950.000  -237240.399    23166.569    14638.759    38032.476      109.341  -357158.312    43970.769       25.312       25.536        3.057        3.135        3.061        3.220        3.168        3.084        2.662        2.536        2.672        2.663        2.687        2.522        2.950        2.956        3.224        3.018        0.470        0.000        1.000        0.000        0.000        2.000        4.000        0.000        0.000        0.000        0.000        0.000        0.000        0.000        0.000        0.000        2.000        0.000        0.000        0.000        0.000        0.000        0.000        0.000        0.000        1.000        0.000        0.000        0.000        0.000        6.000        0.000        0.000        0.000        0.000        0.000      100.000        0.000        0.000        1.957        1.953        3.499
     960.000  -237936.204    23931.358    14636.178    37916.584      111.326  -357099.380    42567.730       25.655       25.755        3.162        3.105        3.134        3.265        3.137        2.948        2.624        2.513        2.644        2.673        2.655        2.511        2.950        2.944        3.267        3.048        0.479        0.000        1.000        0.000        0.000        1.000        4.000        0.000        0.000        0.000        0.000        0.000        0.000        0.000        0.000        0.000        1.000        0.000        0.000        0.000        0.000        0.000        0.000        0.000        0.000        0.000        3.000        0.000        0.000        0.000        3.000        0.000        4.000        0.000        0.000        0.000      100.000        0.000        0.000        2.140        2.153        3.606
     970.000  -237764.504    22692.833    14338.838    38123.214      119.547  -356888.571    43849.637       25.407       25.396        2.922        2.989        3.079        3.266        3.166        3.079        2.671        2.529        2.695        2.661        2.693        2.558        2.952        3.037        3.250        3.027        0.465        0.000        1.000        0.000        0.000        0.000        3.000        0.000        0.000        0.000        0.000        0.000        0.000        0.000        0.000        0.000        0.000        0.000        0.000        0.000        0.000        0.000        0.000        0.000        0.000        0.000        1.000        0.000        0.000        0.000        5.000        0.000        3.000        0.000        0.000        0.000      100.000        0.000        0.000        2.030        2.029        3.664
     980.000  -237890.786    23853.914    14266.263    37919.463      116.417  -357772.425    43725.582       25.771       25.576        3.021        3.065        3.133        3.251        3.204        3.089        2.636        2.604        2.602        2.663        2.678        2.530        2.958        2.968        3.275        3.034        0.492        0.000        1.000        0.000        0.000        1.000        3.000        0.000        0.000        0.000        0.000        0.000        0.000        1.000        0.000        0.000        1.000        0.000        0.000        0.000        0.000        0.000        0.000        0.000        0.000        0.000        0.000        0.000        0.000        0.000        8.000        0.000        1.000        0.000        0.000        0.000      100.000        0.000        0.000        1.780        1.798        3.378
     990.000  -237424.059    22695.626    14228.585    38100.249      136.088  -356443.776    43859.169       25.497       25.610        3.000        2.978        3.133        3.224        3.172        3.008        2.648        2.552        2.691        2.643        2.623        2.498        2.967        3.017        3.253        3.028        0.490        0.000        1.000        0.000        0.000        2.000        3.000        0.000        0.000        0.000        0.000        0.000        0.000        0.000        1.000        0.000        0.000        0.000        0.000        0.000        0.000        0.000        0.000        0.000        0.000        0.000        2.000        0.000        0.000        1.000        7.000        0.000        5.000        0.000        4.494        0.000       95.506        0.000        0.000        1.445        1.486        3.150
    1000.000  -236878.075    24837.708    14353.351    38100.067      100.885  -356024.715    41754.628       25.569       25.503        3.064        2.965        3.124        3.249        3.128        3.010        2.640        2.548        2.722        2.571        2.661        2.456        2.974        3.041        3.253        2.985        0.491        0.000        1.000        0.000        0.000        1.000        2.000        0.000        0.000        0.000        0.000        0.000        0.000        0.000        0.000        0.000        2.000        0.000        0.000        0.000        0.000        0.000        0.000        0.000        0.000        0.000        0.000        0.000        0.000        0.000        4.000        0.000        0.000        0.000        0.000        0.000      100.000        0.000        0.000        1.407        1.449        3.214
     Average  -239150.694    24014.306    14462.403    37911.388      115.522  -359517.093    43862.780       25.909       25.757        3.050        3.003        3.097        3.236        3.187        2.987        2.637        2.556        2.683        2.641        2.648        2.515        2.936        2.986        3.231        3.030        0.484        0.000        0.970        0.000        0.000        1.356        2.158        0.000        0.436        0.040        0.020        0.000        0.000        0.109        0.248        0.000        1.505        0.000        0.000        0.000        0.000        0.000        0.000        0.000        0.000        0.139        0.634        0.000        0.000        0.327        6.366        0.000        2.743        0.000        0.534        0.000       99.466        0.000        0.000        1.829        1.861        3.078

