____Time[ps] Energy[ kJ/mol ]_____Bond _______Angle ____Dihedral ___Planarity _____Coulomb _________VdW _Your result _Your result _Your result _Your result _Your result _Your result _Your result _Your result _Your result _Your result _Your result _Your result _Your result _Your result _Your result _Your result _Your result _Your result _Your result _Your result _Your result _Your result _Your result _Your result _Your result _Your result _Your result _Your result _Your result _Your result _Your result _Your result _Your result _Your result _Your result _Your result _Your result _Your result _Your result _Your result _Your result _Your result _Your result _Your result _Your result _Your result _Your result _Your result _Your result _Your result _Your result _Your result _Your result _Your result _Your result _Your result _Your result _RMSDs[A]:CA ____Backbone __HeavyAtoms
       0.000  -336029.860     8536.553     5086.155    38216.738       13.868  -451794.432    63911.258       25.494       25.333        2.578        2.591        2.570        2.647        3.180        3.138        3.246        2.975        3.202        3.240        3.046        3.181        2.506        2.577        2.543        2.568        0.488        1.000        1.000        0.000        2.000        2.000        3.000        0.000        0.000        0.000        2.000        0.000        0.000        0.000        0.000        0.000        0.000        0.000        0.000        0.000        1.000        0.000        0.000        0.000        0.000        0.000        6.000        0.000        3.000        0.000        5.000        0.000        0.000        0.000        4.494        0.000       95.506        0.000        0.000        0.476        0.503        0.596
      10.000  -252728.433    27358.147    15176.725    38073.141       91.027  -382667.924    49240.451       25.985       26.035        2.641        2.628        2.577        2.696        3.241        3.073        3.217        3.030        3.237        3.228        3.013        3.116        2.518        2.502        2.670        2.617        0.487        1.000        1.000        0.000        2.000        2.000        4.000        0.000        0.000        0.000        0.000        0.000        0.000        0.000        1.000        0.000        1.000        0.000        0.000        0.000        0.000        0.000        0.000        0.000        0.000        0.000        2.000        0.000        3.000        1.000        2.000        0.000        1.000        0.000        4.494        0.000       95.506        0.000        0.000        1.170        1.216        1.276
      20.000  -252039.309    29056.797    15411.034    38069.954      113.365  -381255.684    46565.226       26.011       25.982        2.615        2.513        2.648        2.673        3.209        3.080        3.237        3.012        3.238        3.258        3.060        3.054        2.572        2.580        2.651        2.610        0.484        1.000        1.000        0.000        2.000        3.000        4.000        0.000        0.000        0.000        1.000        0.000        0.000        0.000        0.000        0.000        2.000        0.000        0.000        0.000        1.000        0.000        0.000        0.000        0.000        0.000        4.000        0.000        3.000        2.000        2.000        0.000        0.000        0.000        4.494        0.000       95.506        0.000        0.000        1.191        1.245        1.400
      30.000  -251671.094    28808.940    15364.701    38074.742       93.360  -381853.233    47840.396       26.173       26.239        2.571        2.596        2.555        2.675        3.140        3.086        3.259        3.000        3.207        3.194        2.983        3.093        2.542        2.538        2.654        2.586        0.490        1.000        1.000        0.000        2.000        1.000        4.000        0.000        0.000        0.000        2.000        0.000        0.000        0.000        0.000        0.000        1.000        0.000        0.000        0.000        1.000        0.000        0.000        0.000        0.000        0.000        2.000        0.000        3.000        1.000        0.000        0.000        0.000        0.000        4.494        0.000       95.506        0.000        0.000        1.393        1.447        1.593
      40.000  -251081.699    28876.627    15315.821    38035.231       96.072  -380157.635    46752.185       26.382       26.336        2.611        2.591        2.614        2.669        3.182        3.037        3.268        2.999        3.198        3.184        2.993        3.107        2.526        2.548        2.730        2.604        0.494        0.000        1.000        0.000        2.000        2.000        4.000        0.000        0.000        0.000        1.000        0.000        0.000        0.000        0.000        0.000        0.000        0.000        0.000        0.000        1.000        0.000        0.000        0.000        0.000        0.000        3.000        0.000        3.000        1.000        2.000        0.000        0.000        0.000        0.000        0.000      100.000        0.000        0.000        1.598        1.650        1.712
      50.000  -251230.269    27433.382    15606.051    38260.642       99.244  -380669.100    48039.512       26.315       26.197        2.601        2.534        2.609        2.682        3.183        3.062        3.259        2.983        3.180        3.225        3.052        3.128        2.556        2.573        2.717        2.590        0.482        0.000        1.000        0.000        2.000        3.000        4.000        0.000        0.000        0.000        0.000        0.000        0.000        0.000        0.000        0.000        1.000        0.000        0.000        0.000        1.000        0.000        0.000        0.000        0.000        0.000        2.000        0.000        2.000        1.000        4.000        0.000        0.000        0.000        4.494        0.000       95.506        0.000        0.000        1.491        1.516        1.723
      60.000  -251225.560    27429.256    15145.925    38214.568       85.457  -378877.048    46776.283       26.076       25.939        2.622        2.585        2.598        2.671        3.181        3.123        3.289        2.990        3.222        3.223        2.971        3.115        2.590        2.656        2.684        2.571        0.506        1.000        1.000        0.000        2.000        1.000        3.000        0.000        0.000        0.000        0.000        0.000        1.000        0.000        0.000        0.000        0.000        0.000        0.000        0.000        0.000        0.000        0.000        0.000        0.000        0.000        2.000        0.000        3.000        1.000        2.000        0.000        0.000        0.000        0.000        0.000      100.000        0.000        0.000        1.628        1.653        1.770
      70.000  -250562.297    27473.137    15739.648    38209.919      115.018  -378085.165    45985.146       26.084       25.934        2.612        2.609        2.587        2.646        3.180        3.053        3.301        3.002        3.242        3.207        3.046        3.104        2.545        2.580        2.590        2.499        0.474        0.000        1.000        0.000        2.000        3.000        4.000        0.000        0.000        0.000        2.000        0.000        0.000        0.000        1.000        0.000        2.000        0.000        0.000        0.000        1.000        0.000        0.000        0.000        0.000        0.000        3.000        0.000        4.000        1.000        5.000        0.000        2.000        0.000        4.494        0.000       95.506        0.000        0.000        2.042        2.086        2.120
      80.000  -249946.880    26861.275    15922.125    38188.524      118.230  -378603.296    47566.262       26.156       26.122        2.684        2.619        2.601        2.675        3.179        3.102        3.246        3.016        3.189        3.162        2.939        3.167        2.552        2.614        2.661        2.652        0.466        0.000        1.000        0.000        2.000        2.000        4.000        0.000        0.000        0.000        2.000        0.000        0.000        0.000        0.000        0.000        2.000        0.000        0.000        0.000        1.000        0.000        0.000        0.000        0.000        2.000        3.000        0.000        4.000        1.000        3.000        0.000        1.000        0.000        4.494        0.000       95.506        0.000        0.000        2.449        2.519        2.394
      90.000  -250139.834    26195.010    15420.157    38151.623       90.348  -376698.152    46701.180       25.865       25.861        2.658        2.608        2.606        2.699        3.166        3.131        3.225        3.020        3.230        3.203        3.002        3.073        2.540        2.610        2.641        2.646        0.477        1.000        1.000        0.000        2.000        2.000        3.000        0.000        0.000        0.000        1.000        0.000        0.000        0.000        0.000        0.000        1.000        0.000        0.000        0.000        1.000        0.000        0.000        0.000        0.000        1.000        4.000        0.000        1.000        2.000        4.000        0.000        0.000        0.000        0.000        0.000      100.000        0.000        0.000        2.226        2.285        2.265
     100.000  -249945.924    25664.450    15266.350    38132.558      119.895  -376648.017    47518.840       26.254       26.073        2.642        2.587        2.549        2.685        3.182        3.007        3.258        3.017        3.273        3.195        2.992        3.099        2.553        2.576        2.597        2.594        0.486        0.000        1.000        0.000        2.000        2.000        4.000        0.000        0.000        0.000        1.000        0.000        0.000        0.000        0.000        0.000        0.000        0.000        0.000        0.000        1.000        0.000        0.000        0.000        0.000        0.000        2.000        0.000        2.000        2.000        3.000        0.000        0.000        0.000        0.000        0.000      100.000        0.000        0.000        1.848        1.915        1.929
     110.000  -249829.569    26288.951    15581.578    38104.283      107.835  -375653.039    45740.823       26.124       25.912        2.700        2.633        2.590        2.679        3.189        3.154        3.245        2.991        3.230        3.123        2.972        3.060        2.532        2.654        2.646        2.543        0.508        0.000        0.000        0.000        2.000        2.000        3.000        0.000        0.000        0.000        2.000        0.000        0.000        0.000        0.000        0.000        1.000        0.000        0.000        0.000        1.000        0.000        0.000        0.000        0.000        0.000        4.000        0.000        4.000        1.000        5.000        0.000        0.000        0.000        0.000        0.000      100.000        0.000        0.000        1.424        1.492        1.657
     120.000  -249821.492    26007.424    14967.051    38146.076       75.229  -375649.339    46632.066       25.854       25.717        2.641        2.639        2.568        2.682        3.164        3.117        3.243        2.974        3.259        3.118        3.093        3.060        2.523        2.583        2.650        2.579        0.486        0.000        1.000        0.000        2.000        3.000        4.000        0.000        0.000        0.000        1.000        0.000        0.000        0.000        0.000        0.000        0.000        0.000        0.000        0.000        1.000        0.000        0.000        0.000        0.000        0.000        3.000        0.000        2.000        1.000        3.000        0.000        1.000        0.000        0.000        0.000      100.000        0.000        0.000        1.564        1.645        1.689
     130.000  -249067.581    25777.476    15413.166    38286.937      116.372  -374912.381    46250.850       25.751       25.786        2.664        2.648        2.552        2.663        3.183        3.084        3.255        3.030        3.235        3.094        3.062        3.063        2.535        2.612        2.620        2.585        0.477        0.000        1.000        0.000        2.000        4.000        3.000        0.000        0.000        0.000        2.000        0.000        0.000        0.000        0.000        0.000        2.000        0.000        0.000        0.000        1.000        0.000        0.000        0.000        0.000        0.000        4.000        0.000        2.000        2.000        3.000        0.000        0.000        0.000        0.000        0.000      100.000        0.000        0.000        1.346        1.428        1.551
     140.000  -249055.471    25513.227    15402.973    37880.239      114.155  -374569.875    46603.810       25.901       26.116        2.656        2.648        2.582        2.695        3.215        3.084        3.280        3.085        3.201        3.143        3.035        3.067        2.562        2.588        2.693        2.516        0.458        0.000        1.000        0.000        1.000        3.000        4.000        0.000        0.000        0.000        0.000        0.000        0.000        0.000        0.000        0.000        2.000        0.000        0.000        0.000        1.000        0.000        0.000        0.000        0.000        0.000        2.000        0.000        5.000        1.000        3.000        0.000        0.000        0.000        0.000        0.000      100.000        0.000        0.000        1.544        1.600        1.682
     150.000  -248714.747    24951.643    14934.277    38179.622      116.558  -373699.426    46802.579       25.764       26.006        2.669        2.608        2.588        2.690        3.189        3.114        3.209        2.987        3.181        3.154        3.036        3.078        2.498        2.618        2.612        2.631        0.475        0.000        1.000        0.000        0.000        2.000        3.000        0.000        0.000        0.000        2.000        0.000        0.000        0.000        0.000        0.000        1.000        0.000        0.000        0.000        1.000        0.000        0.000        0.000        0.000        2.000        5.000        0.000        2.000        1.000        2.000        0.000        1.000        0.000        0.000        0.000      100.000        0.000        0.000        1.550        1.613        1.697
     160.000  -249106.035    26766.320    15322.198    38240.366      128.383  -374795.376    45232.074       25.562       25.684        2.654        2.560        2.552        2.683        3.220        3.105        3.255        2.960        3.191        3.194        3.055        3.027        2.531        2.626        2.657        2.583        0.511        0.000        1.000        0.000        0.000        4.000        4.000        0.000        0.000        0.000        1.000        0.000        0.000        0.000        0.000        0.000        2.000        0.000        0.000        0.000        1.000        0.000        0.000        0.000        0.000        3.000        2.000        0.000        3.000        3.000        2.000        0.000        0.000        0.000        4.494        0.000       95.506        0.000        0.000        1.636        1.703        1.789
     170.000  -248306.648    25073.523    14709.060    38327.488      124.413  -371888.602    45347.470       25.773       25.675        2.674        2.655        2.648        2.662        3.228        3.131        3.256        3.019        3.216        3.146        3.032        3.028        2.543        2.627        2.730        2.625        0.488        0.000        1.000        0.000        1.000        3.000        4.000        0.000        0.000        0.000        0.000        0.000        0.000        0.000        0.000        0.000        2.000        0.000        0.000        0.000        1.000        0.000        0.000        0.000        0.000        2.000        4.000        0.000        1.000        3.000        8.000        0.000        1.000        0.000        4.494        0.000       95.506        0.000        0.000        1.566        1.615        1.860
     180.000  -249248.248    26249.257    15138.963    38201.562       93.050  -373702.062    44770.982       25.935       25.895        2.697        2.659        2.589        2.672        3.173        3.110        3.229        2.993        3.163        3.205        3.019        3.067        2.595        2.643        2.686        2.540        0.501        0.000        1.000        0.000        0.000        3.000        4.000        0.000        0.000        0.000        3.000        0.000        0.000        0.000        2.000        0.000        1.000        0.000        0.000        0.000        1.000        0.000        0.000        0.000        0.000        2.000        3.000        0.000        3.000        1.000        4.000        0.000        0.000        0.000        0.000        0.000      100.000        0.000        0.000        1.555        1.617        1.801
     190.000  -248210.151    24827.965    15072.065    38225.023      120.120  -374047.524    47592.200       25.977       25.934        2.709        2.613        2.587        2.683        3.270        3.037        3.173        2.963        3.260        3.158        3.017        3.110        2.565        2.627        2.664        2.579        0.494        0.000        1.000        0.000        1.000        2.000        4.000        0.000        0.000        0.000        1.000        0.000        0.000        0.000        0.000        0.000        1.000        0.000        0.000        0.000        1.000        0.000        0.000        0.000        0.000        2.000        5.000        0.000        1.000        2.000        7.000        0.000        1.000        0.000        0.000        0.000      100.000        0.000        0.000        1.500        1.560        1.781
     200.000  -247474.916    24070.873    15344.794    38204.706      109.032  -371263.386    46059.065       26.010       25.836        2.668        2.624        2.560        2.650        3.271        3.002        3.273        2.999        3.137        3.184        3.045        3.028        2.548        2.568        2.665        2.638        0.468        0.000        0.000        0.000        1.000        2.000        3.000        0.000        0.000        0.000        2.000        0.000        1.000        0.000        0.000        0.000        1.000        0.000        0.000        0.000        1.000        0.000        0.000        0.000        0.000        4.000        4.000        0.000        3.000        4.000        5.000        0.000        1.000        0.000        0.000        0.000      100.000        0.000        0.000        1.844        1.894        2.139
     210.000  -247235.779    24379.543    15351.695    38236.619      111.701  -371034.382    45719.045       25.865       25.828        2.656        2.636        2.631        2.647        3.167        3.116        3.261        2.987        3.147        3.165        3.052        3.032        2.536        2.599        2.727        2.519        0.490        0.000        1.000        0.000        0.000        2.000        4.000        0.000        0.000        0.000        0.000        0.000        1.000        0.000        0.000        0.000        3.000        0.000        0.000        0.000        0.000        0.000        0.000        0.000        0.000        1.000        4.000        0.000        4.000        2.000        4.000        0.000        1.000        0.000        0.000        0.000      100.000        0.000        0.000        1.435        1.482        1.670
     220.000  -248202.945    26003.620    15491.233    38013.438       95.288  -372800.582    44994.059       25.966       25.755        2.684        2.618        2.666        2.673        3.217        3.051        3.273        2.962        3.204        3.196        3.119        3.040        2.533        2.560        2.707        2.573        0.504        0.000        1.000        0.000        0.000        2.000        3.000        0.000        0.000        0.000        1.000        0.000        0.000        0.000        0.000        0.000        1.000        0.000        0.000        0.000        0.000        0.000        0.000        0.000        0.000        2.000        3.000        0.000        1.000        2.000        5.000        0.000        1.000        0.000        4.494        0.000       95.506        0.000        0.000        1.401        1.452        1.653
     230.000  -246974.849    25025.158    15270.048    38235.764      113.621  -370264.712    44645.271       25.696       25.636        2.698        2.602        2.597        2.650        3.163        3.083        3.307        2.958        3.220        3.147        3.070        3.049        2.510        2.593        2.625        2.606        0.477        0.000        1.000        0.000        1.000        2.000        3.000        0.000        0.000        0.000        1.000        0.000        0.000        0.000        0.000        0.000        1.000        0.000        0.000        0.000        0.000        0.000        0.000        0.000        0.000        2.000        2.000        0.000        2.000        1.000        1.000        0.000        2.000        0.000        0.000        0.000      100.000        0.000        0.000        1.424        1.472        1.698
     240.000  -247471.072    24214.602    15112.063    38156.544      105.536  -371120.542    46060.726       25.990       25.671        2.692        2.558        2.599        2.699        3.215        3.049        3.184        2.963        3.224        3.158        3.012        3.087        2.542        2.618        2.702        2.501        0.511        0.000        1.000        0.000        1.000        2.000        4.000        0.000        0.000        0.000        1.000        0.000        0.000        0.000        0.000        0.000        1.000        0.000        0.000        0.000        1.000        0.000        0.000        0.000        0.000        2.000        2.000        0.000        3.000        2.000        4.000        0.000        0.000        0.000        0.000        0.000      100.000        0.000        0.000        1.386        1.426        1.762
     250.000  -247952.752    24400.734    15020.952    37967.466       92.679  -372202.629    46768.045       26.020       25.700        2.705        2.627        2.665        2.658        3.136        3.067        3.190        3.020        3.260        3.114        3.040        3.092        2.542        2.621        2.739        2.478        0.495        0.000        1.000        0.000        1.000        2.000        4.000        0.000        0.000        0.000        0.000        0.000        0.000        0.000        0.000        0.000        2.000        0.000        0.000        0.000        0.000        0.000        0.000        0.000        0.000        1.000        4.000        0.000        3.000        2.000        5.000        0.000        0.000        0.000        0.000        0.000      100.000        0.000        0.000        1.371        1.411        1.721
     260.000  -247561.350    24134.339    15063.306    38066.707      122.288  -371731.354    46783.364       25.958       25.720        2.709        2.649        2.665        2.685        3.112        3.075        3.225        2.973        3.176        3.146        3.059        3.122        2.539        2.550        2.661        2.499        0.484        0.000        1.000        0.000        1.000        1.000        3.000        0.000        0.000        0.000        0.000        0.000        1.000        0.000        0.000        0.000        1.000        0.000        0.000        0.000        0.000        0.000        0.000        0.000        0.000        3.000        3.000        0.000        2.000        1.000        6.000        0.000        0.000        0.000        0.000        0.000      100.000        0.000        0.000        1.440        1.487        1.797
     270.000  -247081.770    25150.653    14970.663    38113.202       94.914  -370131.768    44720.565       26.093       25.742        2.646        2.676        2.604        2.632        3.227        2.992        3.196        2.986        3.242        3.232        3.012        3.132        2.577        2.635        2.645        2.526        0.499        0.000        1.000        0.000        1.000        2.000        3.000        0.000        0.000        0.000        1.000        0.000        1.000        0.000        0.000        0.000        1.000        0.000        0.000        0.000        1.000        0.000        0.000        0.000        0.000        3.000        3.000        0.000        2.000        3.000        5.000        0.000        1.000        0.000        0.000        0.000      100.000        0.000        0.000        1.428        1.489        1.790
     280.000  -247584.187    24150.137    15003.478    38101.619      120.970  -371808.545    46848.155       26.070       25.728        2.631        2.662        2.608        2.642        3.195        3.077        3.215        2.975        3.283        3.225        3.041        3.074        2.568        2.574        2.686        2.511        0.483        0.000        1.000        0.000        1.000        2.000        4.000        0.000        0.000        0.000        2.000        0.000        1.000        0.000        1.000        0.000        1.000        0.000        0.000        0.000        1.000        0.000        0.000        0.000        0.000        4.000        4.000        0.000        4.000        3.000        2.000        0.000        1.000        0.000        0.000        0.000      100.000        0.000        0.000        1.755        1.786        2.063
     290.000  -246858.033    25532.570    14981.917    37831.559       93.709  -370605.487    45307.698       26.183       25.781        2.676        2.635        2.614        2.659        3.210        3.068        3.269        2.976        3.205        3.176        3.084        3.033        2.551        2.590        2.643        2.519        0.482        0.000        1.000        0.000        1.000        1.000        3.000        0.000        0.000        0.000        2.000        0.000        0.000        0.000        0.000        0.000        0.000        0.000        0.000        0.000        0.000        0.000        0.000        0.000        0.000        1.000        4.000        0.000        2.000        3.000        4.000        0.000        1.000        0.000        4.494        0.000       95.506        0.000        0.000        1.727        1.794        2.070
     300.000  -247993.666    24781.688    15064.750    38052.442      108.503  -371389.988    45388.939       26.035       25.708        2.654        2.592        2.623        2.693        3.234        3.077        3.265        2.943        3.236        3.207        3.066        3.063        2.536        2.544        2.681        2.494        0.484        0.000        1.000        0.000        1.000        2.000        2.000        0.000        0.000        0.000        2.000        0.000        0.000        0.000        0.000        0.000        2.000        0.000        0.000        0.000        1.000        0.000        0.000        0.000        0.000        3.000        1.000        0.000        2.000        2.000        3.000        0.000        0.000        0.000        0.000        0.000      100.000        0.000        0.000        1.709        1.744        2.039
     310.000  -247542.461    25638.970    14526.618    38017.722      101.537  -370846.709    45019.400       25.888       25.790        2.690        2.667        2.618        2.676        3.173        3.040        3.287        2.988        3.185        3.187        3.021        3.066        2.522        2.638        2.669        2.575        0.513        0.000        1.000        0.000        1.000        1.000        3.000        0.000        0.000        0.000        1.000        0.000        0.000        0.000        0.000        0.000        1.000        0.000        0.000        0.000        1.000        0.000        0.000        0.000        0.000        3.000        4.000        0.000        1.000        2.000        5.000        0.000        3.000        0.000        0.000        0.000      100.000        0.000        0.000        1.618        1.654        1.992
     320.000  -246641.393    24647.734    14977.406    37996.283      107.074  -369715.118    45345.227       25.615       25.339        2.643        2.682        2.608        2.667        3.167        3.068        3.242        2.968        3.185        3.179        2.996        3.127        2.560        2.633        2.661        2.553        0.492        0.000        1.000        0.000        1.000        2.000        3.000        0.000        0.000        0.000        1.000        0.000        0.000        0.000        1.000        0.000        1.000        0.000        0.000        0.000        0.000        0.000        0.000        0.000        0.000        0.000        2.000        0.000        3.000        2.000        2.000        0.000        1.000        0.000        0.000        0.000      100.000        0.000        0.000        1.856        1.882        2.109
     330.000  -247413.466    24614.390    14731.221    38177.986      127.535  -369805.384    44740.787       25.910       25.347        2.624        2.662        2.650        2.664        3.233        3.080        3.223        2.972        3.187        3.116        3.066        3.103        2.585        2.595        2.704        2.573        0.486        0.000        1.000        0.000        1.000        1.000        4.000        0.000        0.000        0.000        1.000        0.000        0.000        0.000        0.000        0.000        1.000        0.000        0.000        0.000        0.000        0.000        0.000        0.000        0.000        3.000        3.000        0.000        2.000        1.000        1.000        0.000        1.000        0.000        4.494        0.000       95.506        0.000        0.000        1.921        1.942        2.187
     340.000  -247724.234    24700.115    14799.015    38157.586      129.379  -370333.367    44823.037       25.478       25.155        2.515        2.658        2.611        2.655        3.192        3.126        3.240        3.005        3.212        3.204        3.074        3.041        2.578        2.552        2.681        2.525        0.493        0.000        1.000        0.000        1.000        2.000        3.000        0.000        0.000        0.000        2.000        0.000        0.000        0.000        0.000        0.000        1.000        0.000        0.000        0.000        1.000        0.000        0.000        0.000        0.000        1.000        8.000        0.000        4.000        2.000        3.000        0.000        4.000        0.000        0.000        0.000      100.000        0.000        0.000        2.096        2.127        2.247
     350.000  -246936.788    24688.493    14698.730    37971.115      114.696  -370227.978    45818.156       25.910       25.516        2.585        2.620        2.622        2.640        3.212        3.089        3.192        3.067        3.169        3.189        3.086        3.078        2.548        2.579        2.648        2.558        0.495        1.000        1.000        0.000        1.000        3.000        2.000        0.000        0.000        0.000        1.000        0.000        1.000        0.000        0.000        0.000        2.000        0.000        0.000        0.000        1.000        0.000        0.000        0.000        0.000        0.000        8.000        0.000        5.000        2.000        6.000        0.000        0.000        0.000        0.000        0.000      100.000        0.000        0.000        1.861        1.896        2.075
     360.000  -246904.660    23777.340    14552.499    37918.379      118.190  -369183.413    45912.345       25.817       25.692        2.553        2.666        2.593        2.681        3.186        3.053        3.183        3.017        3.157        3.240        3.099        3.089        2.521        2.562        2.654        2.525        0.486        0.000        1.000        0.000        1.000        2.000        3.000        0.000        0.000        0.000        2.000        0.000        1.000        0.000        0.000        0.000        1.000        0.000        0.000        0.000        2.000        0.000        0.000        0.000        0.000        1.000        3.000        0.000        2.000        3.000        6.000        0.000        0.000        0.000        0.000        0.000      100.000        0.000        0.000        1.730        1.777        2.085
     370.000  -247239.689    24967.640    14448.068    37875.618      108.049  -369610.223    44971.158       25.625       25.521        2.635        2.708        2.624        2.660        3.245        3.125        3.236        3.077        3.234        3.163        3.092        3.065        2.553        2.582        2.655        2.559        0.498        0.000        1.000        0.000        1.000        3.000        2.000        0.000        0.000        0.000        0.000        0.000        1.000        0.000        0.000        0.000        1.000        0.000        0.000        0.000        1.000        0.000        0.000        0.000        0.000        2.000        7.000        0.000        1.000        3.000        5.000        0.000        2.000        0.000        4.494        0.000       95.506        0.000        0.000        1.768        1.829        2.183
     380.000  -247773.492    24743.937    14844.029    38026.249      120.790  -371704.073    46195.576       26.039       25.631        2.544        2.615        2.594        2.646        3.144        3.092        3.233        2.944        3.177        3.193        3.066        3.026        2.547        2.554        2.631        2.493        0.489        0.000        1.000        0.000        1.000        2.000        3.000        0.000        0.000        0.000        0.000        0.000        0.000        0.000        0.000        0.000        1.000        0.000        0.000        0.000        1.000        0.000        0.000        0.000        0.000        2.000        2.000        0.000        3.000        3.000        6.000        0.000        1.000        0.000        0.000        0.000      100.000        0.000        0.000        1.628        1.653        2.104
     390.000  -247639.524    24323.346    14432.338    38135.481       95.467  -370838.500    46212.345       25.835       25.590        2.530        2.630        2.609        2.668        3.197        3.024        3.270        3.005        3.225        3.223        3.063        3.071        2.503        2.594        2.638        2.531        0.496        0.000        1.000        0.000        1.000        3.000        3.000        0.000        0.000        0.000        0.000        0.000        1.000        0.000        1.000        0.000        1.000        0.000        0.000        0.000        1.000        0.000        0.000        0.000        0.000        1.000        4.000        0.000        2.000        3.000        8.000        0.000        1.000        0.000        0.000        0.000      100.000        0.000        0.000        1.354        1.379        1.914
     400.000  -246674.892    24054.267    14737.690    38065.061      112.026  -368908.307    45264.371       25.942       25.690        2.546        2.660        2.637        2.572        3.185        3.190        3.244        3.009        3.228        3.190        3.075        3.111        2.563        2.542        2.597        2.561        0.493        1.000        1.000        0.000        1.000        3.000        3.000        0.000        0.000        1.000        1.000        0.000        1.000        0.000        0.000        0.000        1.000        0.000        0.000        0.000        1.000        0.000        0.000        0.000        0.000        1.000        4.000        0.000        2.000        0.000        1.000        0.000        1.000        0.000        0.000        0.000      100.000        0.000        0.000        1.269        1.299        1.784
     410.000  -246554.373    23999.773    14735.554    38182.104      107.291  -369535.561    45956.465       26.166       25.914        2.560        2.632        2.688        2.560        3.137        3.058        3.274        2.964        3.176        3.168        3.039        3.067        2.536        2.613        2.689        2.596        0.487        2.000        1.000        0.000        1.000        2.000        3.000        0.000        0.000        0.000        1.000        0.000        0.000        0.000        0.000        0.000        0.000        0.000        0.000        0.000        1.000        0.000        0.000        0.000        0.000        0.000        2.000        0.000        2.000        0.000        3.000        0.000        0.000        0.000        0.000        0.000      100.000        0.000        0.000        1.437        1.467        1.842
     420.000  -246485.815    24715.314    14906.210    37886.318      100.853  -368537.684    44443.175       26.124       25.852        2.555        2.651        2.642        2.561        3.182        3.181        3.283        2.982        3.246        3.255        3.076        3.081        2.549        2.625        2.657        2.548        0.484        1.000        1.000        0.000        1.000        2.000        3.000        0.000        0.000        0.000        1.000        0.000        0.000        0.000        0.000        0.000        0.000        0.000        0.000        0.000        1.000        0.000        0.000        0.000        0.000        2.000        4.000        0.000        0.000        1.000        5.000        0.000        0.000        0.000        0.000        0.000      100.000        0.000        0.000        1.741        1.787        2.138
     430.000  -246448.138    25456.181    14962.331    37987.865      106.296  -369507.885    44547.074       25.656       25.654        2.571        2.688        2.618        2.556        3.136        3.126        3.324        2.914        3.243        3.207        3.080        3.104        2.563        2.609        2.720        2.526        0.468        1.000        1.000        0.000        1.000        1.000        4.000        0.000        0.000        0.000        2.000        0.000        0.000        0.000        0.000        0.000        1.000        0.000        0.000        0.000        1.000        0.000        0.000        0.000        0.000        2.000        3.000        0.000        2.000        1.000        5.000        0.000        1.000        0.000        0.000        0.000      100.000        0.000        0.000        1.672        1.720        2.135
     440.000  -247772.275    24626.021    14751.298    38141.057      102.218  -371116.357    45723.488       25.636       25.860        2.588        2.661        2.649        2.542        3.260        3.081        3.237        2.999        3.240        3.169        3.021        3.078        2.570        2.584        2.716        2.579        0.477        1.000        1.000        0.000        1.000        2.000        2.000        0.000        0.000        0.000        0.000        0.000        0.000        0.000        2.000        0.000        1.000        0.000        0.000        0.000        1.000        0.000        0.000        0.000        0.000        2.000        5.000        0.000        2.000        0.000        2.000        0.000        1.000        0.000        0.000        0.000      100.000        0.000        0.000        1.668        1.705        2.063
     450.000  -247010.604    24565.931    14785.508    38105.520       91.765  -369376.248    44816.921       25.642       25.679        2.527        2.641        2.627        2.560        3.168        2.987        3.201        2.946        3.239        3.195        3.096        3.036        2.578        2.632        2.703        2.590        0.493        1.000        1.000        0.000        1.000        2.000        3.000        0.000        0.000        1.000        1.000        0.000        0.000        0.000        0.000        0.000        0.000        0.000        0.000        0.000        1.000        0.000        0.000        0.000        0.000        1.000        1.000        0.000        2.000        0.000        3.000        0.000        1.000        0.000        0.000        0.000      100.000        0.000        0.000        1.783        1.794        2.175
     460.000  -247563.850    24540.546    14689.766    38069.705      105.493  -369087.500    44118.139       25.514       25.635        2.618        2.668        2.637        2.631        3.179        3.077        3.216        2.999        3.212        3.187        3.045        3.156        2.541        2.574        2.691        2.532        0.497        1.000        1.000        0.000        1.000        4.000        3.000        0.000        0.000        0.000        0.000        0.000        0.000        0.000        0.000        0.000        2.000        0.000        0.000        0.000        1.000        0.000        0.000        0.000        0.000        1.000        2.000        0.000        3.000        2.000        7.000        0.000        1.000        0.000        0.000        0.000      100.000        0.000        0.000        1.973        1.997        2.377
     470.000  -246933.318    25472.545    14998.542    38138.649      126.690  -369277.333    43607.588       25.819       25.723        2.574        2.639        2.630        2.595        3.161        3.030        3.237        3.021        3.209        3.168        3.081        3.133        2.511        2.545        2.667        2.584        0.469        1.000        1.000        0.000        1.000        3.000        3.000        0.000        0.000        0.000        2.000        0.000        0.000        0.000        0.000        0.000        1.000        0.000        0.000        0.000        1.000        0.000        0.000        0.000        0.000        3.000        4.000        0.000        2.000        1.000        2.000        0.000        0.000        0.000        0.000        0.000      100.000        0.000        0.000        1.840        1.889        2.127
     480.000  -247322.057    25281.311    14760.820    38125.427      115.068  -369926.225    44321.543       25.988       26.019        2.639        2.683        2.593        2.578        3.151        3.047        3.256        2.971        3.241        3.205        3.051        3.098        2.523        2.643        2.697        2.590        0.479        1.000        1.000        0.000        1.000        1.000        4.000        0.000        0.000        1.000        0.000        0.000        0.000        0.000        0.000        0.000        2.000        0.000        0.000        0.000        0.000        0.000        0.000        0.000        0.000        1.000        2.000        0.000        2.000        0.000        2.000        0.000        0.000        0.000        0.000        0.000      100.000        0.000        0.000        1.866        1.897        2.165
     490.000  -246790.518    25556.594    14717.533    38146.979       93.097  -368872.661    43567.939       25.642       25.783        2.650        2.695        2.670        2.601        3.148        3.048        3.266        2.916        3.228        3.197        3.085        3.056        2.505        2.629        2.694        2.622        0.497        1.000        1.000        0.000        1.000        3.000        3.000        0.000        0.000        0.000        0.000        0.000        1.000        0.000        0.000        0.000        3.000        0.000        0.000        0.000        1.000        0.000        0.000        0.000        0.000        2.000        2.000        0.000        3.000        2.000        2.000        0.000        1.000        0.000        0.000        0.000      100.000        0.000        0.000        2.001        2.047        2.284
     500.000  -247172.969    24256.781    14665.722    38090.264      123.849  -370128.335    45818.750       26.200       26.142        2.529        2.664        2.617        2.603        3.196        3.077        3.253        2.978        3.257        3.191        3.034        3.088        2.552        2.558        2.683        2.510        0.490        1.000        1.000        0.000        1.000        2.000        3.000        0.000        0.000        0.000        0.000        0.000        1.000        0.000        0.000        0.000        2.000        0.000        0.000        0.000        1.000        0.000        0.000        0.000        0.000        0.000        4.000        0.000        1.000        0.000       12.000        0.000        2.000        0.000        0.000        0.000      100.000        0.000        0.000        1.891        1.926        2.253
     510.000  -246288.308    25316.285    15161.432    37913.698       79.274  -368912.970    44153.973       25.874       26.088        2.571        2.663        2.656        2.555        3.222        3.127        3.266        2.983        3.304        3.132        3.030        3.051        2.505        2.651        2.722        2.585        0.478        1.000        1.000        0.000        1.000        1.000        2.000        0.000        0.000        0.000        0.000        0.000        0.000        0.000        0.000        0.000        1.000        0.000        0.000        0.000        1.000        0.000        0.000        0.000        0.000        1.000        1.000        0.000        3.000        0.000        5.000        0.000        3.000        0.000        0.000        0.000      100.000        0.000        0.000        1.848        1.898        2.249
     520.000  -246669.325    23619.593    14871.734    38149.964      133.612  -369363.533    45919.305       25.739       26.070        2.538        2.710        2.599        2.595        3.225        3.019        3.247        2.935        3.268        3.174        3.042        3.027        2.534        2.594        2.707        2.527        0.467        1.000        1.000        0.000        1.000        2.000        4.000        0.000        0.000        1.000        0.000        0.000        0.000        0.000        1.000        0.000        0.000        0.000        0.000        0.000        1.000        0.000        0.000        0.000        0.000        2.000        0.000        0.000        4.000        1.000        6.000        0.000        1.000        0.000        0.000        0.000      100.000        0.000        0.000        1.851        1.887        2.281
     530.000  -247133.227    24043.269    14526.843    38157.074      117.812  -370156.403    46178.178       26.100       26.151        2.550        2.642        2.624        2.593        3.170        3.064        3.210        2.994        3.247        3.182        3.042        3.066        2.549        2.606        2.688        2.557        0.480        1.000        1.000        0.000        1.000        1.000        4.000        0.000        0.000        1.000        0.000        0.000        0.000        0.000        0.000        0.000        0.000        0.000        0.000        0.000        1.000        0.000        0.000        0.000        0.000        1.000        2.000        0.000        3.000        0.000        3.000        0.000        1.000        0.000        0.000        0.000      100.000        0.000        0.000        1.589        1.637        2.141
     540.000  -246913.834    25313.762    14777.715    37968.954      114.853  -370826.337    45737.219       25.696       25.862        2.647        2.645        2.614        2.577        3.190        3.059        3.257        2.962        3.230        3.120        3.034        3.064        2.527        2.599        2.712        2.549        0.468        1.000        1.000        0.000        1.000        1.000        4.000        0.000        0.000        0.000        0.000        0.000        0.000        0.000        0.000        0.000        1.000        0.000        0.000        0.000        1.000        0.000        0.000        0.000        0.000        1.000        2.000        0.000        2.000        1.000        3.000        0.000        0.000        0.000        0.000        0.000      100.000        0.000        0.000        1.421        1.441        2.041
     550.000  -246671.397    24182.925    14798.407    38013.143      106.772  -368619.722    44847.078       25.859       26.103        2.614        2.604        2.621        2.564        3.170        3.045        3.258        2.934        3.159        3.175        3.005        3.105        2.555        2.583        2.699        2.537        0.481        1.000        1.000        0.000        1.000        0.000        3.000        0.000        0.000        0.000        0.000        0.000        0.000        0.000        0.000        0.000        3.000        0.000        0.000        0.000        1.000        0.000        0.000        0.000        0.000        1.000        1.000        0.000        4.000        0.000        2.000        0.000        1.000        0.000        0.000        0.000      100.000        0.000        0.000        1.554        1.574        2.204
     560.000  -246601.275    23491.734    14842.865    38032.194      101.210  -369844.666    46775.388       26.038       26.337        2.617        2.572        2.630        2.569        3.238        3.044        3.242        3.049        3.243        3.175        3.041        3.069        2.578        2.586        2.678        2.528        0.477        1.000        1.000        0.000        1.000        1.000        3.000        0.000        0.000        1.000        0.000        0.000        0.000        0.000        0.000        0.000        0.000        0.000        0.000        0.000        1.000        0.000        0.000        0.000        0.000        0.000        3.000        0.000        4.000        0.000        4.000        0.000        1.000        0.000        0.000        0.000      100.000        0.000        0.000        1.586        1.609        2.111
     570.000  -246718.702    24702.346    14757.071    38273.828      123.883  -368912.209    44336.378       25.951       25.897        2.612        2.544        2.608        2.622        3.205        3.118        3.235        3.052        3.214        3.142        3.041        3.062        2.514        2.557        2.714        2.586        0.505        1.000        1.000        0.000        1.000        3.000        3.000        0.000        0.000        0.000        0.000        0.000        0.000        0.000        0.000        0.000        1.000        0.000        0.000        0.000        0.000        0.000        0.000        0.000        0.000        0.000        1.000        0.000        3.000        1.000        4.000        0.000        1.000        0.000        0.000        0.000      100.000        0.000        0.000        1.504        1.533        2.013
     580.000  -247259.761    24443.255    14554.505    38061.306      134.749  -368313.331    43859.754       25.779       25.673        2.556        2.626        2.597        2.595        3.151        3.098        3.246        2.909        3.239        3.196        3.064        3.136        2.527        2.574        2.693        2.551        0.489        1.000        1.000        0.000        1.000        1.000        2.000        0.000        0.000        0.000        0.000        0.000        0.000        0.000        0.000        0.000        0.000        0.000        0.000        0.000        1.000        0.000        0.000        0.000        0.000        0.000        1.000        0.000        3.000        2.000        5.000        0.000        1.000        0.000        0.000        0.000      100.000        0.000        0.000        1.746        1.772        2.152
     590.000  -246912.236    23996.598    14604.716    38280.499      111.049  -368485.596    44580.498       25.761       25.818        2.628        2.654        2.635        2.594        3.203        3.128        3.231        2.880        3.194        3.173        3.038        3.042        2.565        2.563        2.710        2.510        0.486        1.000        1.000        0.000        1.000        2.000        4.000        0.000        0.000        0.000        0.000        0.000        0.000        0.000        0.000        0.000        1.000        0.000        0.000        0.000        1.000        0.000        0.000        0.000        0.000        0.000        2.000        0.000        3.000        1.000        2.000        0.000        1.000        0.000        0.000        0.000      100.000        0.000        0.000        1.815        1.847        2.216
     600.000  -246584.112    24132.345    14586.659    38242.958      103.278  -368916.719    45267.368       25.949       25.987        2.589        2.585        2.619        2.563        3.188        3.066        3.211        3.009        3.213        3.210        3.064        3.041        2.504        2.562        2.652        2.551        0.491        1.000        1.000        0.000        1.000        1.000        4.000        0.000        0.000        0.000        0.000        0.000        0.000        0.000        0.000        0.000        2.000        0.000        0.000        0.000        1.000        0.000        0.000        0.000        0.000        0.000        1.000        0.000        2.000        0.000        4.000        0.000        1.000        0.000        0.000        0.000      100.000        0.000        0.000        1.901        1.938        2.282
     610.000  -245966.485    24568.406    14728.776    38222.106      123.754  -369236.087    45626.559       25.778       25.806        2.601        2.620        2.609        2.563        3.184        3.096        3.250        3.055        3.251        3.204        3.097        3.050        2.534        2.584        2.695        2.584        0.477        1.000        1.000        0.000        1.000        3.000        3.000        0.000        0.000        0.000        0.000        0.000        0.000        0.000        0.000        0.000        2.000        0.000        0.000        0.000        1.000        0.000        0.000        0.000        0.000        0.000        3.000        0.000        4.000        2.000        2.000        0.000        1.000        0.000        0.000        0.000      100.000        0.000        0.000        1.621        1.657        2.080
     620.000  -246857.260    24571.261    14650.385    38107.690       96.459  -368695.389    44412.333       25.727       25.760        2.618        2.596        2.603        2.607        3.232        3.009        3.266        2.953        3.256        3.155        3.089        3.015        2.574        2.571        2.672        2.561        0.491        1.000        1.000        0.000        1.000        1.000        4.000        0.000        0.000        0.000        0.000        0.000        0.000        0.000        0.000        0.000        3.000        0.000        0.000        0.000        1.000        0.000        0.000        0.000        0.000        1.000        0.000        0.000        6.000        1.000        5.000        0.000        1.000        0.000        0.000        0.000      100.000        0.000        0.000        1.501        1.537        1.928
     630.000  -246081.513    25156.022    14905.950    38204.540       89.915  -367726.422    43288.482       25.634       25.963        2.608        2.645        2.621        2.606        3.215        3.074        3.210        2.945        3.274        3.198        3.006        3.097        2.560        2.612        2.624        2.483        0.495        2.000        1.000        0.000        1.000        1.000        2.000        0.000        0.000        0.000        0.000        0.000        0.000        0.000        0.000        0.000        0.000        0.000        0.000        0.000        1.000        0.000        0.000        0.000        0.000        1.000        1.000        0.000        4.000        2.000        1.000        0.000        2.000        0.000        0.000        0.000      100.000        0.000        0.000        1.476        1.539        1.935
     640.000  -246574.751    24553.703    14411.893    38139.358      122.693  -367972.855    44170.457       25.899       26.174        2.489        2.641        2.635        2.606        3.220        3.049        3.252        2.971        3.266        3.224        3.009        3.014        2.531        2.638        2.687        2.498        0.492        1.000        1.000        0.000        1.000        2.000        3.000        0.000        0.000        0.000        1.000        0.000        0.000        0.000        0.000        0.000        1.000        0.000        0.000        0.000        1.000        0.000        0.000        0.000        0.000        1.000        2.000        0.000        5.000        1.000        2.000        0.000        1.000        0.000        0.000        0.000      100.000        0.000        0.000        1.638        1.685        2.012
     650.000  -246227.504    23661.335    14746.396    38004.461      127.945  -367889.528    45121.887       25.691       25.834        2.630        2.570        2.651        2.596        3.186        3.084        3.273        2.975        3.269        3.186        3.038        3.083        2.562        2.667        2.646        2.539        0.471        1.000        1.000        0.000        1.000        1.000        4.000        0.000        0.000        0.000        1.000        0.000        0.000        0.000        0.000        0.000        3.000        0.000        0.000        0.000        1.000        0.000        0.000        0.000        0.000        2.000        3.000        0.000        4.000        0.000        2.000        0.000        2.000        0.000        0.000        0.000      100.000        0.000        0.000        1.378        1.437        1.862
     660.000  -246536.032    24206.937    14459.095    38202.099      106.864  -368142.557    44631.529       25.496       25.747        2.649        2.611        2.660        2.568        3.214        3.032        3.225        2.923        3.292        3.205        3.104        2.975        2.588        2.571        2.704        2.552        0.466        1.000        1.000        0.000        1.000        1.000        3.000        0.000        0.000        0.000        0.000        0.000        0.000        0.000        0.000        0.000        1.000        0.000        0.000        0.000        1.000        0.000        0.000        0.000        0.000        1.000        2.000        0.000        1.000        0.000        3.000        0.000        3.000        0.000        0.000        0.000      100.000        0.000        0.000        1.269        1.298        1.843
     670.000  -246390.655    24718.967    14812.772    38217.275      128.463  -368410.371    44142.237       25.588       25.613        2.556        2.599        2.648        2.614        3.183        3.035        3.258        3.037        3.238        3.148        3.036        3.010        2.506        2.581        2.677        2.576        0.466        1.000        1.000        0.000        1.000        2.000        1.000        0.000        0.000        1.000        1.000        0.000        0.000        0.000        0.000        0.000        2.000        0.000        0.000        0.000        0.000        0.000        0.000        0.000        0.000        2.000        0.000        0.000        4.000        1.000        5.000        0.000        2.000        0.000        0.000        0.000      100.000        0.000        0.000        1.240        1.275        1.825
     680.000  -246178.331    23606.992    15005.312    37907.933      119.517  -369382.362    46564.277       26.017       26.092        2.525        2.586        2.592        2.570        3.165        3.083        3.250        2.994        3.251        3.213        2.975        3.068        2.535        2.603        2.705        2.580        0.504        1.000        1.000        0.000        1.000        1.000        2.000        0.000        0.000        0.000        0.000        0.000        0.000        0.000        0.000        0.000        3.000        0.000        0.000        0.000        1.000        0.000        0.000        0.000        0.000        1.000        3.000        0.000        3.000        0.000        4.000        0.000        2.000        0.000        0.000        0.000      100.000        0.000        0.000        1.558        1.594        1.918
     690.000  -246613.364    25001.169    14912.179    37890.381       97.400  -368460.624    43946.132       25.961       26.008        2.554        2.631        2.613        2.599        3.162        3.017        3.223        3.035        3.278        3.230        3.059        3.053        2.583        2.616        2.706        2.639        0.483        1.000        1.000        0.000        1.000        1.000        3.000        0.000        0.000        0.000        0.000        0.000        0.000        0.000        0.000        0.000        2.000        0.000        0.000        0.000        1.000        0.000        0.000        0.000        0.000        1.000        2.000        0.000        0.000        0.000        4.000        0.000        4.000        0.000        0.000        0.000      100.000        0.000        0.000        1.810        1.860        2.094
     700.000  -246413.119    23863.109    15025.090    38153.988       99.316  -368329.148    44774.527       25.929       25.858        2.566        2.631        2.638        2.583        3.179        3.065        3.234        2.999        3.277        3.121        3.025        3.048        2.532        2.517        2.688        2.529        0.496        1.000        1.000        0.000        1.000        1.000        0.000        0.000        0.000        0.000        0.000        0.000        0.000        0.000        0.000        0.000        1.000        0.000        0.000        0.000        1.000        0.000        0.000        0.000        0.000        1.000        1.000        0.000        2.000        0.000        6.000        0.000        1.000        0.000        0.000        0.000      100.000        0.000        0.000        1.697        1.731        2.135
     710.000  -247034.176    23995.437    14691.999    38117.187       91.355  -369397.617    45467.463       25.962       25.807        2.579        2.571        2.591        2.601        3.174        3.054        3.241        3.056        3.276        3.187        3.075        3.012        2.542        2.617        2.686        2.521        0.492        1.000        1.000        0.000        0.000        1.000        2.000        0.000        0.000        0.000        0.000        0.000        0.000        0.000        1.000        0.000        3.000        0.000        0.000        0.000        1.000        0.000        0.000        0.000        0.000        1.000        0.000        0.000        3.000        1.000        4.000        0.000        1.000        0.000        0.000        0.000      100.000        0.000        0.000        1.567        1.599        1.934
     720.000  -246764.552    24483.697    14674.399    38070.888      119.688  -368582.044    44468.820       25.842       25.739        2.548        2.619        2.618        2.608        3.201        3.115        3.298        3.018        3.224        3.204        3.024        3.030        2.598        2.592        2.684        2.611        0.480        1.000        1.000        0.000        0.000        2.000        3.000        0.000        0.000        0.000        0.000        0.000        0.000        0.000        0.000        0.000        2.000        0.000        0.000        0.000        1.000        0.000        0.000        0.000        0.000        0.000        3.000        0.000        4.000        3.000        6.000        0.000        2.000        0.000        0.000        0.000      100.000        0.000        0.000        1.807        1.821        2.122
     730.000  -246959.588    23895.098    14886.688    38160.814      123.603  -369129.785    45103.995       26.012       25.653        2.544        2.621        2.586        2.624        3.192        3.034        3.283        3.066        3.265        3.207        2.994        3.063        2.523        2.603        2.691        2.538        0.490        1.000        1.000        0.000        1.000        1.000        2.000        0.000        0.000        0.000        0.000        0.000        1.000        0.000        0.000        0.000        0.000        0.000        0.000        0.000        1.000        0.000        0.000        0.000        0.000        2.000        2.000        0.000        3.000        1.000        8.000        0.000        0.000        0.000        0.000        0.000      100.000        0.000        0.000        1.862        1.907        2.226
     740.000  -246454.211    23121.869    14549.116    38185.065      131.203  -367971.968    45530.504       25.879       25.871        2.607        2.589        2.592        2.582        3.216        3.077        3.240        3.005        3.252        3.195        3.010        3.088        2.539        2.611        2.691        2.604        0.492        1.000        1.000        0.000        1.000        1.000        2.000        0.000        0.000        1.000        0.000        0.000        0.000        0.000        1.000        0.000        2.000        0.000        0.000        0.000        1.000        0.000        0.000        0.000        0.000        0.000        3.000        0.000        3.000        0.000        7.000        0.000        1.000        0.000        0.000        0.000      100.000        0.000        0.000        1.810        1.856        2.209
     750.000  -246734.412    25077.623    14874.299    37946.974      105.782  -368886.764    44147.674       25.690       25.940        2.619        2.636        2.598        2.623        3.191        3.090        3.266        3.022        3.177        3.203        3.026        3.126        2.527        2.606        2.704        2.530        0.491        1.000        1.000        0.000        1.000        1.000        2.000        0.000        0.000        0.000        0.000        0.000        0.000        0.000        0.000        0.000        3.000        0.000        0.000        0.000        1.000        0.000        0.000        0.000        0.000        1.000        2.000        0.000        3.000        0.000        7.000        0.000        2.000        0.000        0.000        0.000      100.000        0.000        0.000        1.457        1.504        1.917
     760.000  -246781.014    23930.368    14660.271    37997.267      107.805  -369164.549    45687.824       25.734       25.681        2.577        2.617        2.606        2.559        3.171        3.051        3.250        3.035        3.257        3.194        2.990        3.110        2.585        2.575        2.727        2.588        0.494        1.000        1.000        0.000        1.000        1.000        1.000        0.000        0.000        1.000        0.000        0.000        0.000        0.000        1.000        0.000        1.000        0.000        0.000        0.000        1.000        0.000        0.000        0.000        0.000        1.000        2.000        0.000        2.000        0.000        7.000        0.000        1.000        0.000        0.000        0.000      100.000        0.000        0.000        1.437        1.495        2.007
     770.000  -246462.856    25385.323    14719.754    37917.993      106.111  -367870.434    43278.397       25.916       25.803        2.634        2.651        2.598        2.572        3.212        3.083        3.209        2.987        3.259        3.142        3.045        3.057        2.544        2.582        2.718        2.546        0.478        1.000        1.000        0.000        1.000        2.000        3.000        0.000        0.000        1.000        1.000        0.000        0.000        0.000        0.000        0.000        1.000        0.000        0.000        0.000        1.000        0.000        0.000        0.000        0.000        1.000        3.000        0.000        1.000        0.000        4.000        0.000        0.000        0.000        0.000        0.000      100.000        0.000        0.000        1.592        1.612        2.062
     780.000  -246605.970    24551.988    14715.693    37706.763      117.058  -369118.173    45420.700       26.018       26.017        2.572        2.655        2.624        2.595        3.180        3.054        3.219        2.989        3.302        3.163        3.009        3.084        2.500        2.536        2.686        2.525        0.492        1.000        1.000        0.000        1.000        0.000        2.000        0.000        0.000        0.000        0.000        0.000        0.000        0.000        2.000        0.000        1.000        0.000        0.000        0.000        1.000        0.000        0.000        0.000        0.000        0.000        3.000        0.000        4.000        0.000        1.000        0.000        1.000        0.000        0.000        0.000      100.000        0.000        0.000        1.379        1.442        1.902
     790.000  -246190.631    24326.930    14535.023    37917.051      128.454  -369168.105    46070.016       26.272       26.077        2.582        2.631        2.623        2.593        3.180        3.091        3.192        2.998        3.217        3.201        3.055        2.984        2.480        2.615        2.693        2.569        0.503        1.000        1.000        0.000        1.000        1.000        1.000        0.000        0.000        0.000        0.000        0.000        0.000        0.000        0.000        0.000        0.000        0.000        0.000        0.000        1.000        0.000        0.000        0.000        0.000        1.000        3.000        0.000        4.000        2.000        6.000        0.000        1.000        0.000        0.000        0.000      100.000        0.000        0.000        1.581        1.635        2.028
     800.000  -246269.505    23858.172    14729.654    38116.294      111.014  -368525.132    45440.493       25.901       25.614        2.539        2.581        2.583        2.609        3.199        3.076        3.223        2.953        3.232        3.163        2.992        3.068        2.504        2.635        2.651        2.573        0.499        1.000        1.000        0.000        1.000        1.000        2.000        0.000        0.000        1.000        0.000        0.000        0.000        0.000        1.000        0.000        2.000        0.000        0.000        0.000        1.000        0.000        0.000        0.000        0.000        0.000        1.000        0.000        4.000        0.000        4.000        0.000        1.000        0.000        0.000        0.000      100.000        0.000        0.000        1.476        1.527        1.917
     810.000  -246112.601    24177.081    14806.212    38078.920      110.565  -368832.846    45547.467       25.999       25.672        2.596        2.629        2.618        2.564        3.131        3.069        3.205        2.997        3.247        3.161        3.090        3.003        2.579        2.591        2.681        2.563        0.484        1.000        1.000        0.000        1.000        0.000        3.000        0.000        0.000        0.000        0.000        0.000        0.000        0.000        0.000        0.000        1.000        0.000        0.000        0.000        1.000        0.000        0.000        0.000        0.000        3.000        3.000        0.000        5.000        2.000        3.000        0.000        2.000        0.000        0.000        0.000      100.000        0.000        0.000        1.501        1.576        1.936
     820.000  -246439.560    24702.535    14869.397    37962.664      123.261  -368632.240    44534.824       25.950       25.694        2.632        2.618        2.604        2.593        3.157        3.072        3.218        3.047        3.248        3.164        3.087        3.039        2.530        2.594        2.661        2.554        0.499        1.000        1.000        0.000        1.000        0.000        2.000        0.000        0.000        0.000        0.000        0.000        0.000        0.000        0.000        0.000        1.000        0.000        0.000        0.000        1.000        0.000        0.000        0.000        0.000        2.000        3.000        0.000        8.000        0.000        5.000        0.000        2.000        0.000        0.000        0.000      100.000        0.000        0.000        1.390        1.442        1.906
     830.000  -246489.103    24735.918    14889.005    37836.521       90.920  -367803.338    43761.872       25.853       25.543        2.547        2.636        2.604        2.595        3.316        3.078        3.243        3.046        3.237        3.194        3.035        3.131        2.530        2.614        2.662        2.564        0.498        1.000        1.000        0.000        1.000        0.000        2.000        0.000        0.000        0.000        0.000        0.000        0.000        0.000        1.000        0.000        2.000        0.000        0.000        0.000        1.000        0.000        0.000        0.000        0.000        1.000        3.000        0.000        4.000        2.000        6.000        0.000        1.000        0.000        4.494        0.000       95.506        0.000        0.000        1.359        1.420        1.877
     840.000  -246549.472    23995.605    14970.782    38048.087       91.128  -368634.300    44979.226       25.978       25.455        2.550        2.605        2.588        2.628        3.201        3.033        3.236        2.964        3.256        3.181        3.064        3.030        2.606        2.584        2.694        2.546        0.489        1.000        1.000        0.000        1.000        2.000        3.000        0.000        0.000        1.000        0.000        0.000        0.000        0.000        0.000        0.000        0.000        0.000        0.000        0.000        1.000        0.000        0.000        0.000        0.000        1.000        2.000        0.000        3.000        0.000        6.000        0.000        1.000        0.000        0.000        0.000      100.000        0.000        0.000        1.549        1.590        2.152
     850.000  -245862.688    23828.902    14840.436    38042.310       85.908  -368259.529    45599.284       25.849       25.583        2.586        2.603        2.642        2.623        3.225        3.085        3.240        3.069        3.266        3.208        3.003        3.036        2.503        2.616        2.670        2.570        0.503        1.000        1.000        0.000        2.000        1.000        1.000        0.000        0.000        0.000        0.000        0.000        0.000        0.000        0.000        0.000        1.000        0.000        0.000        0.000        1.000        0.000        0.000        0.000        0.000        1.000        3.000        0.000        3.000        0.000        5.000        0.000        2.000        0.000        0.000        0.000      100.000        0.000        0.000        1.626        1.672        2.218
     860.000  -246286.869    24175.910    14692.455    37998.049      120.957  -367402.206    44127.966       26.310       26.085        2.550        2.597        2.563        2.592        3.199        3.094        3.222        2.961        3.237        3.198        3.024        3.055        2.517        2.587        2.675        2.567        0.512        1.000        1.000        0.000        1.000        0.000        1.000        0.000        0.000        0.000        0.000        0.000        0.000        0.000        0.000        0.000        2.000        0.000        0.000        0.000        0.000        0.000        0.000        0.000        0.000        1.000        3.000        0.000        4.000        0.000        3.000        0.000        1.000        0.000        0.000        0.000      100.000        0.000        0.000        1.936        1.973        2.417
     870.000  -246049.968    23423.449    14487.929    38023.931      100.062  -366581.376    44496.036       26.220       26.097        2.560        2.600        2.633        2.598        3.260        3.042        3.184        2.977        3.241        3.154        3.084        3.023        2.563        2.592        2.719        2.521        0.499        1.000        1.000        0.000        1.000        0.000        2.000        0.000        0.000        0.000        0.000        0.000        0.000        0.000        1.000        0.000        2.000        0.000        0.000        0.000        1.000        0.000        0.000        0.000        0.000        1.000        4.000        0.000        2.000        2.000        4.000        0.000        1.000        0.000        0.000        0.000      100.000        0.000        0.000        2.184        2.222        2.605
     880.000  -246348.239    24680.567    14340.172    37799.840      139.784  -367052.134    43743.532       25.785       25.694        2.604        2.618        2.616        2.609        3.193        3.100        3.195        3.003        3.235        3.203        3.040        3.136        2.572        2.588        2.715        2.624        0.492        1.000        1.000        0.000        1.000        2.000        4.000        0.000        0.000        0.000        0.000        0.000        0.000        0.000        0.000        0.000        0.000        0.000        0.000        0.000        1.000        0.000        0.000        0.000        0.000        3.000        2.000        0.000        3.000        0.000        8.000        0.000        0.000        0.000        4.494        0.000       95.506        0.000        0.000        1.851        1.892        2.266
     890.000  -246877.460    24824.386    14674.886    37785.244      122.234  -368116.256    43832.045       25.963       25.744        2.633        2.662        2.616        2.595        3.276        3.114        3.257        2.957        3.253        3.154        3.016        3.041        2.552        2.568        2.700        2.632        0.484        1.000        1.000        0.000        2.000        0.000        3.000        0.000        0.000        0.000        0.000        0.000        0.000        0.000        0.000        0.000        1.000        0.000        0.000        0.000        1.000        0.000        0.000        0.000        0.000        0.000        4.000        0.000        2.000        1.000        4.000        0.000        0.000        0.000        0.000        0.000      100.000        0.000        0.000        1.992        2.052        2.339
     900.000  -246035.333    23817.115    14517.906    37957.277      127.777  -365943.582    43488.175       25.630       25.566        2.586        2.616        2.554        2.585        3.248        3.140        3.258        3.011        3.201        3.186        3.052        3.089        2.599        2.564        2.727        2.584        0.477        1.000        1.000        0.000        1.000        1.000        3.000        0.000        0.000        0.000        0.000        0.000        0.000        0.000        1.000        0.000        2.000        0.000        0.000        0.000        1.000        0.000        0.000        0.000        0.000        1.000        5.000        0.000        5.000        1.000        2.000        0.000        0.000        0.000        0.000        0.000      100.000        0.000        0.000        2.113        2.187        2.424
     910.000  -245904.472    24216.670    14401.133    37845.593       86.134  -366218.965    43764.965       25.544       25.552        2.559        2.650        2.623        2.576        3.184        3.115        3.298        2.979        3.234        3.261        3.026        3.061        2.540        2.631        2.679        2.558        0.486        1.000        0.000        0.000        2.000        1.000        3.000        0.000        0.000        1.000        0.000        0.000        0.000        0.000        1.000        0.000        1.000        0.000        0.000        0.000        1.000        0.000        0.000        0.000        0.000        1.000        3.000        0.000        5.000        2.000        2.000        0.000        0.000        0.000        4.494        0.000       95.506        0.000        0.000        2.359        2.422        2.662
     920.000  -246520.324    24250.959    14659.264    38228.914      139.362  -367169.956    43371.132       25.575       25.625        2.561        2.650        2.608        2.527        3.200        3.083        3.248        3.017        3.251        3.212        3.023        3.047        2.567        2.546        2.695        2.579        0.470        1.000        1.000        0.000        2.000        1.000        3.000        0.000        0.000        0.000        0.000        0.000        0.000        0.000        1.000        0.000        3.000        0.000        0.000        0.000        1.000        0.000        0.000        0.000        0.000        1.000        6.000        0.000        5.000        2.000        1.000        0.000        2.000        0.000        0.000        0.000      100.000        0.000        0.000        2.309        2.369        2.767
     930.000  -246248.553    24730.631    14565.687    37743.095      102.667  -367400.596    44009.963       25.621       25.516        2.604        2.623        2.605        2.591        3.219        3.093        3.260        3.093        3.303        3.233        3.023        2.998        2.548        2.574        2.712        2.588        0.493        1.000        1.000        0.000        2.000        1.000        2.000        0.000        0.000        0.000        0.000        0.000        0.000        0.000        0.000        0.000        2.000        0.000        0.000        0.000        1.000        0.000        0.000        0.000        0.000        2.000        4.000        0.000        5.000        2.000        1.000        0.000        1.000        0.000        0.000        0.000      100.000        0.000        0.000        2.430        2.482        2.887
     940.000  -245977.877    24997.287    14309.930    37729.412      121.486  -366617.418    43481.426       25.727       25.721        2.563        2.616        2.596        2.587        3.212        3.035        3.303        2.975        3.256        3.221        3.055        3.051        2.581        2.594        2.743        2.581        0.473        1.000        1.000        0.000        2.000        1.000        2.000        0.000        0.000        0.000        0.000        0.000        0.000        0.000        0.000        0.000        1.000        0.000        0.000        0.000        1.000        0.000        0.000        0.000        0.000        1.000        4.000        0.000        4.000        1.000        2.000        0.000        1.000        0.000        0.000        0.000      100.000        0.000        0.000        2.402        2.462        2.803
     950.000  -246488.334    23166.542    14439.815    37980.814      132.714  -368236.142    46027.924       25.554       25.581        2.663        2.695        2.609        2.592        3.246        3.074        3.283        2.961        3.226        3.226        3.057        3.016        2.553        2.568        2.701        2.603        0.487        1.000        1.000        0.000        2.000        1.000        4.000        0.000        0.000        1.000        0.000        0.000        0.000        0.000        0.000        0.000        1.000        0.000        0.000        0.000        1.000        0.000        0.000        0.000        0.000        2.000        4.000        0.000        6.000        1.000        5.000        0.000        1.000        0.000        0.000        0.000      100.000        0.000        0.000        2.515        2.568        2.915
     960.000  -246520.309    24648.155    14534.384    37936.266      135.891  -367455.892    43680.886       25.468       25.614        2.647        2.634        2.619        2.577        3.183        3.059        3.227        3.072        3.259        3.190        3.050        3.146        2.537        2.553        2.691        2.602        0.507        1.000        1.000        0.000        2.000        0.000        4.000        0.000        0.000        0.000        0.000        0.000        0.000        0.000        0.000        0.000        1.000        0.000        0.000        0.000        1.000        0.000        0.000        0.000        0.000        0.000        3.000        0.000        1.000        3.000        3.000        0.000        2.000        0.000        0.000        0.000      100.000        0.000        0.000        2.787        2.841        3.190
     970.000  -246011.673    25149.368    14412.369    38009.676      114.929  -367431.207    43733.192       25.219       25.500        2.645        2.667        2.608        2.558        3.192        3.078        3.243        3.019        3.246        3.207        3.022        3.030        2.543        2.643        2.661        2.587        0.492        1.000        1.000        0.000        2.000        0.000        3.000        0.000        0.000        1.000        0.000        0.000        0.000        0.000        1.000        0.000        3.000        0.000        0.000        0.000        1.000        0.000        0.000        0.000        0.000        0.000        2.000        0.000        2.000        3.000        2.000        0.000        0.000        0.000        0.000        0.000      100.000        0.000        0.000        2.932        2.999        3.354
     980.000  -245570.067    24436.975    14052.908    38108.869      112.091  -366168.059    43887.150       25.187       25.734        2.598        2.547        2.611        2.586        3.254        3.083        3.242        3.001        3.297        3.222        3.020        3.089        2.533        2.594        2.737        2.587        0.489        0.000        1.000        0.000        2.000        0.000        3.000        0.000        0.000        0.000        0.000        0.000        0.000        0.000        0.000        0.000        1.000        0.000        0.000        0.000        1.000        0.000        0.000        0.000        0.000        0.000        2.000        0.000        5.000        2.000        3.000        0.000        1.000        0.000        0.000        0.000      100.000        0.000        0.000        3.004        3.052        3.442
     990.000  -246576.268    24540.027    14309.554    38016.423      116.986  -368045.003    44485.745       25.246       25.497        2.568        2.601        2.627        2.605        3.183        3.002        3.201        3.038        3.275        3.218        2.988        3.037        2.571        2.570        2.646        2.621        0.483        1.000        1.000        0.000        2.000        1.000        2.000        0.000        0.000        0.000        0.000        0.000        0.000        0.000        1.000        0.000        1.000        0.000        0.000        0.000        1.000        0.000        0.000        0.000        0.000        0.000        3.000        0.000        7.000        1.000        1.000        0.000        1.000        0.000        0.000        0.000      100.000        0.000        0.000        2.801        2.787        3.151
    1000.000  -246120.766    23883.667    14761.157    38113.075       87.048  -367289.982    44324.270       25.644       25.657        2.574        2.608        2.586        2.604        3.207        3.030        3.227        2.963        3.284        3.256        3.026        3.080        2.563        2.554        2.709        2.588        0.490        1.000        1.000        0.000        2.000        0.000        3.000        0.000        0.000        2.000        0.000        0.000        0.000        0.000        1.000        0.000        2.000        0.000        0.000        0.000        1.000        0.000        0.000        0.000        0.000        1.000        2.000        0.000        3.000        0.000        5.000        0.000        1.000        0.000        0.000        0.000      100.000        0.000        0.000        2.489        2.534        2.890
     Average  -248274.604    24730.483    14763.405    38068.707      109.410  -371394.277    45447.669       25.859       25.798        2.607        2.626        2.611        2.620        3.196        3.075        3.243        2.994        3.232        3.187        3.041        3.070        2.545        2.592        2.679        2.564        0.488        0.683        0.970        0.000        1.188        1.614        2.980        0.000        0.000        0.168        0.554        0.000        0.139        0.000        0.238        0.000        1.277        0.000        0.000        0.000        0.871        0.000        0.000        0.000        0.000        1.129        2.881        0.000        3.000        1.248        3.921        0.000        0.960        0.000        0.712        0.000       99.288        0.000        0.000        1.729        1.773        2.087

