____Time[ps] Energy[ kJ/mol ]_____Bond _______Angle ____Dihedral ___Planarity _____Coulomb _________VdW _Your result _Your result _Your result _Your result _Your result _Your result _Your result _Your result _Your result _Your result _Your result _Your result _Your result _Your result _Your result _Your result _Your result _Your result _Your result _Your result _Your result _Your result _Your result _Your result _Your result _Your result _Your result _Your result _Your result _Your result _Your result _Your result _Your result _Your result _Your result _Your result _Your result _Your result _Your result _Your result _Your result _Your result _Your result _Your result _Your result _Your result _Your result _Your result _Your result _Your result _Your result _Your result _Your result _Your result _Your result _Your result _Your result _RMSDs[A]:CA ____Backbone __HeavyAtoms
       0.000  -323478.253     6006.151     4780.769    38154.928       19.455  -435119.306    62679.750       25.281       25.309        2.964        2.968        3.078        3.255        3.211        3.013        3.258        3.062        3.223        3.244        3.096        3.202        2.461        2.545        2.479        2.616        0.486        0.000        1.000        1.000        2.000        3.000        3.000        0.000        0.000        0.000        0.000        0.000        0.000        0.000        0.000        0.000        6.000        0.000        0.000        0.000        0.000        0.000        0.000        0.000        0.000        0.000        1.000        0.000        1.000        1.000        4.000        0.000        3.000        0.000        0.000        0.000      100.000        0.000        0.000        0.446        0.466        0.550
      10.000  -242915.650    27755.800    14998.289    38031.307       95.311  -371356.061    47559.703       25.859       25.917        3.000        3.008        3.073        3.224        3.255        2.990        3.259        3.000        3.131        3.212        3.123        3.279        2.521        2.622        2.469        2.627        0.512        0.000        1.000        1.000        1.000        2.000        2.000        0.000        0.000        0.000        0.000        1.000        0.000        1.000        0.000        0.000        3.000        0.000        0.000        0.000        0.000        0.000        0.000        0.000        0.000        0.000        0.000        1.000        1.000        0.000        2.000        0.000        0.000        0.000        0.000        0.000      100.000        0.000        0.000        1.495        1.507        1.597
      20.000  -242899.768    28620.057    15005.784    37727.360      103.201  -369661.196    45305.026       26.097       25.893        3.021        2.968        3.125        3.146        3.255        3.070        3.258        2.975        3.148        3.253        3.154        3.222        2.543        2.575        2.419        2.621        0.501        0.000        1.000        1.000        1.000        2.000        2.000        0.000        0.000        0.000        0.000        0.000        0.000        0.000        0.000        1.000        0.000        0.000        0.000        0.000        0.000        0.000        0.000        0.000        0.000        0.000        0.000        0.000        2.000        1.000        8.000        0.000        0.000        0.000        4.494        0.000       95.506        0.000        0.000        1.732        1.740        1.897
      30.000  -243174.677    27646.545    14739.300    37845.219      125.893  -370399.408    46867.774       25.725       25.778        2.990        3.011        3.155        3.173        3.231        3.043        3.277        3.032        3.172        3.145        3.094        3.207        2.509        2.529        2.498        2.579        0.494        0.000        1.000        1.000        0.000        2.000        2.000        0.000        0.000        0.000        0.000        0.000        0.000        1.000        0.000        0.000        2.000        0.000        0.000        0.000        0.000        0.000        0.000        0.000        0.000        0.000        0.000        2.000        2.000        0.000        2.000        0.000        2.000        0.000        0.000        0.000      100.000        0.000        0.000        1.552        1.559        1.748
      40.000  -242497.988    28042.384    14971.513    37599.189      114.452  -368194.687    44969.161       25.936       25.992        3.021        3.049        3.157        3.236        3.279        3.074        3.267        3.059        3.176        3.233        3.053        3.214        2.510        2.599        2.452        2.610        0.483        1.000        1.000        1.000        2.000        1.000        2.000        0.000        0.000        0.000        0.000        0.000        0.000        0.000        0.000        0.000        1.000        0.000        0.000        0.000        0.000        0.000        0.000        0.000        0.000        0.000        1.000        0.000        0.000        1.000        4.000        1.000        0.000        0.000        0.000        0.000      100.000        0.000        0.000        1.570        1.591        1.849
      50.000  -241688.347    27559.224    14911.433    37896.738      121.284  -366144.161    43967.134       26.060       26.007        2.984        3.011        3.092        3.157        3.187        3.043        3.241        3.088        3.168        3.205        3.066        3.161        2.525        2.576        2.443        2.601        0.458        1.000        1.000        1.000        0.000        2.000        2.000        0.000        0.000        0.000        0.000        0.000        0.000        0.000        0.000        2.000        4.000        0.000        0.000        0.000        0.000        0.000        0.000        0.000        0.000        1.000        1.000        0.000        1.000        2.000        7.000        0.000        2.000        0.000        0.000        0.000      100.000        0.000        0.000        1.647        1.659        1.915
      60.000  -241425.629    25963.443    15151.365    37891.591      105.692  -366231.988    45694.268       25.913       25.849        2.919        3.102        3.079        3.221        3.215        3.096        3.232        3.073        3.150        3.140        3.061        3.261        2.524        2.527        2.472        2.638        0.465        1.000        1.000        1.000        1.000        1.000        2.000        0.000        0.000        0.000        0.000        0.000        1.000        0.000        0.000        0.000        1.000        0.000        0.000        0.000        0.000        0.000        0.000        0.000        0.000        0.000        2.000        0.000        0.000        0.000        4.000        0.000        1.000        0.000        0.000        0.000      100.000        0.000        0.000        1.412        1.408        1.728
      70.000  -242075.171    27064.371    14904.571    37658.676       98.232  -366272.464    44471.444       25.971       25.919        2.905        3.039        3.061        3.183        3.190        3.057        3.268        3.084        3.203        3.158        3.050        3.242        2.504        2.583        2.459        2.636        0.474        1.000        1.000        1.000        2.000        2.000        2.000        0.000        0.000        0.000        0.000        0.000        1.000        1.000        0.000        0.000        2.000        0.000        0.000        0.000        0.000        0.000        0.000        0.000        0.000        0.000        1.000        1.000        1.000        0.000        2.000        0.000        2.000        0.000        0.000        0.000      100.000        0.000        0.000        1.599        1.635        1.868
      80.000  -241749.786    26857.537    15061.842    37558.743      110.984  -366290.225    44951.331       25.887       25.727        2.928        3.001        3.101        3.196        3.195        3.027        3.244        3.081        3.285        3.215        3.065        3.263        2.499        2.592        2.435        2.572        0.483        1.000        1.000        1.000        1.000        2.000        2.000        0.000        0.000        0.000        0.000        0.000        1.000        0.000        0.000        0.000        1.000        0.000        0.000        0.000        0.000        0.000        0.000        0.000        0.000        0.000        1.000        0.000        0.000        1.000        5.000        1.000        4.000        0.000        0.000        0.000      100.000        0.000        0.000        1.848        1.881        2.107
      90.000  -241164.764    26182.177    14911.282    37756.823      119.237  -365774.299    45640.017       26.058       25.820        2.997        3.009        3.064        3.169        3.183        3.085        3.284        3.019        3.244        3.193        3.062        3.246        2.494        2.579        2.410        2.596        0.481        1.000        1.000        1.000        0.000        2.000        2.000        0.000        0.000        0.000        0.000        0.000        1.000        0.000        0.000        0.000        2.000        0.000        0.000        0.000        0.000        0.000        0.000        0.000        0.000        1.000        1.000        1.000        0.000        1.000        4.000        0.000        3.000        0.000        0.000        0.000      100.000        0.000        0.000        1.861        1.875        2.099
     100.000  -241403.757    26801.681    14925.349    37671.473      117.692  -366063.475    45143.523       26.069       25.865        2.976        3.077        3.112        3.226        3.252        3.063        3.236        2.971        3.259        3.270        3.052        3.247        2.529        2.575        2.406        2.600        0.504        0.000        1.000        1.000        0.000        2.000        2.000        0.000        0.000        0.000        0.000        0.000        0.000        1.000        1.000        0.000        1.000        0.000        0.000        0.000        0.000        0.000        0.000        0.000        0.000        0.000        2.000        1.000        0.000        0.000        2.000        0.000        3.000        0.000        0.000        0.000      100.000        0.000        0.000        1.839        1.846        2.108
     110.000  -240672.511    25861.530    14787.452    37849.946      112.292  -363957.141    44673.409       25.999       25.868        3.100        3.063        3.071        3.237        3.188        3.013        3.258        3.108        3.192        3.206        2.999        3.256        2.532        2.584        2.436        2.556        0.472        1.000        1.000        1.000        1.000        1.000        2.000        0.000        0.000        0.000        0.000        0.000        0.000        0.000        0.000        1.000        0.000        0.000        0.000        0.000        0.000        0.000        0.000        0.000        0.000        1.000        2.000        1.000        0.000        1.000        4.000        0.000        0.000        0.000        0.000        0.000      100.000        0.000        0.000        1.639        1.626        1.985
     120.000  -240831.379    24989.647    14715.197    37741.108      124.205  -363851.255    45449.720       26.179       25.766        3.018        3.051        3.057        3.207        3.167        3.076        3.213        2.995        3.219        3.142        3.013        3.238        2.539        2.554        2.438        2.576        0.496        1.000        1.000        1.000        0.000        2.000        1.000        0.000        0.000        0.000        0.000        0.000        0.000        0.000        0.000        1.000        3.000        0.000        0.000        0.000        0.000        0.000        0.000        0.000        0.000        0.000        2.000        0.000        0.000        1.000        5.000        0.000        0.000        0.000        0.000        0.000      100.000        0.000        0.000        1.714        1.716        2.165
     130.000  -240704.539    25431.853    14702.915    37934.351       99.509  -364439.768    45566.602       25.838       25.582        2.929        2.993        3.046        3.207        3.184        3.061        3.227        3.000        3.247        3.190        3.047        3.237        2.502        2.528        2.435        2.562        0.514        1.000        1.000        1.000        1.000        2.000        1.000        0.000        0.000        0.000        0.000        0.000        0.000        0.000        0.000        0.000        1.000        0.000        0.000        0.000        0.000        0.000        0.000        0.000        0.000        0.000        1.000        1.000        0.000        1.000        3.000        0.000        3.000        0.000        0.000        0.000      100.000        0.000        0.000        1.673        1.675        2.059
     140.000  -241065.490    26538.000    14400.292    37644.681      106.666  -363251.140    43496.010       26.032       25.827        2.958        2.951        3.025        3.208        3.208        3.092        3.245        3.001        3.261        3.196        3.035        3.257        2.520        2.536        2.443        2.599        0.496        1.000        1.000        1.000        1.000        1.000        2.000        0.000        0.000        0.000        0.000        0.000        0.000        0.000        0.000        0.000        2.000        0.000        0.000        0.000        0.000        0.000        0.000        0.000        0.000        2.000        1.000        1.000        0.000        1.000        6.000        1.000        1.000        0.000        0.000        0.000      100.000        0.000        0.000        1.974        1.985        2.244
     150.000  -240911.545    25602.080    14725.286    37668.385      113.975  -364228.532    45207.262       26.116       26.031        3.006        2.956        3.128        3.208        3.263        3.078        3.256        3.072        3.196        3.155        3.032        3.229        2.511        2.529        2.444        2.584        0.470        1.000        1.000        1.000        1.000        3.000        1.000        0.000        0.000        0.000        0.000        0.000        0.000        0.000        1.000        0.000        1.000        0.000        0.000        0.000        0.000        0.000        0.000        0.000        0.000        1.000        1.000        2.000        0.000        1.000        4.000        0.000        2.000        0.000        0.000        0.000      100.000        0.000        0.000        1.741        1.751        2.083
     160.000  -239714.716    25991.964    14858.703    37828.043      111.973  -361563.705    43058.305       25.943       25.762        2.913        3.038        3.072        3.163        3.212        3.034        3.236        3.013        3.216        3.158        3.060        3.232        2.499        2.496        2.430        2.576        0.496        1.000        1.000        1.000        1.000        2.000        2.000        0.000        0.000        0.000        0.000        0.000        0.000        0.000        0.000        0.000        0.000        0.000        0.000        0.000        0.000        0.000        0.000        0.000        0.000        1.000        2.000        0.000        1.000        2.000        3.000        0.000        3.000        0.000        0.000        0.000      100.000        0.000        0.000        1.615        1.603        1.937
     170.000  -239958.455    24613.837    14610.974    37897.664      122.834  -362690.166    45486.402       25.779       25.834        2.988        2.992        3.085        3.170        3.242        3.043        3.295        3.040        3.281        3.195        3.026        3.261        2.487        2.557        2.402        2.548        0.480        1.000        1.000        1.000        1.000        2.000        2.000        0.000        0.000        0.000        0.000        0.000        1.000        0.000        0.000        1.000        1.000        0.000        0.000        0.000        0.000        0.000        0.000        0.000        0.000        0.000        0.000        1.000        0.000        0.000        3.000        0.000        3.000        0.000        0.000        0.000      100.000        0.000        0.000        1.599        1.578        1.983
     180.000  -239881.986    25267.716    14483.524    37818.011      115.541  -361181.307    43614.530       25.875       25.689        3.014        3.049        3.045        3.219        3.270        3.067        3.235        2.974        3.197        3.181        3.020        3.215        2.510        2.583        2.442        2.580        0.487        1.000        1.000        1.000        1.000        2.000        2.000        0.000        0.000        0.000        0.000        0.000        0.000        0.000        0.000        0.000        1.000        0.000        0.000        0.000        0.000        0.000        0.000        0.000        0.000        1.000        3.000        1.000        0.000        1.000        4.000        0.000        2.000        0.000        0.000        0.000      100.000        0.000        0.000        1.887        1.883        2.322
     190.000  -239787.031    26286.937    14724.590    37750.176      109.754  -362013.923    43355.435       25.867       25.738        3.120        3.045        3.106        3.234        3.266        3.038        3.269        2.897        3.203        3.167        3.026        3.257        2.498        2.568        2.446        2.584        0.482        1.000        1.000        1.000        1.000        2.000        2.000        0.000        0.000        0.000        0.000        0.000        1.000        0.000        1.000        0.000        1.000        0.000        0.000        0.000        0.000        0.000        0.000        0.000        0.000        2.000        2.000        1.000        1.000        0.000        5.000        0.000        2.000        0.000        0.000        0.000      100.000        0.000        0.000        1.743        1.733        2.095
     200.000  -239098.122    24331.028    14823.411    38124.023      135.458  -360921.592    44409.550       26.201       25.895        3.092        2.975        3.076        3.265        3.223        3.006        3.262        2.931        3.170        3.248        3.028        3.231        2.511        2.528        2.413        2.594        0.471        1.000        1.000        1.000        0.000        2.000        2.000        0.000        0.000        0.000        0.000        0.000        0.000        0.000        0.000        0.000        1.000        0.000        0.000        0.000        0.000        0.000        0.000        0.000        0.000        0.000        2.000        3.000        0.000        1.000        2.000        1.000        1.000        0.000        0.000        0.000      100.000        0.000        0.000        1.825        1.818        2.198
     210.000  -239553.934    24706.466    14544.316    38123.001       98.253  -360311.955    43285.985       26.006       25.835        3.081        3.017        3.047        3.195        3.265        3.022        3.245        3.019        3.184        3.260        3.101        3.225        2.476        2.546        2.433        2.582        0.490        1.000        1.000        1.000        1.000        1.000        2.000        0.000        0.000        0.000        0.000        0.000        1.000        0.000        0.000        0.000        1.000        0.000        0.000        0.000        0.000        0.000        0.000        0.000        0.000        2.000        2.000        0.000        0.000        1.000        2.000        0.000        0.000        0.000        0.000        0.000      100.000        0.000        0.000        1.658        1.656        2.050
     220.000  -239112.936    24116.137    14742.976    38008.430      133.565  -360700.432    44586.389       26.190       25.788        3.067        2.982        3.049        3.227        3.292        3.022        3.271        2.971        3.236        3.252        3.024        3.218        2.469        2.541        2.395        2.541        0.492        1.000        1.000        1.000        1.000        2.000        2.000        0.000        0.000        0.000        0.000        0.000        2.000        1.000        0.000        2.000        0.000        0.000        0.000        0.000        0.000        0.000        0.000        0.000        0.000        1.000        3.000        1.000        0.000        3.000        8.000        0.000        2.000        0.000        0.000        0.000      100.000        0.000        0.000        1.584        1.584        2.064
     230.000  -239000.498    23713.795    14638.904    37967.534      132.470  -359876.886    44423.686       26.207       25.831        3.025        2.947        3.039        3.219        3.195        3.030        3.230        3.006        3.222        3.174        3.032        3.186        2.470        2.531        2.424        2.578        0.501        1.000        1.000        1.000        1.000        1.000        2.000        0.000        0.000        0.000        0.000        0.000        0.000        1.000        0.000        1.000        1.000        0.000        0.000        0.000        0.000        0.000        0.000        0.000        0.000        0.000        3.000        0.000        0.000        0.000        3.000        0.000        4.000        0.000        0.000        0.000      100.000        0.000        0.000        1.727        1.717        2.179
     240.000  -238271.243    24489.026    14723.070    37953.250      124.826  -362132.456    46571.042       26.014       25.768        3.051        2.960        3.022        3.177        3.250        3.040        3.258        3.012        3.193        3.183        3.058        3.189        2.497        2.570        2.451        2.579        0.495        1.000        1.000        1.000        1.000        2.000        2.000        0.000        0.000        0.000        0.000        0.000        1.000        1.000        0.000        0.000        0.000        0.000        0.000        0.000        0.000        0.000        0.000        0.000        0.000        2.000        1.000        1.000        1.000        1.000        4.000        0.000        2.000        0.000        0.000        0.000      100.000        0.000        0.000        2.225        2.211        2.568
     250.000  -239032.562    24619.264    14600.901    37954.933      105.822  -361586.441    45272.960       25.956       25.814        3.140        2.955        3.026        3.247        3.259        3.054        3.277        2.918        3.241        3.152        3.060        3.179        2.502        2.506        2.391        2.618        0.482        1.000        1.000        1.000        1.000        1.000        1.000        0.000        0.000        0.000        0.000        0.000        0.000        0.000        1.000        0.000        3.000        0.000        0.000        0.000        0.000        0.000        0.000        0.000        0.000        0.000        2.000        1.000        1.000        2.000        5.000        1.000        4.000        0.000        0.000        0.000      100.000        0.000        0.000        2.228        2.212        2.639
     260.000  -238045.313    24332.511    14997.786    38008.363      101.853  -360662.838    45177.012       26.333       26.000        2.973        3.014        3.107        3.250        3.231        3.050        3.281        3.013        3.207        3.194        3.046        3.246        2.586        2.495        2.468        2.567        0.474        1.000        1.000        1.000        0.000        1.000        2.000        0.000        0.000        0.000        0.000        0.000        0.000        0.000        0.000        0.000        0.000        0.000        0.000        0.000        0.000        0.000        0.000        0.000        0.000        1.000        4.000        0.000        0.000        1.000        4.000        0.000        1.000        0.000        0.000        0.000      100.000        0.000        0.000        1.922        1.922        2.275
     270.000  -239274.680    24691.342    14703.632    37784.928      106.611  -359553.918    42992.725       26.278       26.250        3.087        3.040        3.128        3.229        3.274        3.062        3.236        3.053        3.262        3.156        3.060        3.225        2.520        2.511        2.421        2.609        0.476        1.000        1.000        1.000        1.000        1.000        2.000        0.000        0.000        0.000        0.000        0.000        1.000        0.000        0.000        0.000        3.000        0.000        0.000        0.000        0.000        0.000        0.000        0.000        0.000        3.000        0.000        1.000        0.000        1.000        5.000        0.000        1.000        0.000        0.000        0.000      100.000        0.000        0.000        1.907        1.895        2.300
     280.000  -238217.135    25310.108    14533.709    37744.891      134.673  -358661.513    42720.998       26.327       26.398        3.053        2.990        3.029        3.267        3.322        3.031        3.244        2.996        3.243        3.213        3.039        3.224        2.543        2.524        2.460        2.565        0.484        1.000        1.000        1.000        0.000        1.000        2.000        0.000        0.000        0.000        0.000        0.000        0.000        0.000        1.000        1.000        2.000        0.000        0.000        0.000        0.000        0.000        0.000        0.000        0.000        0.000        0.000        1.000        0.000        3.000        3.000        1.000        3.000        0.000        0.000        0.000      100.000        0.000        0.000        2.211        2.182        2.530
     290.000  -238923.457    23981.187    14776.627    38019.921      125.181  -360520.425    44694.052       26.216       26.128        3.059        2.990        3.049        3.234        3.219        3.034        3.238        2.927        3.248        3.241        3.090        3.269        2.492        2.533        2.408        2.534        0.478        1.000        1.000        1.000        0.000        2.000        2.000        0.000        0.000        0.000        0.000        0.000        0.000        0.000        0.000        0.000        1.000        0.000        0.000        0.000        0.000        0.000        0.000        0.000        0.000        0.000        1.000        0.000        0.000        0.000        2.000        1.000        1.000        0.000        0.000        0.000      100.000        0.000        0.000        2.023        1.997        2.380
     300.000  -238145.874    25177.121    15003.443    37824.446       86.749  -359138.035    42900.402       26.299       26.595        3.046        2.983        3.074        3.178        3.217        3.020        3.268        3.001        3.174        3.232        3.071        3.277        2.547        2.520        2.423        2.518        0.491        1.000        0.000        1.000        1.000        1.000        2.000        0.000        0.000        0.000        0.000        0.000        1.000        1.000        0.000        0.000        1.000        0.000        0.000        0.000        0.000        0.000        0.000        0.000        0.000        0.000        3.000        0.000        0.000        0.000        3.000        0.000        3.000        0.000        0.000        0.000      100.000        0.000        0.000        2.168        2.149        2.361
     310.000  -238315.459    24725.608    14818.424    38052.445      104.366  -359450.794    43434.491       26.144       26.189        3.093        2.939        3.074        3.203        3.236        3.000        3.254        2.899        3.255        3.216        3.047        3.264        2.530        2.555        2.439        2.573        0.464        1.000        1.000        1.000        0.000        1.000        2.000        0.000        0.000        0.000        0.000        0.000        1.000        0.000        0.000        0.000        0.000        0.000        0.000        0.000        0.000        0.000        0.000        0.000        0.000        1.000        3.000        0.000        0.000        1.000        3.000        1.000        3.000        0.000        0.000        0.000      100.000        0.000        0.000        1.977        1.964        2.198
     320.000  -237997.458    23861.562    14661.579    38108.011      129.849  -357727.712    42969.254       26.493       26.003        3.090        2.934        3.098        3.157        3.195        3.117        3.227        2.924        3.267        3.145        3.028        3.195        2.537        2.527        2.426        2.541        0.509        1.000        1.000        1.000        1.000        1.000        2.000        0.000        0.000        0.000        0.000        0.000        1.000        0.000        1.000        0.000        0.000        0.000        0.000        0.000        0.000        0.000        0.000        0.000        0.000        0.000        0.000        0.000        0.000        1.000        1.000        0.000        1.000        0.000        4.494        0.000       95.506        0.000        0.000        1.868        1.865        2.156
     330.000  -238902.761    25158.612    14381.858    37919.271      125.634  -359243.240    42755.104       26.365       26.236        3.090        2.976        3.093        3.223        3.235        3.038        3.244        2.922        3.310        3.191        2.985        3.223        2.568        2.521        2.473        2.568        0.491        0.000        1.000        1.000        1.000        1.000        2.000        0.000        0.000        0.000        0.000        0.000        1.000        1.000        0.000        1.000        1.000        0.000        0.000        0.000        0.000        0.000        0.000        0.000        0.000        0.000        0.000        0.000        0.000        1.000        4.000        0.000        0.000        0.000        0.000        0.000      100.000        0.000        0.000        1.903        1.912        2.154
     340.000  -238542.659    24895.920    14588.465    38002.276      107.455  -358776.283    42639.509       26.445       26.245        3.062        2.987        3.079        3.147        3.210        2.991        3.262        2.956        3.189        3.180        3.041        3.211        2.526        2.558        2.369        2.600        0.476        0.000        1.000        1.000        1.000        2.000        2.000        0.000        0.000        0.000        0.000        0.000        1.000        1.000        0.000        0.000        2.000        0.000        0.000        0.000        0.000        0.000        0.000        0.000        0.000        0.000        2.000        2.000        0.000        1.000        7.000        1.000        2.000        0.000        0.000        0.000      100.000        0.000        0.000        1.855        1.843        2.151
     350.000  -238318.124    23816.136    14623.450    37999.824      102.034  -359527.854    44668.286       26.308       26.047        3.037        2.982        3.073        3.144        3.290        2.977        3.315        2.932        3.153        3.209        3.032        3.202        2.574        2.541        2.411        2.623        0.463        0.000        1.000        1.000        1.000        1.000        2.000        0.000        0.000        0.000        0.000        0.000        0.000        0.000        1.000        0.000        2.000        0.000        0.000        0.000        0.000        0.000        0.000        0.000        0.000        0.000        2.000        1.000        0.000        3.000        5.000        1.000        3.000        0.000        4.494        0.000       95.506        0.000        0.000        2.281        2.256        2.528
     360.000  -237603.097    25175.700    14641.956    37866.942      113.562  -357366.821    41965.564       26.472       25.942        3.103        2.961        3.058        3.249        3.266        2.980        3.237        3.011        3.192        3.168        3.037        3.161        2.510        2.523        2.451        2.606        0.490        0.000        1.000        1.000        1.000        1.000        2.000        0.000        0.000        0.000        0.000        0.000        0.000        0.000        1.000        1.000        0.000        0.000        0.000        0.000        0.000        0.000        0.000        0.000        0.000        0.000        2.000        0.000        0.000        1.000        6.000        0.000        0.000        0.000        4.494        0.000       95.506        0.000        0.000        2.048        2.062        2.370
     370.000  -238651.291    24581.640    14732.218    37960.412       88.892  -358703.439    42688.987       25.866       25.687        3.166        2.995        3.085        3.169        3.301        3.014        3.240        2.939        3.164        3.149        2.977        3.214        2.550        2.504        2.427        2.590        0.500        0.000        0.000        1.000        1.000        1.000        2.000        0.000        0.000        0.000        0.000        0.000        0.000        0.000        0.000        0.000        2.000        0.000        0.000        0.000        0.000        0.000        0.000        0.000        0.000        1.000        3.000        0.000        2.000        2.000        3.000        2.000        0.000        0.000        0.000        0.000      100.000        0.000        0.000        1.682        1.727        2.162
     380.000  -238444.662    24002.364    14455.876    37955.744      116.789  -359307.259    44331.823       26.297       26.199        3.033        2.927        3.004        3.227        3.231        3.040        3.227        2.901        3.224        3.237        3.095        3.235        2.496        2.557        2.409        2.599        0.492        0.000        0.000        1.000        0.000        1.000        2.000        0.000        0.000        0.000        0.000        0.000        0.000        0.000        1.000        1.000        4.000        0.000        0.000        0.000        0.000        0.000        0.000        0.000        0.000        0.000        2.000        1.000        2.000        0.000        4.000        0.000        3.000        0.000        0.000        0.000      100.000        0.000        0.000        1.756        1.760        2.044
     390.000  -237876.866    24069.930    14495.265    37889.911      118.130  -357100.119    42650.016       26.189       25.828        3.071        2.962        3.058        3.182        3.220        3.026        3.253        2.956        3.163        3.267        3.023        3.230        2.546        2.596        2.408        2.621        0.481        0.000        1.000        1.000        0.000        1.000        2.000        0.000        0.000        0.000        0.000        0.000        1.000        0.000        0.000        0.000        1.000        0.000        0.000        0.000        0.000        0.000        0.000        0.000        0.000        0.000        2.000        1.000        1.000        1.000        3.000        0.000        1.000        0.000        0.000        0.000      100.000        0.000        0.000        1.956        1.986        2.294
     400.000  -237751.888    23254.245    14271.172    38080.988      129.568  -358079.469    44591.609       26.129       25.833        3.026        3.025        3.000        3.242        3.291        3.070        3.198        3.086        3.138        3.280        3.033        3.228        2.559        2.515        2.461        2.546        0.475        0.000        0.000        0.000        0.000        1.000        2.000        0.000        0.000        0.000        0.000        0.000        0.000        0.000        0.000        0.000        2.000        0.000        0.000        0.000        0.000        0.000        0.000        0.000        0.000        0.000        1.000        1.000        0.000        0.000        1.000        0.000        2.000        0.000        0.000        0.000      100.000        0.000        0.000        2.165        2.188        2.440
     410.000  -238135.218    24331.211    14569.078    38014.212      108.337  -358308.102    43150.046       26.372       26.128        3.034        2.967        3.009        3.169        3.268        3.021        3.294        3.021        3.152        3.188        3.036        3.228        2.474        2.514        2.427        2.569        0.483        0.000        1.000        1.000        1.000        1.000        2.000        0.000        0.000        0.000        0.000        1.000        0.000        0.000        0.000        0.000        0.000        0.000        0.000        0.000        0.000        0.000        0.000        0.000        0.000        1.000        0.000        1.000        0.000        2.000        8.000        0.000        1.000        0.000        0.000        0.000      100.000        0.000        0.000        2.471        2.484        2.802
     420.000  -237565.534    23799.191    14365.149    37882.173      117.685  -358841.500    45111.768       26.689       26.204        2.999        2.925        3.128        3.129        3.244        3.012        3.261        2.979        3.191        3.212        2.994        3.206        2.596        2.569        2.426        2.583        0.485        0.000        1.000        1.000        1.000        1.000        2.000        0.000        0.000        0.000        0.000        0.000        0.000        0.000        0.000        0.000        0.000        0.000        0.000        0.000        0.000        0.000        0.000        0.000        0.000        0.000        1.000        0.000        0.000        1.000        7.000        1.000        2.000        0.000        0.000        0.000      100.000        0.000        0.000        2.242        2.225        2.566
     430.000  -237701.199    23702.184    14434.263    38086.304      122.615  -358723.144    44676.578       26.172       25.894        2.959        2.917        3.136        3.191        3.260        2.964        3.255        2.982        3.178        3.213        3.042        3.183        2.522        2.525        2.428        2.552        0.491        0.000        1.000        1.000        1.000        2.000        1.000        0.000        0.000        0.000        0.000        0.000        1.000        1.000        1.000        0.000        1.000        0.000        0.000        0.000        0.000        0.000        0.000        0.000        0.000        0.000        1.000        1.000        1.000        1.000        3.000        1.000        3.000        0.000        0.000        0.000      100.000        0.000        0.000        1.923        1.918        2.418
     440.000  -238103.121    23402.383    14569.620    38058.720      112.708  -358616.630    44370.078       25.870       25.632        2.991        2.955        3.096        3.205        3.227        3.048        3.245        2.972        3.296        3.226        3.058        3.183        2.533        2.531        2.414        2.595        0.489        0.000        1.000        1.000        1.000        1.000        2.000        0.000        0.000        0.000        0.000        0.000        0.000        1.000        1.000        0.000        1.000        0.000        0.000        0.000        0.000        0.000        0.000        0.000        0.000        0.000        0.000        0.000        0.000        1.000        5.000        1.000        2.000        0.000        0.000        0.000      100.000        0.000        0.000        1.590        1.603        2.145
     450.000  -238461.976    24896.686    14614.821    37906.135      101.147  -359741.032    43760.267       26.040       25.717        3.129        2.969        2.986        3.191        3.298        3.024        3.278        2.961        3.241        3.208        3.044        3.226        2.556        2.523        2.417        2.611        0.512        0.000        1.000        1.000        0.000        1.000        2.000        0.000        0.000        0.000        0.000        0.000        0.000        1.000        0.000        0.000        0.000        0.000        0.000        0.000        0.000        0.000        0.000        0.000        0.000        0.000        0.000        2.000        0.000        2.000        2.000        1.000        2.000        0.000        0.000        0.000      100.000        0.000        0.000        1.718        1.719        2.277
     460.000  -237763.446    22918.680    14677.462    38176.244      106.372  -358706.949    45064.744       25.894       25.628        3.204        2.963        3.048        3.154        3.231        2.930        3.282        2.939        3.209        3.193        3.058        3.223        2.534        2.563        2.398        2.619        0.482        0.000        1.000        1.000        0.000        1.000        1.000        0.000        0.000        0.000        1.000        0.000        1.000        1.000        0.000        0.000        2.000        0.000        0.000        0.000        0.000        0.000        0.000        0.000        0.000        1.000        0.000        1.000        1.000        2.000        1.000        0.000        4.000        0.000        0.000        0.000      100.000        0.000        0.000        1.722        1.749        2.187
     470.000  -238217.188    24825.280    14705.066    37920.412      117.506  -358472.218    42686.765       26.220       25.992        3.155        3.022        3.090        3.226        3.192        2.955        3.279        2.898        3.233        3.255        3.053        3.224        2.568        2.526        2.434        2.586        0.442        1.000        1.000        1.000        1.000        1.000        2.000        0.000        0.000        0.000        0.000        0.000        0.000        1.000        0.000        0.000        2.000        0.000        0.000        0.000        0.000        0.000        0.000        0.000        0.000        0.000        1.000        1.000        0.000        0.000        3.000        0.000        2.000        0.000        0.000        0.000      100.000        0.000        0.000        2.169        2.178        2.560
     480.000  -238136.048    24379.124    14270.951    37909.209      115.356  -358168.941    43358.251       26.166       25.886        3.123        3.007        3.004        3.207        3.236        3.093        3.208        3.122        3.206        3.244        3.031        3.201        2.545        2.519        2.445        2.616        0.469        1.000        1.000        1.000        1.000        1.000        2.000        0.000        0.000        0.000        0.000        0.000        0.000        1.000        0.000        0.000        2.000        0.000        0.000        0.000        0.000        0.000        0.000        0.000        0.000        1.000        0.000        2.000        0.000        0.000        4.000        0.000        1.000        0.000        0.000        0.000      100.000        0.000        0.000        2.196        2.203        2.672
     490.000  -238250.416    25172.488    14595.579    37760.347      118.803  -358467.515    42569.881       25.965       25.968        3.171        3.026        3.049        3.217        3.240        3.001        3.264        3.068        3.230        3.319        3.021        3.243        2.513        2.503        2.372        2.567        0.508        1.000        1.000        1.000        0.000        1.000        2.000        0.000        0.000        0.000        0.000        0.000        0.000        0.000        0.000        0.000        2.000        0.000        0.000        0.000        0.000        0.000        0.000        0.000        0.000        1.000        0.000        1.000        0.000        1.000        3.000        1.000        0.000        0.000        0.000        0.000      100.000        0.000        0.000        2.302        2.318        2.726
     500.000  -237893.612    24019.006    14184.727    37844.902      142.987  -357618.941    43533.708       26.433       25.879        3.182        3.052        3.006        3.150        3.218        2.992        3.260        2.984        3.224        3.220        3.072        3.170        2.542        2.495        2.386        2.605        0.498        1.000        1.000        1.000        0.000        1.000        2.000        0.000        0.000        0.000        0.000        0.000        0.000        1.000        0.000        0.000        1.000        0.000        0.000        0.000        0.000        0.000        0.000        0.000        0.000        1.000        1.000        3.000        0.000        1.000        4.000        0.000        4.000        0.000        0.000        0.000      100.000        0.000        0.000        2.438        2.434        2.784
     510.000  -238039.690    23618.730    14621.715    38020.392      140.560  -358271.266    43830.179       26.134       26.122        3.222        3.017        3.064        3.219        3.204        3.016        3.220        3.017        3.194        3.240        3.053        3.243        2.492        2.531        2.434        2.610        0.473        1.000        1.000        1.000        0.000        1.000        2.000        0.000        0.000        1.000        0.000        0.000        0.000        1.000        1.000        0.000        0.000        0.000        0.000        0.000        0.000        0.000        0.000        0.000        0.000        1.000        2.000        1.000        0.000        2.000        4.000        1.000        1.000        0.000        0.000        0.000      100.000        0.000        0.000        1.923        1.912        2.422
     520.000  -238016.020    23613.084    14881.563    37833.581      133.578  -357538.835    43061.009       25.919       26.021        3.153        3.027        3.078        3.196        3.310        3.009        3.242        2.966        3.193        3.250        3.037        3.210        2.508        2.557        2.395        2.603        0.489        1.000        0.000        1.000        0.000        1.000        2.000        0.000        0.000        1.000        0.000        1.000        0.000        1.000        1.000        0.000        0.000        0.000        0.000        0.000        0.000        0.000        0.000        0.000        0.000        0.000        2.000        1.000        1.000        1.000        4.000        0.000        0.000        0.000        0.000        0.000      100.000        0.000        0.000        1.993        1.950        2.586
     530.000  -238488.790    24694.011    14643.238    37692.293      109.503  -358668.478    43040.643       26.088       26.186        3.164        3.067        3.033        3.276        3.226        3.045        3.176        3.044        3.243        3.276        3.011        3.173        2.591        2.599        2.425        2.601        0.481        1.000        1.000        1.000        0.000        1.000        2.000        0.000        0.000        0.000        0.000        0.000        0.000        0.000        0.000        0.000        0.000        0.000        0.000        0.000        0.000        0.000        0.000        0.000        0.000        0.000        1.000        2.000        1.000        2.000        2.000        1.000        3.000        0.000        0.000        0.000      100.000        0.000        0.000        2.090        2.064        2.614
     540.000  -238222.761    23982.815    14720.456    37921.749      128.766  -358695.419    43718.871       26.109       25.758        3.147        3.068        3.102        3.208        3.233        3.007        3.296        2.992        3.224        3.257        3.028        3.181        2.557        2.571        2.475        2.633        0.505        1.000        1.000        1.000        0.000        1.000        2.000        0.000        0.000        0.000        0.000        0.000        1.000        0.000        0.000        0.000        2.000        0.000        0.000        0.000        0.000        0.000        0.000        0.000        0.000        1.000        2.000        0.000        0.000        1.000        2.000        1.000        3.000        0.000        0.000        0.000      100.000        0.000        0.000        1.803        1.787        2.281
     550.000  -238895.686    24360.971    14548.058    37704.920      135.956  -358837.998    43192.407       26.454       26.242        3.155        3.082        3.012        3.213        3.248        3.035        3.272        2.950        3.193        3.222        3.080        3.251        2.539        2.538        2.399        2.550        0.468        1.000        1.000        1.000        0.000        1.000        2.000        0.000        0.000        0.000        0.000        0.000        0.000        1.000        1.000        0.000        1.000        0.000        0.000        0.000        0.000        0.000        0.000        0.000        0.000        1.000        1.000        1.000        0.000        1.000        6.000        0.000        6.000        0.000        4.494        0.000       95.506        0.000        0.000        2.127        2.140        2.424
     560.000  -238193.309    24451.363    14368.894    37982.863      106.395  -358637.582    43534.758       25.977       25.570        3.197        2.984        3.014        3.241        3.250        3.086        3.234        2.947        3.270        3.217        2.981        3.258        2.538        2.515        2.396        2.593        0.468        0.000        1.000        1.000        0.000        1.000        2.000        0.000        0.000        0.000        0.000        0.000        0.000        0.000        0.000        1.000        0.000        0.000        0.000        0.000        0.000        0.000        0.000        0.000        0.000        1.000        2.000        0.000        1.000        0.000        3.000        0.000        2.000        0.000        0.000        0.000      100.000        0.000        0.000        2.091        2.118        2.425
     570.000  -237798.176    24004.570    14629.378    38118.887      126.311  -357890.250    43212.927       26.205       25.917        3.133        3.064        3.014        3.227        3.186        2.932        3.250        2.922        3.227        3.301        3.085        3.194        2.549        2.536        2.454        2.601        0.501        0.000        1.000        1.000        0.000        1.000        2.000        0.000        0.000        0.000        0.000        1.000        0.000        0.000        0.000        0.000        0.000        0.000        0.000        0.000        0.000        0.000        0.000        0.000        0.000        0.000        1.000        1.000        2.000        0.000        4.000        1.000        6.000        0.000        0.000        0.000      100.000        0.000        0.000        2.069        2.098        2.503
     580.000  -238542.953    23789.757    14402.438    38004.767      101.230  -359512.724    44671.579       26.303       26.078        3.165        3.006        3.022        3.188        3.231        3.038        3.273        2.968        3.205        3.172        3.094        3.217        2.511        2.546        2.450        2.616        0.474        1.000        1.000        1.000        0.000        1.000        2.000        0.000        0.000        1.000        0.000        0.000        0.000        0.000        0.000        0.000        1.000        0.000        0.000        0.000        0.000        0.000        0.000        0.000        0.000        0.000        1.000        0.000        1.000        0.000        2.000        0.000        1.000        0.000        0.000        0.000      100.000        0.000        0.000        1.982        1.993        2.449
     590.000  -237415.247    23692.001    14836.540    38044.268      110.851  -357385.410    43286.503       26.305       26.130        3.193        2.949        3.115        3.172        3.186        2.925        3.271        3.017        3.189        3.241        3.056        3.302        2.575        2.480        2.449        2.632        0.481        1.000        1.000        1.000        0.000        1.000        2.000        0.000        0.000        0.000        0.000        0.000        0.000        0.000        1.000        0.000        1.000        0.000        0.000        0.000        0.000        0.000        0.000        0.000        0.000        1.000        0.000        0.000        0.000        0.000        4.000        1.000        0.000        0.000        0.000        0.000      100.000        0.000        0.000        2.197        2.157        2.598
     600.000  -238138.550    24104.381    14551.582    37992.386      100.935  -356713.938    41826.104       26.369       26.204        3.189        2.999        3.035        3.148        3.251        2.968        3.248        3.005        3.227        3.201        3.026        3.233        2.523        2.541        2.396        2.586        0.499        0.000        1.000        1.000        0.000        2.000        1.000        0.000        0.000        0.000        0.000        0.000        0.000        0.000        0.000        0.000        1.000        0.000        0.000        0.000        0.000        0.000        0.000        0.000        0.000        0.000        1.000        0.000        0.000        0.000        2.000        0.000        1.000        0.000        0.000        0.000      100.000        0.000        0.000        2.360        2.323        2.754
     610.000  -237746.890    24651.133    14361.585    37955.564      124.391  -356687.467    41847.905       26.232       25.735        3.181        3.049        3.065        3.154        3.258        2.963        3.261        3.016        3.230        3.201        3.057        3.208        2.529        2.559        2.444        2.579        0.485        0.000        1.000        1.000        0.000        1.000        2.000        0.000        0.000        0.000        0.000        0.000        0.000        1.000        0.000        0.000        1.000        0.000        0.000        0.000        0.000        0.000        0.000        0.000        0.000        0.000        2.000        1.000        0.000        0.000        7.000        0.000        1.000        0.000        0.000        0.000      100.000        0.000        0.000        2.616        2.597        2.997
     620.000  -237692.040    23297.345    14283.007    38009.121      111.845  -357731.325    44337.967       26.050       25.978        3.215        2.992        3.063        3.213        3.244        2.999        3.224        2.964        3.232        3.169        3.077        3.245        2.574        2.643        2.463        2.624        0.493        0.000        1.000        1.000        0.000        1.000        2.000        0.000        0.000        0.000        0.000        0.000        1.000        0.000        0.000        0.000        3.000        0.000        0.000        0.000        0.000        0.000        0.000        0.000        0.000        0.000        1.000        0.000        1.000        0.000        0.000        1.000        0.000        0.000        0.000        0.000      100.000        0.000        0.000        2.586        2.578        2.892
     630.000  -238511.997    24835.997    14412.510    37892.660      113.848  -359073.963    43306.951       26.180       26.166        3.174        3.065        3.024        3.265        3.221        2.925        3.285        2.917        3.165        3.145        3.052        3.269        2.517        2.612        2.392        2.602        0.487        0.000        1.000        1.000        1.000        1.000        2.000        0.000        0.000        0.000        0.000        0.000        0.000        1.000        0.000        0.000        0.000        0.000        0.000        0.000        0.000        0.000        0.000        0.000        0.000        1.000        3.000        1.000        0.000        1.000        7.000        0.000        0.000        0.000        0.000        0.000      100.000        0.000        0.000        2.562        2.566        2.806
     640.000  -237547.843    24200.622    14204.669    38190.309      135.402  -357137.545    42858.701       25.920       25.827        3.216        2.987        3.018        3.185        3.241        2.957        3.311        2.944        3.197        3.281        3.080        3.188        2.596        2.577        2.442        2.610        0.487        0.000        1.000        1.000        0.000        2.000        1.000        0.000        0.000        0.000        0.000        1.000        0.000        0.000        0.000        0.000        2.000        0.000        0.000        0.000        0.000        0.000        0.000        0.000        0.000        0.000        1.000        0.000        1.000        0.000        8.000        0.000        2.000        0.000        0.000        0.000      100.000        0.000        0.000        2.648        2.644        2.906
     650.000  -237960.585    24600.797    14292.563    38000.050      145.847  -357386.466    42386.625       26.090       26.046        3.190        2.957        3.043        3.237        3.260        2.984        3.226        2.965        3.217        3.215        3.051        3.257        2.542        2.528        2.380        2.637        0.489        0.000        1.000        1.000        0.000        2.000        1.000        0.000        0.000        0.000        0.000        0.000        1.000        0.000        0.000        0.000        3.000        0.000        0.000        0.000        0.000        0.000        0.000        0.000        0.000        0.000        2.000        1.000        0.000        1.000        6.000        1.000        3.000        0.000        0.000        0.000      100.000        0.000        0.000        2.656        2.682        2.846
     660.000  -237750.844    23500.652    14906.265    38135.993      132.554  -358373.679    43947.371       26.210       26.260        3.231        3.025        3.064        3.211        3.257        3.034        3.214        2.929        3.261        3.262        3.087        3.229        2.568        2.538        2.410        2.602        0.485        0.000        1.000        1.000        0.000        2.000        1.000        0.000        0.000        0.000        0.000        0.000        0.000        0.000        0.000        0.000        2.000        0.000        0.000        0.000        0.000        0.000        0.000        0.000        0.000        0.000        1.000        0.000        0.000        2.000        1.000        0.000        1.000        0.000        0.000        0.000      100.000        0.000        0.000        2.538        2.562        2.709
     670.000  -237674.087    23442.545    14539.726    38134.109      102.924  -358157.117    44263.726       26.097       26.008        3.175        3.078        3.005        3.183        3.292        2.885        3.252        2.975        3.194        3.304        3.034        3.261        2.551        2.525        2.437        2.616        0.502        0.000        1.000        1.000        0.000        2.000        2.000        0.000        0.000        0.000        0.000        0.000        0.000        0.000        0.000        0.000        1.000        0.000        0.000        0.000        0.000        0.000        0.000        0.000        0.000        0.000        2.000        0.000        0.000        0.000        2.000        0.000        2.000        0.000        0.000        0.000      100.000        0.000        0.000        2.146        2.160        2.415
     680.000  -238183.773    24265.957    14501.324    37957.935      135.324  -358117.512    43073.199       25.910       25.907        3.187        2.937        3.033        3.168        3.263        3.012        3.285        3.024        3.213        3.270        3.070        3.205        2.551        2.550        2.453        2.611        0.484        0.000        1.000        1.000        0.000        1.000        2.000        0.000        0.000        0.000        0.000        0.000        0.000        0.000        0.000        0.000        3.000        0.000        0.000        0.000        0.000        0.000        0.000        0.000        0.000        0.000        0.000        0.000        0.000        0.000       10.000        0.000        3.000        0.000        0.000        0.000      100.000        0.000        0.000        2.180        2.170        2.601
     690.000  -237857.887    23345.137    14345.009    37968.725      119.923  -358288.063    44651.381       26.516       26.241        3.176        2.949        3.043        3.179        3.298        3.032        3.223        3.003        3.240        3.248        3.039        3.196        2.518        2.539        2.429        2.598        0.495        1.000        1.000        1.000        0.000        1.000        1.000        0.000        0.000        0.000        0.000        0.000        0.000        0.000        0.000        0.000        0.000        0.000        0.000        0.000        0.000        0.000        0.000        0.000        0.000        0.000        1.000        0.000        0.000        0.000        7.000        0.000        3.000        0.000        0.000        0.000      100.000        0.000        0.000        2.342        2.284        2.874
     700.000  -237078.631    24560.963    14631.863    38249.670      126.751  -357818.897    43171.018       26.175       26.212        3.164        2.971        3.017        3.172        3.253        2.967        3.284        2.992        3.329        3.281        3.059        3.243        2.518        2.572        2.430        2.607        0.479        1.000        1.000        1.000        0.000        2.000        2.000        0.000        0.000        0.000        0.000        0.000        0.000        0.000        0.000        0.000        2.000        0.000        0.000        0.000        0.000        0.000        0.000        0.000        0.000        0.000        3.000        0.000        0.000        0.000        1.000        0.000        2.000        0.000        0.000        0.000      100.000        0.000        0.000        2.411        2.359        2.926
     710.000  -236772.363    23360.595    14548.145    37948.973      115.468  -356883.792    44138.248       26.428       26.439        3.166        2.900        3.025        3.227        3.204        2.971        3.261        3.094        3.262        3.213        3.017        3.202        2.534        2.545        2.395        2.549        0.498        0.000        1.000        1.000        0.000        1.000        2.000        0.000        0.000        0.000        0.000        1.000        0.000        0.000        0.000        0.000        1.000        0.000        0.000        0.000        0.000        0.000        0.000        0.000        0.000        0.000        1.000        1.000        1.000        0.000        3.000        0.000        2.000        0.000        0.000        0.000      100.000        0.000        0.000        2.575        2.506        3.234
     720.000  -238033.735    24464.069    14479.189    37911.721      105.625  -358466.199    43471.860       26.220       26.328        3.208        3.087        3.069        3.279        3.202        3.009        3.250        3.070        3.212        3.190        3.053        3.250        2.514        2.509        2.400        2.600        0.515        0.000        1.000        1.000        0.000        1.000        2.000        0.000        1.000        0.000        1.000        0.000        0.000        0.000        0.000        0.000        5.000        0.000        0.000        0.000        0.000        0.000        0.000        0.000        0.000        0.000        4.000        0.000        1.000        1.000        5.000        1.000        1.000        0.000        4.494        0.000       95.506        0.000        0.000        2.260        2.225        2.888
     730.000  -238068.264    23702.633    14255.969    38315.363      121.098  -358754.265    44290.938       26.034       26.148        3.165        3.001        3.051        3.289        3.253        3.102        3.230        3.044        3.224        3.307        3.047        3.238        2.503        2.475        2.383        2.554        0.470        0.000        1.000        1.000        0.000        1.000        2.000        0.000        1.000        0.000        0.000        0.000        0.000        0.000        1.000        0.000        2.000        0.000        0.000        0.000        0.000        0.000        0.000        0.000        0.000        0.000        3.000        0.000        0.000        0.000        3.000        1.000        0.000        0.000        0.000        0.000      100.000        0.000        0.000        2.234        2.177        3.053
     740.000  -238024.055    24681.952    14325.035    37932.117      129.015  -358757.862    43665.689       26.168       26.081        3.172        2.993        3.100        3.269        3.229        3.093        3.230        3.039        3.253        3.280        3.075        3.246        2.485        2.563        2.456        2.606        0.482        1.000        1.000        1.000        0.000        1.000        2.000        0.000        1.000        0.000        0.000        0.000        0.000        0.000        0.000        0.000        3.000        0.000        0.000        0.000        0.000        0.000        0.000        0.000        0.000        0.000        1.000        0.000        0.000        0.000        3.000        1.000        1.000        0.000        0.000        0.000      100.000        0.000        0.000        2.141        2.112        2.792
     750.000  -237695.159    24851.389    14450.196    38111.210      107.345  -357802.758    42587.458       26.124       25.964        3.177        2.975        3.025        3.253        3.212        3.013        3.275        3.054        3.264        3.281        3.003        3.203        2.577        2.522        2.425        2.650        0.467        0.000        1.000        1.000        0.000        1.000        2.000        0.000        1.000        0.000        0.000        0.000        0.000        0.000        0.000        0.000        4.000        0.000        0.000        0.000        0.000        0.000        0.000        0.000        0.000        0.000        1.000        2.000        1.000        1.000        3.000        0.000        1.000        0.000        0.000        0.000      100.000        0.000        0.000        2.130        2.083        2.847
     760.000  -237229.843    24884.231    14546.180    38115.245      116.727  -357842.370    42950.144       26.248       26.147        3.147        2.944        3.067        3.273        3.254        3.053        3.230        3.070        3.253        3.293        2.979        3.236        2.543        2.535        2.474        2.620        0.509        1.000        1.000        1.000        0.000        1.000        2.000        0.000        1.000        0.000        0.000        0.000        0.000        0.000        0.000        0.000        1.000        0.000        0.000        0.000        0.000        0.000        0.000        0.000        0.000        1.000        2.000        0.000        0.000        0.000        5.000        2.000        0.000        0.000        0.000        0.000      100.000        0.000        0.000        2.101        2.052        2.912
     770.000  -238010.739    23970.607    14618.688    38085.000       96.240  -357767.326    42986.051       26.204       26.273        3.117        3.017        3.014        3.246        3.285        3.097        3.246        3.081        3.258        3.253        2.996        3.212        2.482        2.554        2.439        2.616        0.483        1.000        1.000        1.000        0.000        1.000        2.000        0.000        1.000        0.000        0.000        0.000        0.000        0.000        0.000        0.000        0.000        0.000        0.000        0.000        0.000        0.000        0.000        0.000        0.000        2.000        0.000        1.000        2.000        1.000        3.000        0.000        1.000        0.000        0.000        0.000      100.000        0.000        0.000        2.302        2.229        3.241
     780.000  -237270.751    23821.621    14396.840    38031.502      107.157  -357384.356    43756.485       26.040       26.113        3.119        3.092        3.089        3.306        3.267        3.013        3.216        3.067        3.178        3.199        3.026        3.205        2.475        2.563        2.439        2.614        0.470        1.000        1.000        1.000        0.000        1.000        2.000        0.000        0.000        0.000        0.000        0.000        0.000        0.000        0.000        0.000        0.000        0.000        0.000        0.000        0.000        0.000        0.000        0.000        0.000        0.000        1.000        1.000        0.000        2.000        3.000        1.000        2.000        0.000        0.000        0.000      100.000        0.000        0.000        2.308        2.227        3.314
     790.000  -237715.797    23832.984    14560.410    37873.053       99.046  -357110.104    43028.814       26.157       26.591        3.197        2.896        3.057        3.216        3.342        2.985        3.244        3.007        3.247        3.218        3.027        3.223        2.530        2.587        2.404        2.653        0.475        1.000        1.000        1.000        0.000        1.000        2.000        0.000        0.000        0.000        0.000        0.000        0.000        0.000        0.000        1.000        2.000        0.000        0.000        0.000        0.000        0.000        0.000        0.000        0.000        0.000        0.000        3.000        0.000        0.000        5.000        1.000        3.000        0.000        0.000        0.000      100.000        0.000        0.000        2.578        2.513        3.481
     800.000  -237664.980    24584.857    14608.817    37966.844      106.767  -356562.267    41630.002       26.292       26.577        3.158        2.995        3.069        3.228        3.226        3.028        3.214        3.093        3.265        3.181        3.056        3.172        2.498        2.561        2.430        2.600        0.491        1.000        1.000        1.000        0.000        1.000        2.000        0.000        1.000        0.000        0.000        0.000        0.000        0.000        0.000        0.000        0.000        0.000        0.000        0.000        0.000        0.000        0.000        0.000        0.000        2.000        1.000        0.000        0.000        2.000        5.000        0.000        1.000        0.000        0.000        0.000      100.000        0.000        0.000        2.505        2.441        3.292
     810.000  -237323.742    23916.794    14286.994    38110.095      127.964  -356872.774    43107.185       26.067       26.407        3.162        2.958        3.067        3.246        3.254        3.001        3.272        3.060        3.264        3.149        3.035        3.228        2.498        2.547        2.438        2.657        0.498        1.000        1.000        1.000        0.000        1.000        2.000        0.000        0.000        0.000        0.000        0.000        0.000        0.000        0.000        0.000        2.000        0.000        0.000        0.000        0.000        0.000        0.000        0.000        0.000        0.000        2.000        2.000        0.000        0.000        3.000        0.000        2.000        0.000        0.000        0.000      100.000        0.000        0.000        2.326        2.265        3.037
     820.000  -238360.509    22882.586    14482.763    38152.407      110.408  -358620.426    44631.753       26.006       26.455        3.174        3.089        3.056        3.120        3.267        2.970        3.233        3.021        3.255        3.176        3.047        3.222        2.547        2.559        2.375        2.653        0.464        0.000        1.000        1.000        0.000        1.000        2.000        0.000        0.000        0.000        0.000        0.000        0.000        0.000        0.000        0.000        1.000        0.000        0.000        0.000        0.000        0.000        0.000        0.000        0.000        0.000        2.000        1.000        1.000        0.000        4.000        0.000        1.000        0.000        0.000        0.000      100.000        0.000        0.000        2.416        2.363        3.155
     830.000  -237556.594    23134.428    14576.003    38207.407      127.307  -357617.243    44015.503       26.149       26.445        3.199        2.951        3.066        3.195        3.279        3.009        3.233        3.049        3.224        3.194        3.037        3.213        2.533        2.593        2.473        2.612        0.476        0.000        1.000        1.000        0.000        1.000        2.000        0.000        0.000        0.000        0.000        0.000        0.000        0.000        0.000        0.000        2.000        0.000        0.000        0.000        0.000        0.000        0.000        0.000        0.000        0.000        1.000        1.000        0.000        0.000        5.000        0.000        2.000        0.000        0.000        0.000      100.000        0.000        0.000        2.213        2.182        2.689
     840.000  -237722.312    23281.717    14484.861    38107.030      125.429  -358766.846    45045.498       25.636       25.754        3.141        3.020        3.062        3.163        3.197        3.006        3.231        3.037        3.203        3.209        3.024        3.205        2.517        2.501        2.430        2.565        0.479        0.000        1.000        1.000        0.000        1.000        2.000        0.000        0.000        0.000        0.000        0.000        1.000        0.000        0.000        0.000        2.000        0.000        0.000        0.000        0.000        0.000        0.000        0.000        0.000        1.000        2.000        0.000        3.000        0.000        5.000        0.000        1.000        0.000        0.000        0.000      100.000        0.000        0.000        2.039        2.052        2.562
     850.000  -238246.619    22809.216    14356.496    38116.582      125.323  -357466.984    43812.748       25.570       25.964        3.186        2.982        3.035        3.274        3.271        3.012        3.249        2.997        3.247        3.192        3.058        3.229        2.531        2.558        2.451        2.584        0.480        0.000        0.000        1.000        0.000        1.000        2.000        0.000        1.000        0.000        0.000        0.000        0.000        0.000        1.000        0.000        0.000        0.000        0.000        0.000        0.000        0.000        0.000        0.000        0.000        0.000        3.000        0.000        1.000        1.000        5.000        0.000        2.000        0.000        0.000        0.000      100.000        0.000        0.000        2.381        2.402        2.812
     860.000  -237429.475    24065.936    14445.853    38097.397       99.095  -357493.185    43355.429       26.170       26.230        3.200        2.989        3.083        3.211        3.254        2.964        3.195        2.978        3.214        3.184        3.040        3.228        2.524        2.580        2.449        2.583        0.497        0.000        1.000        1.000        0.000        1.000        2.000        0.000        0.000        0.000        0.000        1.000        0.000        1.000        0.000        0.000        1.000        0.000        0.000        0.000        0.000        0.000        0.000        0.000        0.000        0.000        1.000        0.000        1.000        0.000        4.000        1.000        2.000        0.000        0.000        0.000      100.000        0.000        0.000        2.544        2.520        3.286
     870.000  -236808.826    23328.149    14719.400    37946.968      118.215  -357056.573    44135.015       26.088       26.072        3.151        2.932        3.073        3.200        3.268        3.009        3.179        3.057        3.222        3.191        3.008        3.240        2.530        2.612        2.462        2.598        0.488        0.000        1.000        1.000        0.000        1.000        2.000        0.000        0.000        0.000        0.000        0.000        0.000        0.000        0.000        1.000        0.000        0.000        0.000        0.000        0.000        0.000        0.000        0.000        0.000        1.000        1.000        0.000        0.000        0.000        1.000        0.000        3.000        0.000        0.000        0.000      100.000        0.000        0.000        2.508        2.467        3.495
     880.000  -237580.932    22881.363    14412.514    37863.267      106.744  -357152.404    44307.584       25.862       25.825        3.217        3.088        3.040        3.239        3.282        2.988        3.168        3.074        3.291        3.307        3.022        3.217        2.517        2.606        2.472        2.586        0.472        0.000        1.000        1.000        0.000        1.000        2.000        0.000        0.000        0.000        0.000        0.000        0.000        0.000        0.000        0.000        1.000        0.000        0.000        0.000        0.000        0.000        0.000        0.000        0.000        2.000        2.000        1.000        0.000        1.000        2.000        0.000        3.000        0.000        0.000        0.000      100.000        0.000        0.000        2.443        2.396        3.441
     890.000  -238247.735    24067.504    14422.173    37932.156      131.185  -357640.983    42840.229       25.760       25.453        3.172        3.017        3.061        3.266        3.233        3.060        3.211        2.990        3.259        3.193        3.094        3.257        2.462        2.555        2.461        2.608        0.460        0.000        1.000        1.000        0.000        2.000        1.000        0.000        0.000        0.000        0.000        0.000        0.000        1.000        0.000        0.000        1.000        0.000        0.000        0.000        0.000        0.000        0.000        0.000        0.000        1.000        0.000        0.000        0.000        0.000        4.000        0.000        0.000        0.000        0.000        0.000      100.000        0.000        0.000        2.577        2.531        3.669
     900.000  -237890.886    24250.664    14395.853    37918.652      125.192  -357898.410    43317.163       26.028       25.793        3.037        3.043        3.100        3.200        3.205        3.022        3.203        2.990        3.249        3.235        3.055        3.189        2.494        2.533        2.410        2.664        0.476        0.000        1.000        1.000        0.000        1.000        2.000        0.000        0.000        0.000        0.000        0.000        0.000        1.000        0.000        0.000        2.000        0.000        0.000        0.000        0.000        0.000        0.000        0.000        0.000        0.000        0.000        0.000        1.000        1.000        2.000        1.000        2.000        0.000        4.494        0.000       95.506        0.000        0.000        2.690        2.648        3.884
     910.000  -237709.711    23325.185    14414.087    37949.004       99.264  -357437.247    43939.997       26.009       26.356        2.951        2.949        3.037        3.192        3.197        2.889        3.208        3.074        3.233        3.186        3.074        3.213        2.439        2.591        2.502        2.588        0.475        0.000        1.000        1.000        0.000        1.000        2.000        0.000        0.000        0.000        0.000        0.000        0.000        1.000        0.000        0.000        2.000        0.000        0.000        0.000        0.000        0.000        0.000        0.000        0.000        0.000        1.000        0.000        2.000        0.000        5.000        2.000        4.000        0.000        0.000        0.000      100.000        0.000        0.000        2.336        2.285        3.503
     920.000  -237583.331    23595.156    14316.841    37996.231      131.598  -357081.244    43458.089       25.712       25.708        2.978        3.051        3.046        3.224        3.268        3.056        3.192        3.005        3.222        3.262        2.991        3.257        2.491        2.575        2.430        2.616        0.486        0.000        1.000        0.000        0.000        2.000        1.000        0.000        0.000        0.000        0.000        0.000        0.000        0.000        0.000        0.000        1.000        0.000        0.000        0.000        0.000        0.000        0.000        0.000        0.000        1.000        2.000        0.000        0.000        0.000        2.000        0.000        3.000        0.000        0.000        0.000      100.000        0.000        0.000        2.188        2.145        3.456
     930.000  -236722.066    23688.414    14726.350    38068.254      136.014  -356477.246    43136.148       26.069       25.697        3.010        2.969        3.030        3.303        3.240        3.052        3.249        2.931        3.191        3.183        3.002        3.193        2.467        2.590        2.444        2.580        0.492        0.000        1.000        1.000        0.000        1.000        2.000        0.000        0.000        0.000        0.000        0.000        0.000        0.000        1.000        0.000        0.000        0.000        0.000        0.000        0.000        0.000        0.000        0.000        0.000        2.000        1.000        2.000        0.000        0.000        3.000        1.000        0.000        0.000        4.494        0.000       95.506        0.000        0.000        2.443        2.410        3.540
     940.000  -237948.986    23234.737    14399.123    38114.647      176.134  -358407.634    44534.006       25.949       25.652        2.911        3.086        2.984        3.228        3.257        3.088        3.261        3.055        3.266        3.216        2.991        3.242        2.510        2.575        2.404        2.650        0.483        0.000        1.000        1.000        0.000        1.000        2.000        0.000        0.000        0.000        0.000        0.000        0.000        0.000        0.000        0.000        0.000        0.000        0.000        0.000        0.000        0.000        0.000        0.000        0.000        1.000        0.000        0.000        0.000        0.000        5.000        1.000        1.000        0.000        0.000        0.000      100.000        0.000        0.000        2.366        2.311        3.461
     950.000  -237977.661    24000.740    14746.217    37879.782      125.153  -358212.091    43482.539       26.050       25.846        2.948        3.059        3.011        3.228        3.196        3.091        3.265        3.052        3.260        3.201        3.025        3.253        2.499        2.550        2.403        2.582        0.484        0.000        0.000        1.000        0.000        1.000        2.000        0.000        0.000        0.000        0.000        0.000        0.000        1.000        0.000        1.000        4.000        0.000        0.000        0.000        0.000        0.000        0.000        0.000        0.000        0.000        0.000        0.000        0.000        0.000        2.000        1.000        1.000        0.000        0.000        0.000      100.000        0.000        0.000        2.065        2.011        3.086
     960.000  -237668.921    23939.212    14367.864    37816.224      124.385  -356929.427    43012.821       26.152       25.796        2.999        3.007        3.082        3.258        3.202        3.088        3.247        3.108        3.283        3.186        3.166        3.289        2.531        2.542        2.458        2.639        0.485        0.000        1.000        1.000        0.000        1.000        2.000        0.000        0.000        1.000        0.000        0.000        0.000        0.000        0.000        0.000        1.000        0.000        0.000        0.000        0.000        0.000        0.000        0.000        0.000        0.000        2.000        0.000        0.000        2.000        5.000        1.000        3.000        0.000        0.000        0.000      100.000        0.000        0.000        1.996        1.951        2.906
     970.000  -237517.716    23989.558    14243.587    37839.340      142.721  -357443.576    43710.655       26.138       26.073        2.942        2.972        3.105        3.207        3.209        3.110        3.283        3.054        3.247        3.255        3.107        3.234        2.467        2.595        2.412        2.587        0.478        0.000        0.000        1.000        0.000        1.000        2.000        0.000        0.000        0.000        0.000        0.000        0.000        0.000        0.000        0.000        0.000        0.000        0.000        0.000        0.000        0.000        0.000        0.000        0.000        0.000        0.000        0.000        0.000        0.000        1.000        0.000        1.000        0.000        0.000        0.000      100.000        0.000        0.000        2.015        1.995        2.790
     980.000  -237762.721    24057.716    14581.589    38022.106      106.723  -358123.176    43592.320       26.020       25.886        2.955        3.085        3.074        3.203        3.144        3.151        3.246        2.991        3.249        3.205        3.022        3.211        2.531        2.550        2.419        2.615        0.497        0.000        1.000        1.000        0.000        2.000        1.000        0.000        0.000        0.000        0.000        0.000        0.000        0.000        0.000        0.000        2.000        0.000        0.000        0.000        0.000        0.000        0.000        0.000        0.000        0.000        0.000        0.000        0.000        0.000        0.000        0.000        1.000        0.000        0.000        0.000      100.000        0.000        0.000        1.917        1.874        2.810
     990.000  -238609.119    23966.956    14406.062    37906.835      121.829  -358348.767    43337.966       26.257       26.220        3.038        3.011        3.060        3.215        3.170        3.102        3.194        2.943        3.301        3.290        3.078        3.192        2.506        2.541        2.421        2.592        0.500        0.000        0.000        1.000        0.000        2.000        1.000        0.000        0.000        0.000        0.000        0.000        0.000        0.000        0.000        0.000        1.000        0.000        0.000        0.000        0.000        0.000        0.000        0.000        0.000        0.000        0.000        0.000        0.000        0.000        1.000        0.000        2.000        0.000        0.000        0.000      100.000        0.000        0.000        2.005        1.967        2.770
    1000.000  -238109.336    23120.710    14397.981    37985.257      108.459  -358055.433    44333.691       25.991       25.633        3.053        2.955        3.019        3.237        3.232        2.988        3.267        3.050        3.216        3.261        3.029        3.245        2.534        2.553        2.421        2.551        0.507        0.000        0.000        1.000        0.000        1.000        2.000        0.000        0.000        0.000        0.000        0.000        0.000        1.000        1.000        0.000        0.000        0.000        0.000        0.000        0.000        0.000        0.000        0.000        0.000        0.000        1.000        0.000        0.000        0.000        0.000        0.000        2.000        0.000        0.000        0.000      100.000        0.000        0.000        1.784        1.765        2.779
     Average  -239488.395    24339.043    14492.779    37950.134      116.336  -360446.095    44059.408       26.098       25.982        3.087        3.001        3.060        3.212        3.239        3.025        3.247        3.005        3.223        3.217        3.046        3.225        2.522        2.549        2.431        2.596        0.485        0.475        0.901        0.980        0.376        1.337        1.861        0.000        0.079        0.040        0.020        0.069        0.228        0.277        0.188        0.168        1.337        0.000        0.000        0.000        0.000        0.000        0.000        0.000        0.000        0.455        1.287        0.634        0.406        0.723        3.743        0.386        1.802        0.000        0.356        0.000       99.644        0.000        0.000        2.060        2.047        2.562

