____Time[ps] Energy[ kJ/mol ]_____Bond _______Angle ____Dihedral ___Planarity _____Coulomb _________VdW _Your result _Your result _Your result _Your result _Your result _Your result _Your result _Your result _Your result _Your result _Your result _Your result _Your result _Your result _Your result _Your result _Your result _Your result _Your result _Your result _Your result _Your result _Your result _Your result _Your result _Your result _Your result _Your result _Your result _Your result _Your result _Your result _Your result _Your result _Your result _Your result _Your result _Your result _Your result _Your result _Your result _Your result _Your result _Your result _Your result _Your result _Your result _Your result _Your result _Your result _Your result _Your result _Your result _Your result _Your result _Your result _Your result _RMSDs[A]:CA ____Backbone __HeavyAtoms
       0.000  -348647.196     7197.093     5606.855    37975.863       16.623  -467994.067    68550.436       25.329       25.299        2.562        2.567        2.647        2.673        3.156        3.039        3.170        3.017        3.262        3.163        3.027        3.142        2.499        2.589        2.564        2.592        0.492        0.000        0.000        0.000        1.000        1.000        3.000        0.000        0.000        0.000        0.000        0.000        0.000        0.000        1.000        0.000        2.000        0.000        0.000        0.000        0.000        0.000        0.000        0.000        0.000        0.000        0.000        0.000        0.000        0.000        7.000        0.000        1.000        0.000        4.494        0.000       95.506        0.000        0.000        0.504        0.522        0.606
      10.000  -263991.425    31064.809    15387.109    37803.065      105.521  -398782.368    50430.438       26.066       25.894        2.623        2.622        2.708        2.685        3.164        3.026        3.175        3.051        3.208        3.179        3.067        3.180        2.517        2.581        2.565        2.605        0.482        0.000        0.000        0.000        0.000        0.000        2.000        0.000        0.000        0.000        0.000        0.000        0.000        0.000        1.000        0.000        3.000        0.000        0.000        0.000        0.000        0.000        0.000        0.000        0.000        1.000        1.000        0.000        2.000        1.000        4.000        0.000        0.000        0.000        4.494        0.000       95.506        0.000        0.000        1.472        1.469        1.564
      20.000  -262923.976    29359.212    15918.884    38020.191      103.158  -397252.884    50927.463       26.034       25.874        2.630        2.549        2.631        2.666        3.146        2.981        3.158        3.027        3.158        3.185        3.040        3.189        2.465        2.578        2.568        2.581        0.504        0.000        0.000        0.000        0.000        0.000        3.000        0.000        0.000        0.000        0.000        0.000        0.000        0.000        1.000        0.000        4.000        0.000        0.000        0.000        0.000        0.000        0.000        0.000        0.000        0.000        1.000        0.000        1.000        0.000        3.000        0.000        3.000        0.000        0.000        0.000      100.000        0.000        0.000        1.463        1.478        1.594
      30.000  -261732.477    28843.896    16091.046    38017.527      106.692  -395396.858    50605.220       26.009       25.929        2.623        2.498        2.693        2.633        3.190        3.086        3.163        3.007        3.171        3.254        3.035        3.172        2.521        2.543        2.565        2.607        0.517        0.000        0.000        0.000        0.000        0.000        2.000        0.000        0.000        0.000        0.000        0.000        0.000        0.000        1.000        0.000        2.000        0.000        0.000        0.000        0.000        0.000        0.000        0.000        0.000        0.000        0.000        0.000        1.000        1.000        8.000        0.000        0.000        0.000        4.494        0.000       95.506        0.000        0.000        1.447        1.444        1.749
      40.000  -261235.890    28647.670    16155.862    37943.058      109.347  -395039.829    50948.003       25.946       25.594        2.683        2.539        2.633        2.723        3.182        3.036        3.188        2.956        3.224        3.175        3.045        3.195        2.477        2.565        2.622        2.581        0.479        0.000        0.000        0.000        0.000        0.000        3.000        0.000        0.000        0.000        0.000        0.000        0.000        0.000        3.000        0.000        2.000        0.000        0.000        0.000        0.000        0.000        0.000        0.000        0.000        0.000        2.000        0.000        1.000        0.000        7.000        0.000        0.000        0.000        4.494        0.000       95.506        0.000        0.000        1.562        1.572        1.823
      50.000  -261603.184    28366.037    15934.687    37783.748      121.141  -394720.526    50911.728       26.083       25.762        2.683        2.568        2.659        2.659        3.112        2.997        3.193        3.065        3.170        3.180        3.059        3.164        2.534        2.658        2.573        2.557        0.478        1.000        0.000        0.000        0.000        0.000        3.000        0.000        0.000        0.000        0.000        0.000        1.000        0.000        2.000        0.000        1.000        0.000        0.000        0.000        0.000        0.000        0.000        0.000        0.000        0.000        0.000        0.000        2.000        1.000        7.000        0.000        1.000        0.000        4.494        0.000       95.506        0.000        0.000        1.590        1.619        1.993
      60.000  -261144.233    28354.692    15977.215    37645.700      107.959  -391800.239    48570.440       26.204       25.879        2.682        2.547        2.647        2.677        3.137        2.993        3.142        3.066        3.123        3.211        3.060        3.211        2.501        2.613        2.689        2.624        0.504        0.000        0.000        0.000        0.000        0.000        3.000        0.000        0.000        0.000        0.000        0.000        1.000        0.000        2.000        0.000        1.000        0.000        0.000        0.000        0.000        0.000        0.000        0.000        0.000        1.000        1.000        0.000        0.000        1.000        6.000        0.000        0.000        0.000        0.000        0.000      100.000        0.000        0.000        1.594        1.610        1.966
      70.000  -261132.658    28522.535    16483.797    37892.881       91.955  -392668.080    48544.253       26.034       25.738        2.697        2.508        2.689        2.711        3.112        3.002        3.203        2.970        3.149        3.163        3.078        3.239        2.485        2.551        2.696        2.603        0.466        0.000        0.000        0.000        0.000        0.000        2.000        0.000        0.000        0.000        0.000        0.000        0.000        0.000        0.000        0.000        2.000        0.000        0.000        0.000        0.000        0.000        0.000        0.000        0.000        0.000        0.000        0.000        2.000        0.000       11.000        0.000        2.000        0.000        0.000        0.000      100.000        0.000        0.000        1.759        1.766        2.174
      80.000  -260196.187    28310.269    16222.773    37765.655      114.883  -391803.003    49193.236       26.383       26.093        2.684        2.513        2.673        2.667        3.105        3.043        3.218        2.957        3.213        3.174        3.043        3.194        2.509        2.556        2.676        2.638        0.467        0.000        0.000        0.000        0.000        0.000        4.000        0.000        0.000        0.000        0.000        0.000        0.000        0.000        1.000        0.000        0.000        0.000        0.000        0.000        0.000        0.000        0.000        0.000        0.000        0.000        1.000        0.000        2.000        0.000        4.000        0.000        0.000        0.000        0.000        0.000      100.000        0.000        0.000        1.796        1.802        2.191
      90.000  -260741.598    27968.268    15951.292    37624.952      115.111  -391382.114    48980.892       26.590       26.140        2.666        2.595        2.647        2.622        3.111        3.045        3.163        2.903        3.232        3.233        3.110        3.202        2.528        2.526        2.635        2.658        0.494        0.000        0.000        0.000        0.000        0.000        4.000        0.000        0.000        0.000        0.000        0.000        0.000        0.000        2.000        0.000        2.000        0.000        0.000        0.000        0.000        0.000        0.000        0.000        0.000        0.000        0.000        0.000        4.000        1.000        1.000        0.000        0.000        0.000        0.000        0.000      100.000        0.000        0.000        1.928        1.946        2.408
     100.000  -259754.869    28352.708    16049.092    37877.815       99.409  -390271.310    48137.415       26.279       25.915        2.666        2.508        2.653        2.638        3.088        3.005        3.156        3.029        3.218        3.216        3.050        3.205        2.504        2.601        2.679        2.616        0.502        1.000        0.000        0.000        0.000        0.000        4.000        0.000        0.000        0.000        0.000        0.000        0.000        0.000        2.000        0.000        0.000        0.000        0.000        0.000        0.000        0.000        0.000        0.000        0.000        1.000        1.000        0.000        3.000        1.000        3.000        0.000        1.000        0.000        0.000        0.000      100.000        0.000        0.000        2.009        2.049        2.533
     110.000  -260265.381    27796.844    15893.232    37722.274      113.540  -389330.568    47539.297       26.022       25.818        2.648        2.525        2.632        2.701        3.142        2.988        3.160        2.965        3.195        3.191        3.085        3.260        2.504        2.566        2.703        2.626        0.454        0.000        0.000        0.000        0.000        0.000        4.000        0.000        0.000        0.000        0.000        0.000        0.000        0.000        3.000        0.000        0.000        0.000        0.000        0.000        0.000        0.000        0.000        0.000        0.000        1.000        0.000        0.000        5.000        0.000        3.000        0.000        0.000        0.000        0.000        0.000      100.000        0.000        0.000        1.971        1.990        2.673
     120.000  -259254.827    27646.865    15904.043    37809.966      101.420  -388584.368    47867.247       26.225       25.814        2.644        2.564        2.626        2.659        3.084        3.001        3.231        2.982        3.193        3.156        3.085        3.277        2.497        2.595        2.656        2.608        0.482        0.000        0.000        0.000        0.000        0.000        4.000        0.000        0.000        0.000        0.000        0.000        0.000        0.000        0.000        0.000        1.000        0.000        0.000        0.000        0.000        0.000        0.000        0.000        0.000        0.000        0.000        0.000        1.000        1.000        3.000        0.000        1.000        0.000        0.000        0.000      100.000        0.000        0.000        1.794        1.794        2.514
     130.000  -258524.595    27002.959    16177.762    37723.612      112.236  -388211.189    48670.026       26.130       25.812        2.632        2.466        2.733        2.711        3.114        3.022        3.186        2.987        3.203        3.153        3.064        3.190        2.484        2.580        2.685        2.603        0.457        0.000        0.000        0.000        0.000        1.000        4.000        0.000        0.000        0.000        0.000        0.000        0.000        0.000        0.000        0.000        1.000        0.000        0.000        0.000        0.000        0.000        0.000        0.000        0.000        1.000        0.000        0.000        1.000        1.000        3.000        0.000        0.000        0.000        4.494        0.000       95.506        0.000        0.000        1.594        1.602        2.258
     140.000  -259350.263    28136.386    15716.654    37563.317      100.146  -388744.100    47877.335       26.004       25.945        2.677        2.494        2.736        2.699        3.113        2.976        3.199        2.931        3.213        3.175        3.122        3.269        2.503        2.556        2.722        2.635        0.481        0.000        0.000        0.000        0.000        2.000        4.000        0.000        0.000        0.000        0.000        0.000        0.000        0.000        0.000        0.000        1.000        0.000        0.000        0.000        0.000        0.000        0.000        0.000        0.000        2.000        0.000        0.000        1.000        0.000        1.000        0.000        0.000        0.000        0.000        0.000      100.000        0.000        0.000        1.687        1.711        2.509
     150.000  -258881.277    26608.714    15748.622    37893.179      125.289  -387646.820    48389.739       25.745       25.674        2.653        2.466        2.718        2.640        3.130        3.021        3.166        3.006        3.232        3.177        3.029        3.226        2.484        2.571        2.691        2.585        0.493        0.000        0.000        0.000        0.000        0.000        4.000        0.000        0.000        0.000        0.000        0.000        0.000        0.000        0.000        0.000        0.000        0.000        0.000        0.000        0.000        0.000        0.000        0.000        0.000        1.000        1.000        0.000        0.000        0.000        4.000        0.000        3.000        0.000        0.000        0.000      100.000        0.000        0.000        1.543        1.573        2.326
     160.000  -259073.923    27011.683    15853.870    37857.653      121.302  -387540.360    47621.929       26.109       25.949        2.639        2.472        2.728        2.596        3.121        2.997        3.153        3.007        3.195        3.195        2.971        3.256        2.496        2.593        2.686        2.603        0.493        0.000        0.000        0.000        0.000        1.000        3.000        0.000        0.000        0.000        0.000        0.000        1.000        0.000        0.000        0.000        1.000        0.000        0.000        0.000        0.000        0.000        0.000        0.000        0.000        2.000        0.000        0.000        1.000        0.000        8.000        0.000        0.000        0.000        0.000        0.000      100.000        0.000        0.000        1.442        1.487        2.248
     170.000  -257933.364    25606.227    15806.911    37882.192      107.342  -385838.891    48502.854       26.013       25.905        2.619        2.447        2.680        2.593        3.116        2.983        3.164        2.894        3.147        3.211        3.084        3.226        2.498        2.616        2.680        2.588        0.476        0.000        0.000        0.000        0.000        1.000        3.000        0.000        0.000        0.000        0.000        0.000        0.000        0.000        0.000        0.000        2.000        0.000        0.000        0.000        0.000        0.000        0.000        0.000        0.000        2.000        0.000        0.000        2.000        2.000        7.000        0.000        1.000        0.000        0.000        0.000      100.000        0.000        0.000        1.598        1.629        2.414
     180.000  -258417.053    26224.669    15530.654    37765.017      134.310  -386339.889    48268.187       25.928       26.090        2.673        2.467        2.710        2.586        3.129        3.008        3.199        2.935        3.177        3.237        3.019        3.272        2.536        2.627        2.694        2.654        0.483        0.000        0.000        0.000        0.000        1.000        3.000        0.000        0.000        0.000        0.000        0.000        0.000        0.000        1.000        0.000        1.000        0.000        0.000        0.000        0.000        0.000        0.000        0.000        0.000        2.000        1.000        0.000        3.000        4.000        4.000        0.000        0.000        0.000        0.000        0.000      100.000        0.000        0.000        1.830        1.892        2.584
     190.000  -259088.252    26302.165    15295.187    37728.483       92.544  -386887.223    48380.593       26.107       26.093        2.672        2.418        2.743        2.608        3.174        2.935        3.194        3.026        3.265        3.184        3.106        3.283        2.497        2.578        2.674        2.564        0.502        0.000        0.000        0.000        0.000        1.000        4.000        0.000        0.000        0.000        0.000        0.000        1.000        0.000        0.000        0.000        1.000        0.000        0.000        0.000        0.000        0.000        0.000        0.000        0.000        1.000        1.000        0.000        0.000        1.000        5.000        0.000        2.000        0.000        0.000        0.000      100.000        0.000        0.000        1.565        1.616        2.350
     200.000  -258751.814    27246.461    15524.554    37777.843       96.305  -385327.185    45930.208       25.799       25.962        2.661        2.455        2.704        2.649        3.133        3.016        3.171        3.021        3.261        3.255        3.039        3.207        2.510        2.591        2.653        2.603        0.500        0.000        0.000        0.000        0.000        2.000        2.000        0.000        0.000        0.000        0.000        0.000        0.000        0.000        0.000        0.000        0.000        0.000        0.000        0.000        0.000        0.000        0.000        0.000        0.000        3.000        1.000        0.000        0.000        1.000        9.000        0.000        2.000        0.000        0.000        0.000      100.000        0.000        0.000        1.867        1.921        2.609
     210.000  -257525.390    26844.292    15352.536    37892.068       95.193  -384770.960    47061.481       25.978       26.259        2.674        2.421        2.711        2.621        3.187        3.031        3.164        3.033        3.259        3.187        3.076        3.202        2.486        2.589        2.676        2.609        0.479        0.000        0.000        0.000        0.000        1.000        3.000        0.000        0.000        0.000        0.000        0.000        0.000        0.000        2.000        0.000        1.000        0.000        0.000        0.000        0.000        0.000        0.000        0.000        0.000        2.000        2.000        0.000        4.000        0.000        8.000        0.000        2.000        0.000        4.494        0.000       95.506        0.000        0.000        2.060        2.125        2.646
     220.000  -257775.260    27222.213    15436.253    37675.660      126.183  -384746.700    46511.130       25.841       26.089        2.642        2.483        2.722        2.610        3.110        2.971        3.191        2.932        3.224        3.177        3.110        3.233        2.477        2.604        2.691        2.583        0.489        0.000        0.000        0.000        0.000        1.000        3.000        0.000        0.000        0.000        0.000        0.000        1.000        0.000        1.000        0.000        1.000        0.000        0.000        0.000        0.000        0.000        0.000        0.000        0.000        4.000        0.000        0.000        0.000        1.000        4.000        0.000        2.000        0.000        0.000        0.000      100.000        0.000        0.000        2.657        2.724        3.052
     230.000  -258028.410    27267.435    15500.258    37991.927      109.696  -384100.079    45202.354       26.015       26.012        2.637        2.484        2.726        2.612        3.148        3.044        3.173        2.968        3.181        3.177        3.147        3.193        2.510        2.541        2.670        2.586        0.488        0.000        0.000        0.000        0.000        1.000        3.000        0.000        0.000        0.000        0.000        0.000        0.000        0.000        1.000        0.000        1.000        0.000        0.000        0.000        0.000        0.000        0.000        0.000        0.000        1.000        0.000        0.000        3.000        1.000        2.000        0.000        1.000        0.000        0.000        0.000      100.000        0.000        0.000        2.311        2.367        2.836
     240.000  -257399.982    27679.847    15465.714    37668.295       99.317  -384918.165    46605.011       25.962       25.978        2.684        2.455        2.723        2.613        3.185        3.033        3.180        3.066        3.193        3.253        3.076        3.173        2.535        2.589        2.709        2.591        0.491        0.000        0.000        0.000        0.000        1.000        3.000        0.000        0.000        0.000        0.000        0.000        0.000        0.000        1.000        0.000        1.000        0.000        0.000        0.000        0.000        0.000        0.000        0.000        0.000        1.000        1.000        0.000        1.000        1.000        5.000        0.000        3.000        0.000        0.000        0.000      100.000        0.000        0.000        2.622        2.685        3.150
     250.000  -257828.472    25739.926    15506.638    37621.387       94.632  -382963.040    46171.985       26.006       26.081        2.656        2.459        2.724        2.584        3.160        3.055        3.170        2.986        3.186        3.206        3.120        3.211        2.438        2.558        2.699        2.537        0.491        0.000        0.000        0.000        0.000        1.000        3.000        0.000        0.000        0.000        0.000        0.000        0.000        0.000        0.000        0.000        2.000        0.000        0.000        0.000        0.000        0.000        0.000        0.000        0.000        1.000        3.000        0.000        3.000        2.000        3.000        0.000        4.000        0.000        0.000        0.000      100.000        0.000        0.000        2.214        2.278        2.764
     260.000  -256822.433    25790.531    15122.951    37794.602      113.231  -383090.753    47447.005       25.967       25.986        2.701        2.472        2.724        2.590        3.161        3.002        3.189        2.947        3.220        3.190        3.069        3.213        2.471        2.602        2.688        2.529        0.499        0.000        0.000        0.000        0.000        1.000        3.000        0.000        0.000        0.000        0.000        0.000        0.000        0.000        1.000        0.000        0.000        0.000        0.000        0.000        0.000        0.000        0.000        0.000        0.000        2.000        2.000        0.000        0.000        1.000       11.000        0.000        1.000        0.000        0.000        0.000      100.000        0.000        0.000        1.964        2.013        2.592
     270.000  -257746.681    25700.950    15374.157    37652.514      117.922  -384532.335    47940.111       26.061       25.971        2.652        2.478        2.692        2.646        3.104        3.016        3.185        3.087        3.180        3.232        3.091        3.264        2.513        2.574        2.732        2.591        0.486        0.000        0.000        0.000        0.000        1.000        3.000        0.000        0.000        0.000        0.000        0.000        0.000        0.000        2.000        0.000        0.000        0.000        0.000        0.000        0.000        0.000        0.000        0.000        0.000        2.000        1.000        0.000        2.000        1.000        6.000        0.000        2.000        0.000        0.000        0.000      100.000        0.000        0.000        2.332        2.396        2.978
     280.000  -257511.204    25449.160    15278.392    37699.002       98.829  -383532.467    47495.879       25.885       25.994        2.676        2.434        2.714        2.609        3.100        2.973        3.219        3.033        3.147        3.207        3.044        3.211        2.505        2.638        2.655        2.586        0.486        0.000        0.000        0.000        0.000        1.000        3.000        0.000        0.000        0.000        0.000        0.000        0.000        0.000        0.000        0.000        2.000        0.000        0.000        0.000        0.000        0.000        0.000        0.000        0.000        2.000        2.000        0.000        3.000        2.000        3.000        0.000        1.000        0.000        0.000        0.000      100.000        0.000        0.000        2.596        2.656        3.239
     290.000  -257482.589    26129.141    15021.855    37690.021      123.015  -382479.153    46032.533       25.785       25.879        2.657        2.513        2.735        2.632        3.155        2.958        3.203        3.003        3.176        3.200        3.094        3.197        2.544        2.591        2.689        2.600        0.493        0.000        0.000        0.000        0.000        1.000        4.000        0.000        0.000        0.000        0.000        0.000        0.000        0.000        1.000        0.000        1.000        0.000        0.000        0.000        0.000        0.000        0.000        0.000        0.000        2.000        2.000        0.000        3.000        4.000        5.000        0.000        2.000        0.000        0.000        0.000      100.000        0.000        0.000        2.582        2.642        3.335
     300.000  -256862.410    25946.831    15282.435    37588.263      101.380  -383328.901    47547.583       25.830       25.993        2.613        2.486        2.668        2.646        3.160        3.030        3.141        3.052        3.180        3.208        3.099        3.183        2.498        2.625        2.660        2.600        0.483        0.000        0.000        0.000        0.000        1.000        3.000        0.000        0.000        0.000        0.000        0.000        0.000        0.000        0.000        0.000        2.000        0.000        0.000        0.000        0.000        0.000        0.000        0.000        0.000        2.000        3.000        0.000        1.000        1.000        6.000        0.000        1.000        0.000        0.000        0.000      100.000        0.000        0.000        2.380        2.439        3.207
     310.000  -256954.330    26694.947    15587.575    37794.361       95.201  -383665.505    46539.090       25.985       25.925        2.603        2.470        2.740        2.641        3.118        3.018        3.156        2.996        3.205        3.217        3.049        3.179        2.484        2.619        2.665        2.499        0.493        0.000        0.000        0.000        0.000        1.000        3.000        0.000        0.000        0.000        0.000        0.000        0.000        0.000        0.000        0.000        1.000        0.000        0.000        0.000        0.000        0.000        0.000        0.000        0.000        1.000        2.000        0.000        1.000        2.000        6.000        0.000        1.000        0.000        0.000        0.000      100.000        0.000        0.000        2.183        2.237        2.914
     320.000  -257460.031    25716.398    15225.254    37797.139       93.444  -382194.509    45902.243       25.783       25.961        2.692        2.458        2.736        2.620        3.172        2.995        3.188        2.933        3.254        3.178        3.034        3.229        2.506        2.552        2.666        2.615        0.488        0.000        0.000        0.000        0.000        1.000        3.000        0.000        0.000        0.000        0.000        0.000        0.000        0.000        1.000        0.000        2.000        0.000        0.000        0.000        0.000        0.000        0.000        0.000        0.000        1.000        1.000        0.000        0.000        3.000        7.000        0.000        0.000        0.000        7.865        0.000       92.135        0.000        0.000        1.819        1.857        2.610
     330.000  -257090.891    25555.438    15138.527    37699.489      109.131  -381888.667    46295.191       26.098       25.824        2.672        2.483        2.667        2.661        3.138        3.018        3.218        2.984        3.164        3.219        3.061        3.198        2.477        2.584        2.704        2.597        0.476        0.000        0.000        0.000        0.000        1.000        4.000        0.000        0.000        0.000        0.000        0.000        0.000        0.000        1.000        0.000        4.000        0.000        0.000        0.000        0.000        0.000        0.000        0.000        0.000        2.000        1.000        0.000        3.000        2.000        5.000        0.000        2.000        0.000        4.494        0.000       95.506        0.000        0.000        1.935        1.978        2.866
     340.000  -256484.215    25944.078    15377.937    37706.842      118.770  -382845.002    47213.162       26.132       26.078        2.670        2.449        2.684        2.642        3.123        2.995        3.223        3.026        3.178        3.213        3.070        3.198        2.490        2.558        2.677        2.575        0.510        0.000        0.000        0.000        0.000        1.000        3.000        0.000        0.000        0.000        0.000        0.000        0.000        0.000        1.000        0.000        0.000        0.000        0.000        0.000        0.000        0.000        0.000        0.000        0.000        4.000        0.000        0.000        4.000        5.000        8.000        0.000        2.000        0.000        0.000        0.000      100.000        0.000        0.000        2.213        2.236        3.051
     350.000  -257411.847    25298.859    15310.187    37885.976      123.238  -383967.828    47937.721       25.900       25.879        2.685        2.471        2.728        2.651        3.090        3.026        3.169        3.031        3.165        3.181        3.042        3.181        2.473        2.579        2.632        2.559        0.463        0.000        0.000        0.000        0.000        2.000        2.000        0.000        0.000        0.000        0.000        0.000        0.000        0.000        2.000        0.000        1.000        0.000        0.000        0.000        0.000        0.000        0.000        0.000        0.000        1.000        0.000        0.000        0.000        1.000        6.000        0.000        2.000        0.000        0.000        0.000      100.000        0.000        0.000        2.072        2.123        2.992
     360.000  -256745.007    25745.648    15217.500    37770.961      113.896  -382642.304    47049.292       25.982       25.890        2.639        2.457        2.740        2.620        3.114        2.976        3.195        3.013        3.207        3.237        3.140        3.192        2.507        2.609        2.659        2.633        0.474        0.000        0.000        0.000        0.000        1.000        3.000        0.000        0.000        0.000        0.000        0.000        0.000        0.000        2.000        0.000        2.000        0.000        0.000        0.000        0.000        0.000        0.000        0.000        0.000        1.000        3.000        0.000        0.000        2.000        6.000        0.000        2.000        0.000        0.000        0.000      100.000        0.000        0.000        2.457        2.498        3.194
     370.000  -257540.087    25578.823    15149.127    37734.157      108.653  -382612.525    46501.678       25.981       25.847        2.620        2.427        2.684        2.635        3.144        2.921        3.194        2.998        3.222        3.190        3.044        3.262        2.500        2.588        2.666        2.555        0.494        0.000        0.000        0.000        0.000        1.000        3.000        0.000        0.000        0.000        0.000        0.000        0.000        0.000        1.000        0.000        3.000        0.000        0.000        0.000        0.000        0.000        0.000        0.000        0.000        4.000        1.000        0.000        2.000        1.000        7.000        0.000        2.000        0.000        4.494        0.000       95.506        0.000        0.000        2.424        2.469        3.169
     380.000  -257224.084    25369.513    15326.606    37725.512      128.737  -383361.716    47587.263       25.862       25.773        2.702        2.487        2.688        2.637        3.101        3.020        3.187        3.001        3.187        3.244        3.036        3.290        2.462        2.580        2.684        2.536        0.498        0.000        0.000        0.000        0.000        1.000        2.000        0.000        0.000        0.000        0.000        0.000        0.000        0.000        0.000        0.000        4.000        0.000        0.000        0.000        0.000        0.000        0.000        0.000        0.000        3.000        1.000        0.000        2.000        1.000        1.000        0.000        2.000        0.000        0.000        0.000      100.000        0.000        0.000        2.593        2.646        3.244
     390.000  -256503.241    25231.172    15760.269    37882.623      115.690  -381234.349    45741.354       26.114       26.189        2.645        2.491        2.699        2.661        3.146        2.957        3.198        3.060        3.229        3.197        3.029        3.153        2.464        2.589        2.677        2.483        0.464        0.000        0.000        0.000        0.000        1.000        3.000        0.000        0.000        0.000        0.000        0.000        0.000        0.000        1.000        0.000        0.000        0.000        0.000        0.000        0.000        0.000        0.000        0.000        0.000        2.000        5.000        0.000        0.000        1.000        3.000        0.000        1.000        0.000        0.000        0.000      100.000        0.000        0.000        2.820        2.861        3.527
     400.000  -256914.935    24885.861    15330.845    37873.935      100.573  -381793.352    46687.203       25.748       25.647        2.674        2.481        2.702        2.614        3.130        3.012        3.146        2.923        3.200        3.222        3.010        3.233        2.501        2.593        2.696        2.574        0.475        0.000        0.000        0.000        0.000        1.000        3.000        0.000        0.000        0.000        0.000        0.000        0.000        0.000        0.000        0.000        0.000        0.000        0.000        0.000        0.000        0.000        0.000        0.000        0.000        0.000        2.000        0.000        1.000        0.000        4.000        0.000        0.000        0.000        0.000        0.000      100.000        0.000        0.000        2.553        2.601        3.346
     410.000  -256956.130    26185.801    15401.956    37674.579       95.079  -383262.774    46949.229       26.000       25.827        2.677        2.462        2.728        2.630        3.102        3.005        3.182        2.930        3.191        3.265        3.091        3.219        2.492        2.598        2.645        2.559        0.482        0.000        0.000        0.000        0.000        1.000        3.000        0.000        0.000        0.000        0.000        0.000        0.000        0.000        1.000        0.000        1.000        0.000        0.000        0.000        0.000        0.000        0.000        0.000        0.000        1.000        0.000        0.000        0.000        1.000        5.000        0.000        2.000        0.000        0.000        0.000      100.000        0.000        0.000        2.657        2.689        3.413
     420.000  -256655.840    24690.078    15259.448    37971.189      152.097  -382664.016    47935.364       25.465       25.580        2.621        2.482        2.739        2.651        3.161        3.046        3.222        3.024        3.191        3.216        3.037        3.292        2.476        2.622        2.632        2.497        0.499        0.000        0.000        0.000        0.000        2.000        3.000        0.000        0.000        0.000        0.000        0.000        0.000        0.000        0.000        0.000        3.000        0.000        0.000        0.000        0.000        0.000        0.000        0.000        0.000        2.000        1.000        0.000        1.000        2.000        4.000        0.000        1.000        0.000        0.000        0.000      100.000        0.000        0.000        2.653        2.683        3.615
     430.000  -256780.822    24603.150    15379.308    37894.794      111.065  -381821.398    47052.259       26.005       26.074        2.686        2.429        2.729        2.666        3.078        3.018        3.120        2.973        3.246        3.226        3.102        3.281        2.498        2.609        2.684        2.521        0.489        0.000        0.000        0.000        0.000        0.000        3.000        0.000        0.000        0.000        0.000        0.000        0.000        0.000        2.000        0.000        0.000        0.000        0.000        0.000        0.000        0.000        0.000        0.000        0.000        1.000        3.000        0.000        0.000        3.000        1.000        0.000        2.000        0.000        0.000        0.000      100.000        0.000        0.000        2.622        2.640        3.511
     440.000  -257024.870    24893.834    15140.216    37519.644      127.002  -381455.107    46749.542       26.243       26.053        2.671        2.461        2.742        2.634        3.109        2.945        3.200        2.979        3.208        3.190        3.201        3.216        2.502        2.563        2.629        2.483        0.451        0.000        0.000        0.000        0.000        1.000        3.000        0.000        0.000        0.000        0.000        0.000        0.000        0.000        3.000        0.000        0.000        0.000        0.000        0.000        0.000        0.000        0.000        0.000        0.000        0.000        3.000        0.000        0.000        0.000        5.000        0.000        1.000        0.000        0.000        0.000      100.000        0.000        0.000        2.407        2.434        3.388
     450.000  -256139.116    26572.152    15242.498    37685.198      131.620  -380869.100    45098.516       26.123       25.882        2.625        2.432        2.709        2.686        3.126        3.038        3.160        2.899        3.229        3.174        3.133        3.269        2.529        2.540        2.679        2.538        0.477        0.000        0.000        0.000        0.000        1.000        1.000        0.000        0.000        0.000        0.000        0.000        0.000        0.000        1.000        0.000        1.000        0.000        0.000        0.000        0.000        0.000        0.000        0.000        0.000        2.000        0.000        0.000        1.000        4.000        5.000        0.000        2.000        0.000        4.494        0.000       95.506        0.000        0.000        2.521        2.540        3.528
     460.000  -255606.014    24841.150    15256.512    37787.528      101.725  -381448.483    47855.555       26.007       25.877        2.636        2.453        2.695        2.662        3.106        3.005        3.156        3.011        3.202        3.215        3.045        3.167        2.495        2.534        2.646        2.520        0.482        0.000        0.000        0.000        0.000        1.000        3.000        0.000        0.000        0.000        0.000        0.000        0.000        0.000        0.000        0.000        2.000        0.000        0.000        0.000        0.000        0.000        0.000        0.000        0.000        1.000        0.000        0.000        0.000        2.000        4.000        0.000        1.000        0.000        0.000        0.000      100.000        0.000        0.000        2.578        2.585        3.492
     470.000  -256443.505    25322.478    14857.955    37881.217      104.180  -381703.841    47094.507       25.983       25.983        2.663        2.479        2.746        2.645        3.213        2.963        3.168        2.973        3.211        3.201        3.031        3.180        2.500        2.565        2.647        2.528        0.494        0.000        0.000        0.000        0.000        1.000        3.000        0.000        0.000        0.000        0.000        0.000        0.000        0.000        0.000        0.000        3.000        0.000        0.000        0.000        0.000        0.000        0.000        0.000        0.000        2.000        0.000        0.000        2.000        5.000        6.000        0.000        2.000        0.000        0.000        0.000      100.000        0.000        0.000        2.942        2.975        3.829
     480.000  -255921.133    25290.324    14819.286    37539.437      111.850  -380107.460    46425.431       25.853       26.161        2.655        2.446        2.708        2.631        3.254        3.014        3.166        3.034        3.169        3.201        3.084        3.248        2.526        2.563        2.662        2.582        0.464        0.000        0.000        0.000        0.000        2.000        2.000        0.000        0.000        0.000        0.000        0.000        0.000        0.000        0.000        0.000        1.000        0.000        0.000        0.000        0.000        0.000        0.000        0.000        0.000        1.000        0.000        0.000        0.000        1.000        4.000        0.000        1.000        0.000        0.000        0.000      100.000        0.000        0.000        3.176        3.208        3.964
     490.000  -256586.654    25670.928    15051.356    37890.159      119.881  -382137.482    46818.504       25.866       26.002        2.678        2.446        2.718        2.660        3.226        2.995        3.134        2.958        3.222        3.204        3.078        3.228        2.538        2.602        2.663        2.487        0.471        0.000        0.000        0.000        0.000        1.000        3.000        0.000        0.000        0.000        0.000        0.000        0.000        0.000        2.000        0.000        1.000        0.000        0.000        0.000        0.000        0.000        0.000        0.000        0.000        0.000        0.000        0.000        1.000        4.000        5.000        0.000        1.000        0.000        0.000        0.000      100.000        0.000        0.000        2.971        3.007        3.869
     500.000  -257130.401    25101.664    14971.522    37930.071      125.897  -383311.635    48052.079       25.921       25.946        2.669        2.419        2.708        2.606        3.185        2.937        3.142        2.986        3.252        3.226        3.059        3.241        2.458        2.639        2.693        2.482        0.488        0.000        0.000        0.000        0.000        1.000        3.000        0.000        0.000        0.000        0.000        0.000        0.000        0.000        0.000        0.000        3.000        0.000        0.000        0.000        0.000        0.000        0.000        0.000        0.000        0.000        0.000        0.000        2.000        1.000        3.000        0.000        4.000        0.000        0.000        0.000      100.000        0.000        0.000        3.109        3.123        4.022
     510.000  -256633.789    25104.212    15191.799    37784.442      114.073  -381713.681    46885.366       26.066       25.949        2.704        2.493        2.690        2.619        3.182        2.996        3.174        3.049        3.176        3.255        3.018        3.235        2.448        2.595        2.629        2.479        0.489        0.000        0.000        0.000        1.000        1.000        2.000        0.000        0.000        0.000        0.000        0.000        0.000        0.000        1.000        0.000        1.000        0.000        0.000        0.000        0.000        0.000        0.000        0.000        0.000        2.000        0.000        0.000        2.000        2.000        6.000        0.000        3.000        0.000        0.000        0.000      100.000        0.000        0.000        2.675        2.691        3.631
     520.000  -256496.177    24593.955    15344.708    37647.568       98.607  -382233.746    48052.731       26.155       26.021        2.696        2.445        2.717        2.664        3.224        3.088        3.172        2.983        3.215        3.167        3.083        3.217        2.466        2.591        2.620        2.497        0.485        0.000        0.000        0.000        0.000        0.000        1.000        0.000        0.000        0.000        0.000        0.000        0.000        0.000        0.000        0.000        2.000        0.000        0.000        0.000        0.000        0.000        0.000        0.000        0.000        1.000        1.000        0.000        0.000        1.000        3.000        0.000        2.000        0.000        4.494        0.000       95.506        0.000        0.000        2.260        2.272        3.395
     530.000  -256202.797    25255.987    14675.643    37672.237       79.719  -379918.201    46031.819       26.073       26.075        2.682        2.433        2.723        2.633        3.244        3.016        3.124        2.956        3.212        3.170        3.029        3.245        2.503        2.596        2.669        2.519        0.508        0.000        0.000        0.000        1.000        0.000        2.000        0.000        0.000        0.000        0.000        0.000        0.000        0.000        0.000        0.000        2.000        0.000        0.000        0.000        1.000        0.000        0.000        0.000        0.000        1.000        0.000        0.000        2.000        1.000        1.000        0.000        2.000        0.000        0.000        0.000      100.000        0.000        0.000        2.213        2.202        3.269
     540.000  -255742.865    24475.129    15429.279    37912.357      104.147  -382026.306    48362.528       26.033       25.730        2.721        2.454        2.703        2.640        3.134        2.972        3.154        2.981        3.187        3.166        3.040        3.227        2.492        2.632        2.619        2.457        0.480        0.000        0.000        0.000        1.000        0.000        1.000        0.000        0.000        0.000        0.000        0.000        0.000        0.000        0.000        0.000        2.000        0.000        0.000        0.000        1.000        0.000        0.000        0.000        0.000        3.000        1.000        0.000        1.000        1.000        7.000        0.000        2.000        0.000        0.000        0.000      100.000        0.000        0.000        1.637        1.632        2.792
     550.000  -256515.214    24949.825    15191.224    37676.939      113.159  -381613.146    47166.785       26.238       26.091        2.699        2.469        2.735        2.663        3.085        3.055        3.220        2.889        3.188        3.211        3.055        3.243        2.511        2.572        2.644        2.553        0.493        0.000        0.000        0.000        0.000        0.000        2.000        0.000        0.000        0.000        0.000        0.000        0.000        0.000        1.000        0.000        2.000        0.000        0.000        0.000        1.000        0.000        0.000        0.000        0.000        0.000        1.000        0.000        3.000        1.000       11.000        0.000        2.000        0.000        0.000        0.000      100.000        0.000        0.000        1.850        1.849        3.048
     560.000  -255617.203    24827.897    15232.689    37834.720      125.553  -379989.191    46351.129       26.133       25.872        2.664        2.459        2.699        2.676        3.095        3.013        3.105        3.027        3.144        3.213        3.067        3.228        2.481        2.593        2.657        2.489        0.485        0.000        0.000        0.000        1.000        0.000        3.000        0.000        0.000        0.000        0.000        0.000        0.000        0.000        0.000        0.000        0.000        0.000        0.000        0.000        1.000        0.000        0.000        0.000        0.000        2.000        1.000        0.000        2.000        2.000        8.000        0.000        2.000        0.000        0.000        0.000      100.000        0.000        0.000        1.890        1.878        2.928
     570.000  -256553.747    26703.969    15314.189    37945.051       97.894  -383251.336    46636.486       26.204       25.881        2.659        2.471        2.702        2.681        3.162        3.026        3.127        2.950        3.174        3.235        3.028        3.241        2.499        2.641        2.621        2.520        0.490        0.000        0.000        0.000        1.000        1.000        2.000        0.000        0.000        0.000        0.000        0.000        0.000        0.000        0.000        0.000        4.000        0.000        0.000        0.000        1.000        0.000        0.000        0.000        0.000        1.000        1.000        0.000        4.000        3.000        8.000        0.000        3.000        0.000        0.000        0.000      100.000        0.000        0.000        2.180        2.186        3.141
     580.000  -256560.996    26089.330    15040.794    37705.754      121.680  -381080.983    45562.430       26.045       25.501        2.671        2.492        2.703        2.671        3.181        3.020        3.179        2.925        3.194        3.227        2.993        3.018        2.524        2.639        2.676        2.520        0.511        0.000        0.000        0.000        1.000        1.000        1.000        0.000        0.000        0.000        0.000        0.000        0.000        0.000        2.000        0.000        4.000        0.000        0.000        0.000        1.000        0.000        0.000        0.000        0.000        0.000        0.000        0.000        2.000        0.000        6.000        0.000        0.000        0.000        0.000        0.000      100.000        0.000        0.000        2.409        2.424        3.337
     590.000  -256601.742    25378.131    14938.666    37747.570      117.600  -381281.192    46497.483       26.301       26.060        2.643        2.465        2.680        2.602        3.146        3.096        3.159        3.008        3.218        3.182        3.025        2.985        2.478        2.572        2.692        2.550        0.489        0.000        0.000        0.000        1.000        0.000        2.000        0.000        0.000        0.000        1.000        0.000        0.000        0.000        1.000        0.000        3.000        0.000        0.000        0.000        1.000        0.000        0.000        0.000        0.000        0.000        0.000        0.000        2.000        1.000        9.000        0.000        1.000        0.000        0.000        0.000      100.000        0.000        0.000        2.332        2.336        3.358
     600.000  -256353.259    25711.313    15019.442    37793.213      107.835  -381192.223    46207.161       26.097       25.799        2.682        2.451        2.718        2.649        3.191        3.050        3.119        3.006        3.199        3.229        3.042        2.913        2.464        2.613        2.649        2.492        0.469        0.000        0.000        0.000        0.000        0.000        3.000        0.000        0.000        0.000        0.000        0.000        0.000        0.000        0.000        0.000        1.000        0.000        0.000        0.000        1.000        0.000        0.000        0.000        0.000        0.000        0.000        0.000        3.000        1.000        6.000        0.000        0.000        0.000        0.000        0.000      100.000        0.000        0.000        2.187        2.202        3.220
     610.000  -256218.858    26311.653    15186.677    37981.973      105.813  -381689.261    45884.286       25.875       25.446        2.659        2.470        2.677        2.673        3.120        3.017        3.193        2.960        3.220        3.200        3.141        3.033        2.481        2.568        2.722        2.468        0.480        0.000        0.000        0.000        1.000        1.000        2.000        0.000        0.000        0.000        0.000        0.000        0.000        0.000        2.000        0.000        2.000        0.000        0.000        0.000        1.000        0.000        0.000        0.000        0.000        1.000        1.000        0.000        1.000        0.000        7.000        0.000        0.000        0.000        0.000        0.000      100.000        0.000        0.000        1.919        1.914        3.065
     620.000  -256396.872    24407.147    15052.577    37600.251      112.625  -381533.224    47963.751       26.107       25.994        2.621        2.445        2.739        2.673        3.127        3.005        3.196        3.032        3.220        3.188        2.998        2.992        2.525        2.618        2.699        2.514        0.486        0.000        0.000        0.000        0.000        0.000        2.000        0.000        0.000        0.000        0.000        0.000        0.000        0.000        1.000        0.000        0.000        0.000        0.000        0.000        1.000        0.000        0.000        0.000        0.000        0.000        2.000        0.000        1.000        0.000        6.000        0.000        1.000        0.000        0.000        0.000      100.000        0.000        0.000        1.922        1.923        3.131
     630.000  -256072.137    25692.836    14783.297    37919.412      119.003  -380632.620    46045.936       26.063       25.547        2.640        2.460        2.709        2.690        3.148        3.086        3.177        2.827        3.233        3.220        3.058        2.948        2.471        2.616        2.675        2.538        0.486        0.000        0.000        0.000        1.000        0.000        2.000        0.000        0.000        0.000        1.000        0.000        0.000        0.000        0.000        0.000        2.000        0.000        0.000        0.000        1.000        0.000        0.000        0.000        0.000        0.000        0.000        0.000        3.000        1.000        4.000        0.000        0.000        0.000        0.000        0.000      100.000        0.000        0.000        1.782        1.779        2.952
     640.000  -256299.246    24526.822    14953.270    37664.661      126.782  -380353.558    46782.776       26.116       25.869        2.600        2.461        2.716        2.690        3.146        3.052        3.166        2.968        3.202        3.258        3.028        2.912        2.514        2.608        2.646        2.431        0.494        0.000        0.000        0.000        1.000        0.000        1.000        0.000        0.000        0.000        0.000        0.000        0.000        0.000        1.000        0.000        0.000        0.000        0.000        0.000        1.000        0.000        0.000        0.000        0.000        0.000        0.000        0.000        1.000        0.000        4.000        0.000        3.000        0.000        0.000        0.000      100.000        0.000        0.000        1.924        1.928        2.957
     650.000  -255626.876    25793.711    14982.465    37999.056      102.891  -380757.373    46252.375       26.091       25.836        2.533        2.457        2.732        2.642        3.129        3.086        3.161        2.992        3.199        3.231        3.088        2.999        2.474        2.575        2.636        2.513        0.472        0.000        0.000        0.000        0.000        0.000        2.000        0.000        0.000        0.000        0.000        0.000        0.000        0.000        0.000        0.000        1.000        0.000        0.000        0.000        1.000        0.000        0.000        0.000        0.000        0.000        0.000        0.000        4.000        0.000        6.000        0.000        0.000        0.000        0.000        0.000      100.000        0.000        0.000        1.669        1.688        2.808
     660.000  -256195.928    25400.324    15271.201    37769.091      105.161  -381247.431    46505.726       26.024       26.026        2.558        2.471        2.643        2.654        3.051        3.043        3.148        2.879        3.174        3.186        3.117        3.057        2.526        2.572        2.714        2.518        0.494        1.000        0.000        0.000        1.000        0.000        2.000        0.000        0.000        0.000        0.000        0.000        0.000        0.000        1.000        0.000        1.000        0.000        0.000        0.000        1.000        0.000        0.000        0.000        0.000        0.000        1.000        0.000        2.000        0.000        9.000        0.000        0.000        0.000        4.494        0.000       95.506        0.000        0.000        1.779        1.805        3.003
     670.000  -256243.191    25151.973    15039.743    37790.762      107.036  -380604.359    46271.654       26.105       25.941        2.546        2.459        2.690        2.677        3.110        3.086        3.142        2.981        3.224        3.207        3.084        3.030        2.511        2.607        2.617        2.514        0.478        1.000        0.000        0.000        1.000        1.000        1.000        0.000        0.000        0.000        0.000        0.000        0.000        0.000        0.000        0.000        1.000        0.000        0.000        0.000        1.000        0.000        0.000        0.000        0.000        1.000        2.000        0.000        3.000        3.000        7.000        0.000        1.000        0.000        0.000        0.000      100.000        0.000        0.000        1.806        1.812        3.188
     680.000  -256541.046    24839.589    15087.898    37762.384      118.465  -381404.080    47054.698       25.879       25.691        2.588        2.485        2.653        2.649        3.182        3.056        3.187        2.991        3.203        3.224        3.070        2.940        2.519        2.618        2.622        2.477        0.484        1.000        0.000        0.000        1.000        0.000        2.000        0.000        0.000        0.000        0.000        0.000        0.000        0.000        0.000        0.000        1.000        0.000        0.000        0.000        1.000        0.000        0.000        0.000        0.000        0.000        4.000        0.000        3.000        0.000        6.000        0.000        3.000        0.000        0.000        0.000      100.000        0.000        0.000        1.951        1.959        3.245
     690.000  -256514.371    25313.609    14703.603    37698.943      130.399  -380200.225    45839.300       25.848       25.804        2.618        2.464        2.674        2.685        3.092        3.072        3.193        2.924        3.212        3.242        3.094        3.068        2.513        2.541        2.681        2.490        0.495        0.000        0.000        0.000        1.000        0.000        2.000        0.000        1.000        0.000        0.000        0.000        0.000        0.000        0.000        0.000        1.000        0.000        0.000        0.000        1.000        0.000        0.000        0.000        0.000        1.000        3.000        0.000        1.000        0.000        8.000        0.000        1.000        0.000        0.000        0.000      100.000        0.000        0.000        2.326        2.355        3.527
     700.000  -256113.395    25558.737    15032.809    37895.888      107.787  -380987.481    46278.864       25.869       25.682        2.667        2.468        2.699        2.677        3.090        3.072        3.188        3.013        3.167        3.187        3.135        3.037        2.495        2.519        2.644        2.510        0.478        1.000        0.000        0.000        1.000        0.000        1.000        0.000        0.000        0.000        0.000        0.000        0.000        0.000        0.000        0.000        1.000        0.000        0.000        0.000        1.000        0.000        0.000        0.000        0.000        0.000        2.000        0.000        3.000        2.000        9.000        0.000        0.000        0.000        0.000        0.000      100.000        0.000        0.000        2.491        2.529        3.762
     710.000  -257235.090    24518.637    14798.058    37889.876      111.022  -382207.144    47654.461       25.716       25.977        2.679        2.462        2.691        2.625        3.117        3.120        3.195        2.956        3.238        3.250        3.040        2.983        2.507        2.593        2.661        2.494        0.498        1.000        0.000        0.000        0.000        0.000        2.000        0.000        0.000        0.000        0.000        0.000        0.000        0.000        0.000        0.000        2.000        0.000        0.000        0.000        1.000        0.000        0.000        0.000        0.000        1.000        1.000        0.000        1.000        3.000        6.000        0.000        1.000        0.000        0.000        0.000      100.000        0.000        0.000        2.109        2.115        3.467
     720.000  -256503.280    24976.923    15132.661    37785.755      116.286  -382385.287    47870.382       25.944       25.771        2.670        2.452        2.688        2.682        3.115        3.034        3.151        2.982        3.194        3.207        3.087        2.959        2.525        2.569        2.668        2.464        0.505        1.000        0.000        0.000        1.000        0.000        3.000        0.000        0.000        0.000        0.000        0.000        0.000        0.000        0.000        0.000        3.000        0.000        0.000        0.000        1.000        0.000        0.000        0.000        0.000        0.000        1.000        0.000        2.000        4.000        4.000        0.000        1.000        0.000        0.000        0.000      100.000        0.000        0.000        2.040        2.021        3.309
     730.000  -256993.472    26104.155    15403.940    38009.963       90.271  -382431.261    45829.460       25.926       26.002        2.679        2.484        2.679        2.664        3.133        3.003        3.155        3.025        3.168        3.200        3.128        3.055        2.491        2.583        2.679        2.515        0.494        1.000        0.000        0.000        1.000        0.000        3.000        0.000        0.000        0.000        0.000        0.000        0.000        0.000        0.000        0.000        2.000        0.000        0.000        0.000        1.000        0.000        0.000        0.000        0.000        0.000        0.000        0.000        3.000        3.000        7.000        0.000        4.000        0.000        0.000        0.000      100.000        0.000        0.000        2.174        2.145        3.396
     740.000  -255924.009    26161.145    15209.979    37799.335       96.306  -380970.582    45779.808       25.939       25.809        2.598        2.467        2.667        2.668        3.143        3.079        3.147        3.070        3.166        3.233        3.145        3.084        2.535        2.590        2.672        2.605        0.492        1.000        0.000        0.000        0.000        0.000        0.000        0.000        0.000        0.000        0.000        0.000        0.000        0.000        2.000        0.000        1.000        0.000        0.000        0.000        1.000        0.000        0.000        0.000        0.000        0.000        0.000        0.000        3.000        3.000        3.000        0.000        3.000        0.000        0.000        0.000      100.000        0.000        0.000        2.054        2.025        3.280
     750.000  -256379.248    24931.318    15546.660    37466.596      117.751  -381428.232    46986.659       26.060       25.967        2.541        2.476        2.635        2.696        3.180        3.023        3.142        3.012        3.215        3.277        3.087        3.021        2.472        2.612        2.647        2.589        0.475        1.000        0.000        0.000        1.000        0.000        1.000        0.000        0.000        0.000        0.000        0.000        0.000        0.000        0.000        0.000        1.000        0.000        0.000        0.000        1.000        0.000        0.000        0.000        0.000        0.000        0.000        0.000        3.000        0.000        4.000        0.000        0.000        0.000        0.000        0.000      100.000        0.000        0.000        2.127        2.091        3.396
     760.000  -256519.604    26194.574    15310.624    37636.363       95.701  -380889.652    45132.786       26.187       26.023        2.520        2.448        2.713        2.656        3.136        3.054        3.174        3.053        3.210        3.222        3.128        3.028        2.496        2.616        2.679        2.546        0.473        0.000        0.000        0.000        1.000        0.000        1.000        0.000        0.000        0.000        0.000        0.000        0.000        0.000        2.000        0.000        2.000        0.000        0.000        0.000        1.000        0.000        0.000        0.000        0.000        0.000        0.000        0.000        2.000        1.000        7.000        0.000        0.000        0.000        0.000        0.000      100.000        0.000        0.000        1.883        1.858        3.503
     770.000  -256567.763    25600.207    15598.082    37493.713      103.767  -381289.934    45926.402       26.144       26.442        2.574        2.470        2.683        2.671        3.185        3.090        3.142        3.032        3.235        3.242        3.058        3.013        2.508        2.587        2.715        2.600        0.497        0.000        0.000        0.000        1.000        0.000        1.000        0.000        0.000        0.000        0.000        0.000        0.000        0.000        0.000        0.000        2.000        0.000        0.000        0.000        1.000        0.000        0.000        0.000        0.000        0.000        3.000        0.000        2.000        2.000        4.000        0.000        1.000        0.000        0.000        0.000      100.000        0.000        0.000        1.932        1.886        3.471
     780.000  -256257.305    25012.697    15671.873    37615.199      121.439  -380845.082    46166.568       25.946       26.248        2.587        2.429        2.713        2.686        3.147        3.135        3.151        3.074        3.293        3.216        3.089        2.976        2.506        2.614        2.733        2.620        0.500        0.000        0.000        0.000        0.000        0.000        0.000        0.000        0.000        0.000        0.000        0.000        0.000        0.000        0.000        0.000        1.000        0.000        0.000        0.000        0.000        0.000        0.000        0.000        0.000        0.000        1.000        0.000        2.000        0.000        3.000        0.000        1.000        0.000        0.000        0.000      100.000        0.000        0.000        1.935        1.910        3.565
     790.000  -256402.007    25555.084    15175.863    37826.326      129.697  -381501.029    46412.051       26.091       26.191        2.518        2.439        2.699        2.662        3.165        3.030        3.200        3.098        3.217        3.269        3.109        2.992        2.505        2.622        2.662        2.581        0.500        0.000        0.000        0.000        0.000        0.000        2.000        0.000        0.000        0.000        0.000        0.000        0.000        0.000        0.000        0.000        2.000        0.000        0.000        0.000        0.000        0.000        0.000        0.000        0.000        0.000        2.000        0.000        4.000        0.000        2.000        0.000        0.000        0.000        0.000        0.000      100.000        0.000        0.000        1.952        1.927        3.570
     800.000  -256689.123    24549.877    14888.264    37617.340      127.337  -381617.991    47746.051       25.892       26.172        2.503        2.448        2.706        2.685        3.143        3.106        3.129        2.994        3.249        3.215        3.069        2.947        2.481        2.580        2.652        2.546        0.499        0.000        0.000        0.000        0.000        0.000        1.000        0.000        0.000        0.000        0.000        0.000        0.000        0.000        0.000        0.000        1.000        0.000        0.000        0.000        0.000        0.000        0.000        0.000        0.000        0.000        1.000        0.000        2.000        1.000        1.000        0.000        1.000        0.000        0.000        0.000      100.000        0.000        0.000        1.909        1.878        3.437
     810.000  -256382.570    25915.922    15263.585    37991.292      115.592  -381824.023    46155.062       25.951       26.065        2.642        2.479        2.723        2.696        3.155        3.082        3.201        2.987        3.235        3.191        3.126        2.933        2.485        2.526        2.680        2.604        0.486        0.000        0.000        0.000        0.000        0.000        1.000        0.000        0.000        0.000        0.000        0.000        0.000        0.000        2.000        0.000        1.000        0.000        0.000        0.000        0.000        0.000        0.000        0.000        0.000        2.000        1.000        0.000        2.000        2.000        4.000        0.000        3.000        0.000        0.000        0.000      100.000        0.000        0.000        1.872        1.846        3.287
     820.000  -256493.754    25012.143    15032.047    37669.728       91.750  -381173.776    46874.354       26.005       26.089        2.600        2.465        2.681        2.647        3.104        3.083        3.155        2.992        3.181        3.185        3.128        3.039        2.496        2.554        2.690        2.623        0.482        0.000        0.000        0.000        0.000        0.000        0.000        0.000        0.000        0.000        0.000        0.000        0.000        0.000        1.000        0.000        2.000        0.000        0.000        0.000        0.000        0.000        0.000        0.000        0.000        2.000        1.000        0.000        1.000        0.000        1.000        0.000        2.000        0.000        0.000        0.000      100.000        0.000        0.000        1.986        1.969        3.386
     830.000  -256541.281    26474.321    15320.192    37574.055      118.535  -380506.592    44478.208       25.980       25.935        2.599        2.468        2.695        2.680        3.133        3.087        3.168        3.020        3.179        3.191        3.081        3.102        2.541        2.587        2.739        2.657        0.502        0.000        0.000        0.000        0.000        0.000        2.000        0.000        0.000        0.000        0.000        0.000        0.000        0.000        0.000        0.000        0.000        0.000        0.000        0.000        0.000        0.000        0.000        0.000        0.000        0.000        2.000        0.000        1.000        1.000        4.000        0.000        1.000        0.000        0.000        0.000      100.000        0.000        0.000        1.978        1.962        3.373
     840.000  -255950.974    25365.809    15052.591    37795.505      111.546  -381249.077    46972.652       26.094       25.863        2.586        2.440        2.700        2.691        3.128        3.025        3.208        3.080        3.227        3.191        3.098        3.042        2.506        2.564        2.661        2.637        0.512        0.000        0.000        0.000        0.000        0.000        0.000        0.000        0.000        0.000        0.000        0.000        0.000        0.000        1.000        0.000        1.000        0.000        0.000        0.000        0.000        0.000        0.000        0.000        0.000        1.000        1.000        0.000        3.000        2.000        4.000        0.000        1.000        0.000        0.000        0.000      100.000        0.000        0.000        2.241        2.211        3.466
     850.000  -256466.196    26055.301    15254.316    37743.446       97.466  -381294.047    45677.321       26.374       25.974        2.607        2.473        2.736        2.648        3.104        3.105        3.255        3.078        3.260        3.201        3.099        3.003        2.505        2.597        2.704        2.624        0.492        0.000        0.000        0.000        0.000        0.000        1.000        0.000        0.000        0.000        0.000        0.000        0.000        0.000        1.000        0.000        1.000        0.000        0.000        0.000        0.000        0.000        0.000        0.000        0.000        1.000        2.000        0.000        2.000        1.000        2.000        0.000        0.000        0.000        0.000        0.000      100.000        0.000        0.000        2.202        2.179        3.524
     860.000  -256439.748    24625.433    14798.845    37811.281      130.019  -380080.939    46275.611       26.152       25.953        2.599        2.499        2.689        2.648        3.146        3.057        3.180        2.962        3.270        3.198        3.145        2.997        2.468        2.571        2.671        2.618        0.478        0.000        0.000        0.000        0.000        0.000        2.000        0.000        0.000        0.000        0.000        0.000        0.000        0.000        0.000        0.000        3.000        0.000        0.000        0.000        0.000        0.000        0.000        0.000        0.000        2.000        0.000        0.000        2.000        1.000        4.000        0.000        1.000        0.000        0.000        0.000      100.000        0.000        0.000        2.025        2.012        3.556
     870.000  -256759.693    26060.278    14866.773    37718.744      125.170  -381735.020    46204.362       26.075       25.806        2.559        2.477        2.720        2.699        3.143        3.049        3.139        2.923        3.232        3.194        3.147        3.036        2.502        2.555        2.716        2.596        0.503        0.000        0.000        0.000        0.000        0.000        1.000        0.000        0.000        0.000        0.000        0.000        0.000        0.000        1.000        0.000        2.000        0.000        0.000        0.000        0.000        0.000        0.000        0.000        0.000        1.000        1.000        0.000        3.000        2.000        6.000        0.000        3.000        0.000        0.000        0.000      100.000        0.000        0.000        2.076        2.067        3.591
     880.000  -255524.704    25230.039    15384.961    37689.949       88.659  -380629.187    46710.876       25.950       26.040        2.567        2.456        2.692        2.655        3.089        3.084        3.210        2.933        3.246        3.193        3.120        3.046        2.524        2.572        2.690        2.595        0.495        0.000        0.000        0.000        1.000        0.000        2.000        0.000        0.000        0.000        0.000        0.000        0.000        0.000        0.000        0.000        2.000        0.000        0.000        0.000        0.000        0.000        0.000        0.000        0.000        0.000        3.000        0.000        1.000        0.000        5.000        0.000        0.000        0.000        0.000        0.000      100.000        0.000        0.000        2.006        1.959        3.628
     890.000  -256007.198    26469.904    15130.658    37585.499      118.275  -381108.668    45797.134       26.222       26.249        2.558        2.438        2.722        2.670        3.160        3.068        3.137        3.011        3.225        3.246        3.127        3.127        2.497        2.597        2.687        2.605        0.489        0.000        0.000        0.000        1.000        0.000        2.000        0.000        0.000        0.000        0.000        0.000        0.000        0.000        0.000        0.000        2.000        0.000        0.000        0.000        0.000        0.000        0.000        0.000        0.000        2.000        1.000        0.000        2.000        0.000        3.000        0.000        1.000        0.000        0.000        0.000      100.000        0.000        0.000        2.084        2.034        3.602
     900.000  -256381.605    26109.910    14968.836    37606.201       96.702  -380841.815    45678.561       26.178       26.061        2.643        2.472        2.699        2.655        3.150        3.096        3.161        2.986        3.210        3.248        3.171        3.037        2.505        2.560        2.662        2.604        0.503        0.000        0.000        0.000        0.000        0.000        1.000        0.000        0.000        0.000        0.000        0.000        0.000        0.000        1.000        0.000        1.000        0.000        0.000        0.000        0.000        0.000        0.000        0.000        0.000        0.000        2.000        0.000        3.000        0.000        4.000        0.000        2.000        0.000        0.000        0.000      100.000        0.000        0.000        2.112        2.064        3.680
     910.000  -256674.769    25970.509    14941.968    37601.183      123.103  -381207.019    45895.487       26.254       26.083        2.603        2.461        2.672        2.683        3.180        3.086        3.149        2.994        3.257        3.223        3.038        3.054        2.458        2.605        2.671        2.642        0.503        0.000        0.000        0.000        1.000        0.000        1.000        0.000        0.000        0.000        0.000        0.000        0.000        0.000        0.000        0.000        3.000        0.000        0.000        0.000        0.000        0.000        0.000        0.000        0.000        0.000        0.000        0.000        1.000        0.000        5.000        0.000        0.000        0.000        0.000        0.000      100.000        0.000        0.000        2.277        2.254        3.645
     920.000  -255728.012    24953.128    14866.652    37773.563      119.783  -380862.638    47421.501       26.153       25.934        2.646        2.473        2.691        2.672        3.105        3.134        3.090        3.031        3.246        3.210        3.115        3.042        2.477        2.553        2.663        2.598        0.499        0.000        0.000        0.000        1.000        0.000        1.000        0.000        0.000        0.000        0.000        0.000        0.000        0.000        1.000        0.000        1.000        0.000        0.000        0.000        0.000        0.000        0.000        0.000        0.000        3.000        0.000        0.000        3.000        0.000        2.000        0.000        0.000        0.000        0.000        0.000      100.000        0.000        0.000        2.276        2.269        3.690
     930.000  -255942.476    24361.941    15177.637    37716.925      102.780  -379237.338    45935.579       26.209       26.088        2.548        2.438        2.700        2.628        3.159        3.022        3.169        3.035        3.244        3.187        3.076        3.075        2.477        2.591        2.656        2.578        0.501        0.000        0.000        0.000        0.000        0.000        1.000        0.000        0.000        0.000        0.000        0.000        0.000        0.000        1.000        0.000        2.000        0.000        0.000        0.000        0.000        0.000        0.000        0.000        0.000        2.000        1.000        0.000        1.000        0.000        0.000        0.000        0.000        0.000        0.000        0.000      100.000        0.000        0.000        2.349        2.338        3.842
     940.000  -256525.868    25350.895    15277.627    37587.162      116.394  -381705.879    46847.933       26.141       26.303        2.608        2.480        2.700        2.665        3.139        3.049        3.182        3.057        3.227        3.222        3.096        3.105        2.473        2.627        2.671        2.584        0.496        0.000        0.000        0.000        0.000        0.000        2.000        0.000        0.000        0.000        0.000        0.000        0.000        0.000        0.000        0.000        1.000        0.000        0.000        0.000        0.000        0.000        0.000        0.000        0.000        1.000        3.000        0.000        0.000        0.000        1.000        0.000        2.000        0.000        0.000        0.000      100.000        0.000        0.000        2.224        2.212        3.818
     950.000  -256408.410    25365.010    15408.246    37609.245       98.724  -381229.402    46339.768       25.798       25.997        2.608        2.498        2.673        2.674        3.080        3.052        3.159        3.031        3.245        3.264        3.146        3.067        2.472        2.638        2.686        2.603        0.469        0.000        0.000        0.000        1.000        0.000        2.000        0.000        0.000        0.000        0.000        0.000        0.000        0.000        1.000        0.000        0.000        0.000        0.000        0.000        0.000        0.000        0.000        0.000        0.000        2.000        2.000        0.000        2.000        0.000        2.000        0.000        0.000        0.000        0.000        0.000      100.000        0.000        0.000        2.408        2.408        3.892
     960.000  -256006.616    25109.219    14953.447    37961.144      117.297  -381080.469    46932.746       25.864       26.190        2.636        2.430        2.738        2.650        3.132        3.086        3.162        3.041        3.187        3.247        3.106        3.081        2.459        2.643        2.648        2.604        0.484        0.000        0.000        0.000        1.000        0.000        2.000        0.000        0.000        0.000        0.000        0.000        0.000        0.000        0.000        0.000        0.000        0.000        0.000        0.000        0.000        0.000        0.000        0.000        0.000        1.000        0.000        0.000        3.000        0.000        3.000        0.000        3.000        0.000        0.000        0.000      100.000        0.000        0.000        2.564        2.551        4.214
     970.000  -256398.243    25896.422    15092.050    37822.728      105.604  -380758.723    45443.676       25.963       26.182        2.636        2.455        2.694        2.677        3.114        3.081        3.195        3.043        3.218        3.279        3.095        2.993        2.529        2.598        2.664        2.648        0.489        0.000        0.000        0.000        1.000        0.000        1.000        0.000        0.000        0.000        0.000        0.000        0.000        0.000        0.000        0.000        1.000        0.000        0.000        0.000        0.000        0.000        0.000        0.000        0.000        1.000        0.000        0.000        0.000        1.000        6.000        0.000        0.000        0.000        0.000        0.000      100.000        0.000        0.000        2.411        2.399        4.140
     980.000  -255628.218    25548.978    15123.961    37663.962      121.841  -381128.548    47041.589       26.340       26.393        2.600        2.466        2.732        2.658        3.141        3.087        3.208        2.987        3.221        3.225        3.113        3.060        2.486        2.594        2.675        2.560        0.488        0.000        0.000        0.000        1.000        0.000        2.000        0.000        0.000        0.000        0.000        0.000        0.000        0.000        0.000        0.000        3.000        0.000        0.000        0.000        0.000        0.000        0.000        0.000        0.000        2.000        1.000        0.000        2.000        0.000        4.000        0.000        0.000        0.000        4.494        0.000       95.506        0.000        0.000        2.899        2.923        4.284
     990.000  -256453.529    25015.739    15189.167    37759.816      113.679  -381272.407    46740.476       25.963       26.200        2.601        2.473        2.706        2.682        3.122        3.098        3.152        3.002        3.246        3.228        3.063        2.987        2.537        2.595        2.652        2.614        0.476        0.000        0.000        0.000        1.000        0.000        2.000        0.000        0.000        0.000        0.000        0.000        0.000        0.000        0.000        0.000        0.000        0.000        0.000        0.000        0.000        0.000        0.000        0.000        0.000        2.000        1.000        0.000        3.000        0.000        9.000        0.000        2.000        0.000        4.494        0.000       95.506        0.000        0.000        2.504        2.492        4.098
    1000.000  -255535.008    24476.155    15035.551    37592.031       95.246  -380073.921    47339.930       26.274       26.369        2.564        2.467        2.722        2.674        3.208        3.083        3.215        3.002        3.236        3.207        3.134        3.077        2.516        2.638        2.675        2.622        0.511        0.000        0.000        0.000        1.000        0.000        2.000        0.000        0.000        0.000        0.000        0.000        0.000        0.000        0.000        0.000        3.000        0.000        0.000        0.000        0.000        0.000        0.000        0.000        0.000        1.000        3.000        0.000        1.000        1.000        4.000        0.000        0.000        0.000        4.494        0.000       95.506        0.000        0.000        2.664        2.648        4.036
     Average  -258202.177    25807.828    15224.973    37764.443      109.875  -384388.978    47279.683       26.025       25.951        2.636        2.473        2.700        2.654        3.139        3.033        3.173        2.995        3.208        3.210        3.078        3.135        2.497        2.589        2.666        2.566        0.488        0.109        0.000        0.000        0.307        0.465        2.307        0.000        0.010        0.000        0.020        0.000        0.050        0.000        0.703        0.000        1.455        0.000        0.000        0.000        0.248        0.000        0.000        0.000        0.000        1.050        1.030        0.000        1.733        1.168        4.960        0.000        1.248        0.000        0.745        0.000       99.255        0.000        0.000        2.128        2.141        3.122

