____Time[ps] Energy[ kJ/mol ]_____Bond _______Angle ____Dihedral ___Planarity _____Coulomb _________VdW _Your result _Your result _Your result _Your result _Your result _Your result _Your result _Your result _Your result _Your result _Your result _Your result _Your result _Your result _Your result _Your result _Your result _Your result _Your result _Your result _Your result _Your result _Your result _Your result _Your result _Your result _Your result _Your result _Your result _Your result _Your result _Your result _Your result _Your result _Your result _Your result _Your result _Your result _Your result _Your result _Your result _Your result _Your result _Your result _Your result _Your result _Your result _Your result _Your result _Your result _Your result _Your result _Your result _Your result _Your result _Your result _Your result _RMSDs[A]:CA ____Backbone __HeavyAtoms
       0.000  -293498.604     6477.627     4668.204    39589.703       15.881  -401391.446    57141.428       25.317       25.227        2.522        2.607        2.606        2.675        2.642        2.566        2.702        2.522        2.705        2.590        2.439        2.678        3.056        2.942        2.468        2.568        0.486        1.000        1.000        0.000        0.000        3.000        5.000        0.000        1.000        0.000        0.000        0.000        0.000        0.000        0.000        0.000        2.000        0.000        0.000        0.000        0.000        0.000        0.000        0.000        0.000        2.000        1.000        2.000        0.000        1.000        4.000        0.000        2.000        0.000        0.000        0.000      100.000        0.000        0.000        0.391        0.422        0.520
      10.000  -221105.580    25347.568    13235.452    38978.731      130.198  -339262.626    40465.098       25.940       25.671        2.344        2.615        2.618        2.641        2.666        2.591        2.698        2.471        2.694        2.621        2.425        2.550        3.074        2.950        2.488        2.581        0.465        1.000        1.000        0.000        1.000        1.000        3.000        0.000        1.000        0.000        0.000        0.000        0.000        0.000        0.000        0.000        2.000        0.000        0.000        0.000        1.000        0.000        0.000        0.000        0.000        2.000        1.000        2.000        3.000        0.000        4.000        0.000        3.000        0.000        0.000        0.000      100.000        0.000        0.000        1.171        1.173        1.359
      20.000  -221589.055    25170.687    13461.393    38786.163       89.996  -339254.286    40156.993       25.875       25.730        2.429        2.594        2.680        2.647        2.682        2.594        2.702        2.463        2.690        2.594        2.438        2.494        3.037        2.977        2.489        2.588        0.490        2.000        1.000        0.000        0.000        2.000        3.000        0.000        1.000        0.000        0.000        0.000        0.000        0.000        0.000        0.000        1.000        0.000        0.000        0.000        1.000        0.000        0.000        0.000        0.000        2.000        0.000        2.000        0.000        0.000        3.000        0.000        0.000        0.000        0.000        0.000      100.000        0.000        0.000        1.452        1.475        1.540
      30.000  -220984.142    25369.453    14276.324    38621.152      119.938  -340949.986    41578.977       25.885       25.532        2.450        2.625        2.621        2.687        2.657        2.608        2.736        2.508        2.640        2.616        2.425        2.491        3.117        2.997        2.554        2.599        0.480        1.000        1.000        0.000        1.000        2.000        3.000        0.000        0.000        0.000        2.000        0.000        0.000        0.000        0.000        0.000        1.000        0.000        0.000        0.000        1.000        0.000        0.000        0.000        0.000        3.000        1.000        3.000        3.000        2.000        4.000        0.000        2.000        0.000        0.000        0.000      100.000        0.000        0.000        1.674        1.703        1.755
      40.000  -220360.912    23714.340    13972.997    38860.386      106.494  -338499.985    41484.856       25.979       25.738        2.407        2.592        2.625        2.679        2.656        2.573        2.736        2.510        2.698        2.582        2.496        2.563        3.112        2.976        2.637        2.522        0.481        1.000        1.000        0.000        0.000        1.000        2.000        0.000        1.000        0.000        0.000        0.000        0.000        0.000        0.000        0.000        2.000        0.000        0.000        0.000        1.000        0.000        0.000        0.000        0.000        2.000        1.000        3.000        3.000        0.000        6.000        0.000        0.000        0.000        0.000        0.000      100.000        0.000        0.000        1.538        1.572        1.707
      50.000  -220092.200    24670.483    13796.409    38936.376       99.093  -338320.745    40726.185       25.823       25.381        2.395        2.606        2.690        2.659        2.647        2.596        2.681        2.450        2.673        2.619        2.444        2.521        3.053        2.960        2.608        2.606        0.485        2.000        1.000        0.000        0.000        0.000        2.000        0.000        1.000        0.000        0.000        0.000        0.000        0.000        0.000        0.000        3.000        0.000        0.000        0.000        0.000        0.000        0.000        0.000        0.000        3.000        0.000        1.000        1.000        1.000        3.000        0.000        3.000        0.000        0.000        0.000      100.000        0.000        0.000        1.750        1.784        1.950
      60.000  -219805.478    24566.215    14136.364    38630.163      109.971  -338548.572    41300.381       25.970       25.942        2.463        2.651        2.690        2.692        2.616        2.591        2.740        2.521        2.664        2.603        2.482        2.544        3.010        3.108        2.569        2.628        0.482        1.000        1.000        0.000        0.000        0.000        2.000        0.000        1.000        0.000        0.000        0.000        0.000        0.000        1.000        0.000        1.000        0.000        0.000        0.000        0.000        0.000        0.000        0.000        0.000        2.000        2.000        1.000        4.000        2.000        5.000        1.000        2.000        0.000        0.000        0.000      100.000        0.000        0.000        1.582        1.597        1.799
      70.000  -220078.458    22666.955    14162.792    38939.789       85.171  -336916.351    40983.187       25.784       25.807        2.426        2.555        2.701        2.689        2.656        2.562        2.722        2.556        2.668        2.610        2.482        2.498        3.050        3.021        2.577        2.544        0.490        1.000        0.000        0.000        0.000        1.000        3.000        0.000        1.000        0.000        1.000        0.000        0.000        0.000        1.000        0.000        2.000        0.000        0.000        0.000        0.000        0.000        0.000        0.000        0.000        3.000        3.000        2.000        1.000        1.000        6.000        0.000        2.000        0.000        0.000        0.000      100.000        0.000        0.000        1.396        1.427        1.634
      80.000  -220599.604    22688.674    14020.696    38612.702       87.860  -337551.813    41542.278       25.893       25.757        2.375        2.598        2.688        2.683        2.623        2.588        2.746        2.534        2.669        2.569        2.478        2.460        3.051        3.060        2.565        2.559        0.482        0.000        1.000        0.000        0.000        0.000        3.000        0.000        1.000        0.000        0.000        0.000        0.000        0.000        0.000        0.000        1.000        0.000        0.000        0.000        0.000        0.000        0.000        0.000        0.000        4.000        4.000        2.000        1.000        1.000        5.000        0.000        3.000        0.000        0.000        0.000      100.000        0.000        0.000        1.468        1.463        1.719
      90.000  -220261.484    23901.013    13902.248    38895.641       87.150  -336412.340    39364.804       25.814       25.766        2.392        2.625        2.721        2.687        2.646        2.556        2.692        2.570        2.670        2.570        2.458        2.524        3.020        3.055        2.609        2.611        0.493        1.000        1.000        0.000        0.000        0.000        3.000        0.000        1.000        0.000        0.000        0.000        0.000        0.000        0.000        0.000        0.000        0.000        0.000        0.000        0.000        0.000        0.000        0.000        0.000        3.000        3.000        0.000        2.000        2.000        2.000        0.000        4.000        0.000        0.000        0.000      100.000        0.000        0.000        1.381        1.391        1.722
     100.000  -218816.485    22847.586    14205.018    38633.273       99.371  -335881.553    41279.819       26.023       25.798        2.421        2.624        2.699        2.630        2.652        2.562        2.703        2.525        2.707        2.620        2.478        2.521        3.001        3.071        2.573        2.563        0.518        1.000        1.000        0.000        0.000        1.000        3.000        0.000        1.000        0.000        0.000        0.000        0.000        0.000        0.000        0.000        3.000        0.000        0.000        0.000        1.000        0.000        0.000        0.000        0.000        5.000        2.000        1.000        3.000        0.000        2.000        0.000        1.000        0.000        0.000        0.000      100.000        0.000        0.000        1.585        1.617        2.001
     110.000  -219372.174    23275.584    13858.896    38962.647      123.677  -335882.914    40289.936       25.963       25.811        2.511        2.694        2.662        2.665        2.661        2.574        2.701        2.492        2.692        2.558        2.501        2.498        3.066        3.025        2.579        2.586        0.482        1.000        0.000        0.000        0.000        1.000        3.000        0.000        1.000        0.000        0.000        0.000        0.000        0.000        0.000        0.000        2.000        0.000        0.000        0.000        1.000        0.000        0.000        0.000        0.000        1.000        1.000        0.000        2.000        0.000        6.000        0.000        3.000        0.000        0.000        0.000      100.000        0.000        0.000        1.595        1.632        1.981
     120.000  -219335.855    23396.250    13836.943    38735.532      109.341  -333914.178    38500.258       26.025       25.947        2.561        2.665        2.735        2.697        2.650        2.539        2.708        2.553        2.672        2.618        2.466        2.521        3.105        3.002        2.617        2.631        0.481        1.000        1.000        0.000        0.000        1.000        4.000        0.000        1.000        0.000        0.000        0.000        0.000        0.000        0.000        0.000        1.000        0.000        0.000        0.000        0.000        0.000        0.000        0.000        0.000        2.000        0.000        2.000        2.000        0.000        2.000        0.000        1.000        0.000        0.000        0.000      100.000        0.000        0.000        1.724        1.727        2.080
     130.000  -218867.498    22673.939    13903.455    38953.452       90.898  -335611.384    41122.142       26.324       25.934        2.513        2.637        2.706        2.665        2.731        2.562        2.685        2.553        2.683        2.560        2.477        2.450        3.068        3.049        2.585        2.619        0.498        1.000        1.000        0.000        0.000        0.000        3.000        0.000        1.000        0.000        0.000        0.000        0.000        0.000        0.000        0.000        1.000        0.000        0.000        0.000        0.000        0.000        0.000        0.000        0.000        2.000        1.000        3.000        4.000        0.000        7.000        0.000        4.000        0.000        0.000        0.000      100.000        0.000        0.000        1.613        1.623        1.980
     140.000  -218703.293    23826.683    13873.937    38543.902      130.986  -333751.814    38673.013       25.993       25.579        2.590        2.626        2.714        2.682        2.672        2.628        2.676        2.524        2.661        2.587        2.496        2.459        3.065        2.958        2.585        2.597        0.490        0.000        1.000        0.000        0.000        0.000        3.000        0.000        1.000        0.000        0.000        0.000        0.000        0.000        0.000        0.000        0.000        0.000        0.000        0.000        0.000        0.000        0.000        0.000        0.000        0.000        0.000        1.000        3.000        1.000        2.000        2.000        1.000        0.000        0.000        0.000      100.000        0.000        0.000        1.398        1.421        1.786
     150.000  -218536.832    22305.250    13783.813    38962.178      114.474  -334196.421    40493.874       26.303       25.766        2.590        2.621        2.707        2.662        2.659        2.583        2.698        2.500        2.586        2.522        2.480        2.503        3.055        2.997        2.596        2.589        0.490        0.000        0.000        0.000        0.000        0.000        2.000        0.000        1.000        0.000        0.000        0.000        0.000        0.000        0.000        0.000        1.000        0.000        0.000        0.000        0.000        0.000        0.000        0.000        0.000        3.000        2.000        2.000        5.000        1.000        4.000        2.000        8.000        0.000        0.000        0.000      100.000        0.000        0.000        1.727        1.744        2.046
     160.000  -218474.875    23060.352    13717.973    38920.784      115.500  -334625.006    40335.522       26.163       25.576        2.541        2.548        2.660        2.667        2.701        2.565        2.676        2.570        2.629        2.570        2.466        2.513        2.976        3.037        2.583        2.569        0.486        1.000        0.000        0.000        0.000        1.000        2.000        0.000        1.000        0.000        0.000        0.000        0.000        0.000        0.000        0.000        1.000        0.000        0.000        0.000        0.000        0.000        0.000        0.000        0.000        2.000        0.000        1.000        3.000        0.000        7.000        0.000        3.000        0.000        0.000        0.000      100.000        0.000        0.000        1.958        1.974        2.141
     170.000  -218263.888    22705.592    13876.338    38961.881       92.529  -334604.319    40704.092       26.328       25.727        2.532        2.625        2.688        2.666        2.697        2.561        2.711        2.498        2.666        2.518        2.461        2.498        3.046        2.961        2.603        2.608        0.465        1.000        0.000        1.000        0.000        0.000        2.000        0.000        1.000        0.000        1.000        0.000        0.000        0.000        0.000        0.000        2.000        0.000        0.000        0.000        0.000        0.000        0.000        0.000        0.000        2.000        1.000        0.000        4.000        2.000        6.000        0.000        4.000        0.000        0.000        0.000      100.000        0.000        0.000        2.035        2.046        2.254
     180.000  -218926.192    22558.162    13781.341    38927.113      112.639  -333821.563    39516.116       26.177       25.960        2.593        2.632        2.692        2.695        2.696        2.540        2.697        2.528        2.602        2.624        2.492        2.493        3.061        2.924        2.600        2.622        0.491        1.000        0.000        0.000        0.000        0.000        3.000        0.000        1.000        0.000        0.000        0.000        2.000        0.000        0.000        0.000        2.000        0.000        0.000        0.000        0.000        0.000        0.000        0.000        0.000        2.000        2.000        1.000        5.000        1.000        6.000        0.000        5.000        0.000        0.000        0.000      100.000        0.000        0.000        1.875        1.901        2.024
     190.000  -217977.090    22617.741    13686.544    38687.177       75.125  -331962.707    38919.030       26.298       26.024        2.614        2.615        2.714        2.690        2.676        2.554        2.706        2.515        2.628        2.563        2.468        2.481        3.043        2.958        2.618        2.575        0.478        1.000        1.000        0.000        0.000        0.000        1.000        0.000        1.000        0.000        0.000        0.000        0.000        0.000        1.000        0.000        2.000        0.000        0.000        0.000        0.000        0.000        0.000        0.000        0.000        2.000        2.000        2.000        5.000        2.000        6.000        0.000        2.000        0.000        0.000        0.000      100.000        0.000        0.000        1.973        2.039        2.169
     200.000  -217901.549    22284.156    13589.521    39062.483      128.102  -333133.720    40167.909       26.176       25.878        2.596        2.597        2.735        2.689        2.684        2.597        2.720        2.519        2.660        2.596        2.464        2.439        3.088        2.985        2.584        2.525        0.466        1.000        1.000        0.000        0.000        0.000        2.000        0.000        1.000        0.000        0.000        0.000        0.000        0.000        0.000        0.000        2.000        0.000        0.000        0.000        0.000        0.000        0.000        0.000        0.000        2.000        4.000        0.000        8.000        0.000        3.000        0.000        4.000        0.000        0.000        0.000      100.000        0.000        0.000        1.737        1.801        1.956
     210.000  -218029.232    22533.983    13769.371    38817.428       95.154  -332362.528    39117.361       26.245       25.900        2.527        2.630        2.743        2.626        2.716        2.599        2.703        2.525        2.702        2.653        2.424        2.545        3.068        2.987        2.655        2.594        0.504        1.000        0.000        0.000        0.000        0.000        2.000        0.000        1.000        0.000        0.000        0.000        0.000        0.000        0.000        0.000        1.000        0.000        0.000        0.000        0.000        0.000        0.000        0.000        0.000        1.000        2.000        0.000        4.000        0.000        5.000        1.000        4.000        0.000        0.000        0.000      100.000        0.000        0.000        1.845        1.891        2.131
     220.000  -217583.323    22120.512    13759.621    38866.035      105.832  -332108.940    39673.618       26.471       25.946        2.587        2.579        2.706        2.673        2.713        2.599        2.669        2.577        2.697        2.574        2.488        2.515        3.101        2.955        2.589        2.581        0.501        2.000        0.000        0.000        0.000        1.000        2.000        0.000        1.000        0.000        1.000        0.000        0.000        0.000        0.000        0.000        1.000        0.000        0.000        0.000        0.000        0.000        0.000        0.000        0.000        0.000        2.000        1.000        5.000        2.000        5.000        0.000        1.000        0.000        4.494        0.000       95.506        0.000        0.000        2.119        2.203        2.370
     230.000  -218087.088    22419.665    13224.609    38896.216      123.144  -331216.620    38465.898       26.467       26.087        2.602        2.610        2.630        2.612        2.688        2.594        2.695        2.546        2.687        2.600        2.484        2.479        3.041        2.990        2.549        2.553        0.499        2.000        0.000        0.000        0.000        0.000        1.000        0.000        1.000        0.000        0.000        0.000        0.000        0.000        0.000        0.000        2.000        0.000        0.000        0.000        0.000        0.000        0.000        0.000        0.000        0.000        1.000        1.000        5.000        2.000        3.000        0.000        4.000        0.000        4.494        0.000       95.506        0.000        0.000        1.888        1.941        2.240
     240.000  -217440.600    22110.556    13930.387    38844.422      119.387  -331816.304    39370.953       26.349       26.065        2.560        2.634        2.631        2.634        2.698        2.623        2.731        2.503        2.688        2.585        2.554        2.568        3.032        3.018        2.598        2.523        0.469        1.000        1.000        0.000        0.000        1.000        2.000        0.000        1.000        0.000        0.000        0.000        0.000        0.000        0.000        0.000        2.000        0.000        0.000        0.000        0.000        0.000        0.000        0.000        0.000        1.000        3.000        2.000        4.000        2.000        7.000        1.000        3.000        0.000        4.494        0.000       95.506        0.000        0.000        1.649        1.698        1.940
     250.000  -216993.874    23175.253    13323.893    38924.733      114.776  -330254.838    37722.310       26.248       25.818        2.584        2.574        2.627        2.591        2.667        2.584        2.690        2.518        2.648        2.609        2.480        2.521        3.052        2.983        2.586        2.495        0.506        0.000        0.000        0.000        0.000        0.000        3.000        0.000        1.000        0.000        1.000        0.000        0.000        0.000        0.000        0.000        3.000        0.000        0.000        0.000        0.000        0.000        0.000        0.000        0.000        1.000        4.000        0.000        5.000        1.000        3.000        0.000        2.000        0.000        4.494        0.000       95.506        0.000        0.000        1.621        1.689        1.964
     260.000  -218540.444    22851.544    13486.861    38878.800      124.386  -332773.161    38891.125       25.874       25.693        2.600        2.623        2.681        2.615        2.649        2.559        2.707        2.499        2.626        2.573        2.481        2.524        2.995        2.933        2.632        2.575        0.497        1.000        0.000        1.000        0.000        0.000        2.000        0.000        1.000        0.000        0.000        0.000        0.000        0.000        1.000        0.000        1.000        0.000        0.000        0.000        0.000        0.000        0.000        0.000        0.000        1.000        2.000        0.000        2.000        1.000        5.000        1.000        0.000        0.000        4.494        0.000       95.506        0.000        0.000        1.723        1.804        2.127
     270.000  -217660.912    21515.409    13283.955    38880.256      114.079  -330528.234    39073.623       25.961       25.754        2.571        2.575        2.656        2.630        2.668        2.561        2.693        2.483        2.657        2.583        2.537        2.525        3.047        2.951        2.621        2.505        0.484        1.000        0.000        1.000        0.000        0.000        3.000        0.000        1.000        0.000        0.000        0.000        0.000        0.000        0.000        0.000        2.000        0.000        0.000        0.000        0.000        0.000        0.000        0.000        0.000        1.000        2.000        2.000        4.000        0.000        4.000        0.000        7.000        0.000        4.494        0.000       95.506        0.000        0.000        1.850        1.901        2.240
     280.000  -216755.209    21672.272    13384.526    38959.876      105.191  -330964.826    40087.752       25.821       25.819        2.551        2.607        2.603        2.558        2.701        2.586        2.750        2.549        2.569        2.569        2.480        2.459        3.104        2.924        2.594        2.573        0.483        1.000        1.000        1.000        0.000        0.000        2.000        0.000        1.000        0.000        0.000        0.000        0.000        0.000        0.000        0.000        1.000        0.000        0.000        0.000        0.000        0.000        0.000        0.000        0.000        3.000        1.000        0.000        5.000        1.000        3.000        0.000        1.000        0.000        0.000        0.000      100.000        0.000        0.000        1.814        1.880        2.291
     290.000  -218305.892    22505.609    13515.569    38811.280      111.082  -331405.718    38156.285       26.112       25.955        2.531        2.570        2.619        2.613        2.685        2.579        2.680        2.540        2.630        2.615        2.432        2.503        3.071        2.984        2.562        2.542        0.469        0.000        0.000        1.000        0.000        0.000        2.000        0.000        0.000        0.000        0.000        0.000        0.000        0.000        0.000        0.000        1.000        0.000        0.000        0.000        0.000        0.000        0.000        0.000        0.000        4.000        1.000        2.000        2.000        1.000        4.000        1.000        2.000        0.000        0.000        0.000      100.000        0.000        0.000        1.866        1.916        2.365
     300.000  -217399.633    22402.758    13505.348    39013.627      123.790  -330653.437    38208.281       25.826       25.956        2.556        2.570        2.627        2.583        2.719        2.597        2.685        2.559        2.654        2.545        2.457        2.518        2.978        2.995        2.574        2.588        0.497        0.000        0.000        1.000        0.000        1.000        2.000        0.000        0.000        0.000        0.000        0.000        0.000        0.000        0.000        0.000        0.000        0.000        0.000        0.000        1.000        0.000        0.000        0.000        0.000        2.000        3.000        0.000        4.000        1.000        2.000        0.000        2.000        0.000        0.000        0.000      100.000        0.000        0.000        1.951        2.005        2.350
     310.000  -217765.697    21532.261    13282.752    38843.159       98.454  -331298.652    39776.327       25.844       25.820        2.549        2.535        2.650        2.603        2.686        2.598        2.667        2.577        2.605        2.575        2.455        2.490        3.088        2.958        2.636        2.562        0.486        1.000        1.000        1.000        1.000        0.000        3.000        0.000        0.000        0.000        0.000        0.000        0.000        0.000        0.000        0.000        0.000        0.000        0.000        0.000        1.000        0.000        0.000        0.000        0.000        3.000        2.000        2.000        3.000        2.000        1.000        1.000        3.000        0.000        4.494        0.000       95.506        0.000        0.000        1.758        1.843        2.217
     320.000  -217344.253    23180.057    13445.647    38769.801      129.350  -330848.099    37978.991       25.772       26.046        2.516        2.590        2.640        2.592        2.711        2.604        2.663        2.531        2.637        2.573        2.420        2.481        3.083        3.034        2.616        2.603        0.479        0.000        1.000        1.000        1.000        0.000        2.000        0.000        0.000        0.000        0.000        0.000        0.000        0.000        0.000        0.000        0.000        0.000        0.000        0.000        1.000        0.000        0.000        0.000        0.000        2.000        1.000        1.000        3.000        0.000        0.000        1.000        4.000        0.000        4.494        0.000       95.506        0.000        0.000        1.870        1.921        2.296
     330.000  -217738.409    21819.022    13194.302    38821.388       89.840  -331222.524    39559.562       25.874       25.911        2.576        2.658        2.697        2.621        2.731        2.607        2.642        2.553        2.668        2.582        2.489        2.480        3.021        3.055        2.587        2.549        0.505        1.000        1.000        1.000        0.000        0.000        2.000        0.000        0.000        0.000        1.000        0.000        0.000        0.000        0.000        0.000        0.000        0.000        0.000        0.000        0.000        0.000        0.000        0.000        0.000        1.000        2.000        0.000        2.000        1.000        8.000        1.000        3.000        0.000        0.000        0.000      100.000        0.000        0.000        1.658        1.710        2.270
     340.000  -217572.337    23181.090    13568.949    38767.598      134.060  -331762.604    38538.571       25.888       25.937        2.612        2.596        2.690        2.586        2.624        2.579        2.702        2.536        2.641        2.658        2.464        2.526        3.137        2.994        2.602        2.579        0.483        0.000        0.000        1.000        1.000        1.000        1.000        0.000        0.000        0.000        0.000        0.000        0.000        0.000        0.000        0.000        3.000        0.000        0.000        0.000        0.000        0.000        0.000        0.000        0.000        1.000        8.000        1.000        2.000        1.000        2.000        1.000        1.000        0.000        4.494        0.000       95.506        0.000        0.000        1.845        1.894        2.508
     350.000  -217796.272    22316.557    13533.637    38763.207      105.343  -331151.358    38636.342       25.704       25.673        2.523        2.619        2.714        2.614        2.670        2.596        2.674        2.558        2.637        2.644        2.472        2.500        3.016        2.951        2.635        2.544        0.490        1.000        0.000        1.000        1.000        1.000        2.000        0.000        0.000        0.000        0.000        0.000        0.000        0.000        0.000        0.000        1.000        0.000        0.000        0.000        1.000        0.000        0.000        0.000        0.000        3.000        3.000        1.000        4.000        2.000        5.000        0.000        2.000        0.000        0.000        0.000      100.000        0.000        0.000        2.305        2.339        2.928
     360.000  -217009.309    21820.182    13557.617    38804.433      124.249  -330568.363    39252.574       25.975       25.611        2.596        2.629        2.692        2.619        2.657        2.593        2.653        2.538        2.585        2.629        2.497        2.510        3.105        3.003        2.598        2.567        0.497        1.000        1.000        1.000        1.000        1.000        2.000        0.000        0.000        0.000        0.000        0.000        1.000        0.000        0.000        0.000        0.000        0.000        0.000        0.000        1.000        0.000        0.000        0.000        0.000        3.000        3.000        0.000        2.000        0.000        5.000        1.000        3.000        0.000        4.494        0.000       95.506        0.000        0.000        2.251        2.284        2.909
     370.000  -217227.954    21856.461    13754.302    38751.101      106.068  -332273.694    40577.808       25.850       25.715        2.563        2.672        2.700        2.580        2.680        2.577        2.637        2.605        2.567        2.518        2.480        2.513        3.024        2.942        2.601        2.512        0.486        1.000        0.000        1.000        1.000        0.000        1.000        0.000        0.000        0.000        0.000        0.000        0.000        0.000        0.000        0.000        1.000        0.000        0.000        0.000        1.000        0.000        0.000        0.000        0.000        1.000        1.000        1.000        2.000        1.000        3.000        0.000        4.000        0.000        0.000        0.000      100.000        0.000        0.000        2.311        2.355        2.819
     380.000  -217366.749    22034.494    13557.855    38689.238      122.220  -330727.614    38957.058       25.425       25.633        2.582        2.599        2.707        2.641        2.718        2.579        2.719        2.522        2.639        2.516        2.451        2.490        3.051        3.001        2.635        2.599        0.482        1.000        0.000        1.000        1.000        0.000        2.000        0.000        1.000        0.000        0.000        0.000        0.000        0.000        0.000        0.000        1.000        0.000        0.000        0.000        1.000        0.000        0.000        0.000        0.000        2.000        4.000        2.000        5.000        2.000        3.000        1.000        3.000        0.000        4.494        0.000       95.506        0.000        0.000        2.417        2.471        2.931
     390.000  -217403.522    21241.975    13286.947    38812.903       99.984  -331082.563    40237.232       25.227       25.336        2.601        2.594        2.711        2.585        2.724        2.559        2.728        2.489        2.610        2.511        2.426        2.526        3.054        2.946        2.583        2.628        0.513        1.000        1.000        1.000        1.000        0.000        2.000        0.000        1.000        0.000        0.000        0.000        0.000        0.000        0.000        0.000        1.000        0.000        0.000        0.000        1.000        0.000        0.000        0.000        0.000        2.000        2.000        0.000        4.000        3.000        3.000        0.000        0.000        0.000        0.000        0.000      100.000        0.000        0.000        2.932        3.017        3.231
     400.000  -217869.023    21511.219    13224.540    38949.821      142.119  -331358.303    39661.581       25.728       25.561        2.554        2.599        2.708        2.573        2.696        2.529        2.681        2.545        2.593        2.581        2.513        2.500        3.167        3.033        2.615        2.581        0.465        1.000        0.000        1.000        1.000        0.000        2.000        0.000        0.000        0.000        0.000        0.000        0.000        0.000        0.000        0.000        0.000        0.000        0.000        0.000        0.000        0.000        0.000        0.000        0.000        3.000        3.000        0.000        3.000        1.000        5.000        0.000        4.000        0.000        4.494        0.000       95.506        0.000        0.000        2.850        2.948        3.116
     410.000  -217836.659    21849.880    13306.530    38892.242      128.261  -330819.706    38806.132       25.451       25.244        2.517        2.564        2.701        2.598        2.695        2.567        2.694        2.575        2.653        2.637        2.446        2.504        3.088        3.037        2.629        2.545        0.479        1.000        1.000        1.000        1.000        0.000        2.000        0.000        1.000        0.000        1.000        0.000        0.000        0.000        0.000        0.000        0.000        0.000        0.000        0.000        1.000        0.000        0.000        0.000        0.000        1.000        1.000        0.000        1.000        1.000        2.000        0.000        3.000        0.000        0.000        0.000      100.000        0.000        0.000        3.017        3.127        3.274
     420.000  -217280.014    22229.473    13446.993    38907.864      113.286  -331470.672    39493.042       25.350       25.326        2.523        2.573        2.718        2.633        2.720        2.562        2.703        2.558        2.618        2.617        2.453        2.500        3.077        2.991        2.655        2.580        0.485        1.000        0.000        1.000        1.000        0.000        2.000        0.000        1.000        0.000        0.000        1.000        0.000        0.000        1.000        0.000        0.000        0.000        0.000        0.000        1.000        0.000        0.000        0.000        0.000        1.000        2.000        2.000        0.000        2.000        2.000        0.000        4.000        0.000        0.000        0.000      100.000        0.000        0.000        3.473        3.552        3.682
     430.000  -216851.486    21618.492    13891.881    38888.663       96.287  -329625.121    38278.312       25.501       25.265        2.529        2.581        2.692        2.570        2.690        2.590        2.652        2.542        2.595        2.646        2.511        2.532        3.058        2.941        2.613        2.621        0.501        0.000        0.000        0.000        1.000        0.000        3.000        0.000        0.000        0.000        0.000        0.000        0.000        0.000        0.000        0.000        1.000        0.000        0.000        0.000        1.000        0.000        0.000        0.000        0.000        2.000        1.000        1.000        4.000        1.000        8.000        1.000        3.000        0.000        0.000        0.000      100.000        0.000        0.000        4.107        4.187        4.075
     440.000  -217910.766    22094.301    13547.598    39084.045      103.870  -330630.270    37889.689       25.611       25.729        2.559        2.585        2.698        2.602        2.715        2.588        2.688        2.485        2.623        2.602        2.538        2.532        3.103        2.954        2.626        2.555        0.487        1.000        1.000        0.000        1.000        0.000        2.000        0.000        0.000        0.000        0.000        0.000        0.000        0.000        0.000        0.000        3.000        0.000        0.000        0.000        1.000        0.000        0.000        0.000        0.000        0.000        2.000        0.000        3.000        2.000        2.000        2.000        2.000        0.000        4.494        0.000       95.506        0.000        0.000        3.364        3.463        3.560
     450.000  -217168.517    22036.075    13329.597    38909.732      148.632  -330845.977    39253.425       25.530       25.508        2.523        2.583        2.608        2.597        2.658        2.575        2.755        2.484        2.602        2.615        2.467        2.516        3.058        3.019        2.637        2.559        0.473        1.000        1.000        1.000        1.000        0.000        1.000        0.000        0.000        0.000        1.000        0.000        0.000        0.000        0.000        0.000        2.000        0.000        0.000        0.000        1.000        0.000        0.000        0.000        0.000        1.000        3.000        0.000        1.000        3.000        5.000        0.000        4.000        0.000        8.989        0.000       91.011        0.000        0.000        3.151        3.270        3.339
     460.000  -216954.012    22041.630    12950.376    38918.702      103.346  -329657.025    38688.959       25.619       25.671        2.539        2.588        2.687        2.615        2.721        2.547        2.667        2.481        2.643        2.616        2.471        2.501        3.062        2.927        2.605        2.650        0.491        0.000        1.000        1.000        1.000        0.000        3.000        0.000        0.000        0.000        0.000        0.000        0.000        0.000        0.000        0.000        2.000        0.000        0.000        0.000        1.000        0.000        0.000        0.000        0.000        2.000        3.000        0.000        2.000        3.000        5.000        0.000        2.000        0.000        4.494        0.000       95.506        0.000        0.000        2.948        3.071        3.114
     470.000  -216938.043    22632.929    13553.230    38763.851      121.643  -330126.606    38116.912       25.738       25.817        2.580        2.583        2.690        2.586        2.729        2.580        2.660        2.544        2.588        2.665        2.492        2.537        3.039        2.980        2.610        2.610        0.508        1.000        1.000        1.000        1.000        0.000        2.000        0.000        0.000        0.000        0.000        0.000        0.000        0.000        0.000        0.000        2.000        0.000        0.000        0.000        1.000        0.000        0.000        0.000        0.000        1.000        3.000        4.000        3.000        2.000        4.000        0.000        1.000        0.000        4.494        0.000       95.506        0.000        0.000        3.544        3.651        3.714
     480.000  -216925.223    22477.294    13212.232    38764.929      103.257  -329435.441    37952.506       25.514       25.520        2.570        2.619        2.618        2.571        2.722        2.598        2.685        2.479        2.605        2.577        2.468        2.522        3.102        2.974        2.638        2.584        0.478        1.000        1.000        1.000        1.000        0.000        3.000        0.000        1.000        0.000        1.000        0.000        0.000        0.000        0.000        0.000        1.000        0.000        0.000        0.000        1.000        0.000        0.000        0.000        0.000        1.000        0.000        1.000        4.000        2.000        0.000        2.000        2.000        0.000        4.494        0.000       95.506        0.000        0.000        3.475        3.615        3.738
     490.000  -217257.212    21751.859    13427.437    38993.878      113.768  -330632.864    39088.711       25.728       25.690        2.594        2.592        2.656        2.561        2.687        2.573        2.697        2.441        2.606        2.604        2.475        2.511        3.083        2.969        2.620        2.543        0.499        1.000        0.000        1.000        1.000        0.000        3.000        0.000        1.000        0.000        1.000        1.000        0.000        0.000        0.000        0.000        1.000        0.000        0.000        0.000        1.000        0.000        0.000        0.000        0.000        3.000        4.000        0.000        2.000        1.000        2.000        0.000        5.000        0.000        4.494        0.000       95.506        0.000        0.000        3.222        3.320        3.556
     500.000  -217069.467    21944.922    13456.823    38751.097      106.836  -330388.208    39059.063       25.616       25.550        2.511        2.656        2.729        2.601        2.722        2.589        2.683        2.582        2.617        2.567        2.499        2.505        3.107        3.040        2.639        2.563        0.488        1.000        0.000        0.000        1.000        0.000        3.000        0.000        1.000        0.000        0.000        0.000        0.000        0.000        0.000        0.000        2.000        0.000        0.000        0.000        1.000        0.000        0.000        0.000        0.000        0.000        1.000        3.000        3.000        1.000        3.000        1.000        2.000        0.000        4.494        0.000       95.506        0.000        0.000        3.084        3.191        3.380
     510.000  -217204.378    22322.308    13560.568    38879.942       80.169  -330194.853    38147.488       25.846       25.883        2.521        2.607        2.707        2.567        2.632        2.617        2.698        2.553        2.627        2.525        2.492        2.541        3.112        3.020        2.602        2.574        0.474        1.000        0.000        0.000        1.000        0.000        2.000        0.000        0.000        0.000        0.000        0.000        1.000        0.000        1.000        0.000        2.000        0.000        0.000        0.000        0.000        0.000        0.000        0.000        0.000        1.000        3.000        3.000        4.000        2.000        3.000        1.000        3.000        0.000        8.989        0.000       91.011        0.000        0.000        2.491        2.594        2.882
     520.000  -216599.800    21231.022    13520.990    38657.858      102.034  -329087.139    38975.435       26.062       25.699        2.545        2.582        2.726        2.559        2.650        2.637        2.737        2.548        2.628        2.580        2.486        2.495        3.045        2.977        2.602        2.521        0.475        1.000        1.000        0.000        1.000        0.000        1.000        0.000        1.000        0.000        0.000        0.000        0.000        0.000        0.000        0.000        0.000        0.000        0.000        0.000        1.000        0.000        0.000        0.000        0.000        0.000        2.000        1.000        2.000        0.000        4.000        1.000        3.000        0.000        0.000        0.000      100.000        0.000        0.000        2.526        2.615        2.828
     530.000  -217234.206    21356.886    13315.459    38720.312      114.394  -329264.201    38522.943       25.966       25.745        2.572        2.550        2.685        2.581        2.655        2.572        2.745        2.485        2.594        2.581        2.532        2.490        3.072        2.942        2.627        2.542        0.487        1.000        1.000        0.000        1.000        0.000        2.000        0.000        1.000        0.000        0.000        0.000        1.000        0.000        0.000        0.000        0.000        0.000        0.000        0.000        0.000        0.000        0.000        0.000        0.000        3.000        2.000        4.000        5.000        2.000        3.000        0.000        1.000        0.000       13.483        0.000       86.517        0.000        0.000        2.814        2.882        3.092
     540.000  -216511.861    21167.049    13516.300    38814.830      117.890  -329792.038    39664.107       25.790       25.551        2.550        2.593        2.663        2.584        2.653        2.568        2.715        2.517        2.581        2.616        2.538        2.526        3.074        2.978        2.646        2.528        0.491        1.000        1.000        0.000        1.000        0.000        2.000        0.000        1.000        0.000        0.000        0.000        0.000        0.000        0.000        0.000        1.000        0.000        0.000        0.000        1.000        0.000        0.000        0.000        0.000        1.000        3.000        2.000        3.000        2.000        3.000        0.000        1.000        0.000        4.494        0.000       95.506        0.000        0.000        3.110        3.206        3.383
     550.000  -216862.548    20736.605    13183.935    38755.775       96.670  -329310.590    39675.056       26.009       26.002        2.571        2.550        2.631        2.577        2.753        2.572        2.681        2.527        2.545        2.633        2.499        2.500        3.080        2.987        2.633        2.552        0.475        1.000        1.000        0.000        1.000        0.000        3.000        0.000        1.000        0.000        0.000        0.000        0.000        0.000        0.000        0.000        0.000        0.000        0.000        0.000        0.000        0.000        0.000        0.000        0.000        2.000        3.000        1.000        3.000        1.000        2.000        0.000        2.000        0.000        4.494        0.000       95.506        0.000        0.000        2.022        2.087        2.483
     560.000  -217183.348    20513.162    13525.865    38854.737      150.438  -329904.029    39676.477       25.986       25.721        2.562        2.624        2.730        2.595        2.691        2.574        2.699        2.515        2.636        2.639        2.478        2.495        3.084        2.977        2.594        2.600        0.484        1.000        0.000        0.000        1.000        0.000        2.000        0.000        1.000        0.000        0.000        0.000        0.000        0.000        0.000        0.000        0.000        0.000        0.000        0.000        1.000        0.000        0.000        0.000        0.000        1.000        2.000        1.000        4.000        0.000        1.000        0.000        5.000        0.000        8.989        0.000       91.011        0.000        0.000        2.011        2.062        2.548
     570.000  -216817.942    21364.825    13164.422    39026.739      104.291  -329827.210    39348.991       25.945       25.750        2.560        2.552        2.661        2.557        2.658        2.578        2.678        2.487        2.587        2.630        2.421        2.502        3.097        2.955        2.603        2.526        0.493        1.000        1.000        0.000        2.000        0.000        3.000        0.000        1.000        0.000        0.000        0.000        0.000        0.000        0.000        0.000        0.000        0.000        0.000        0.000        0.000        0.000        0.000        0.000        0.000        1.000        1.000        1.000        4.000        2.000        3.000        0.000        2.000        0.000        4.494        0.000       95.506        0.000        0.000        1.999        2.073        2.450
     580.000  -216940.210    22356.254    13398.649    38865.583       98.160  -328256.094    36597.238       25.797       25.853        2.584        2.511        2.587        2.597        2.686        2.564        2.691        2.456        2.604        2.583        2.483        2.534        3.072        2.959        2.682        2.547        0.473        1.000        1.000        0.000        2.000        0.000        2.000        0.000        1.000        0.000        0.000        0.000        0.000        0.000        0.000        0.000        0.000        0.000        0.000        0.000        1.000        0.000        0.000        0.000        0.000        0.000        1.000        0.000        2.000        1.000        2.000        0.000        2.000        0.000        4.494        0.000       95.506        0.000        0.000        1.695        1.786        2.285
     590.000  -216841.752    20773.420    13443.062    38818.448       99.582  -329088.620    39112.356       25.909       25.468        2.573        2.570        2.699        2.567        2.693        2.597        2.692        2.521        2.604        2.603        2.503        2.548        3.158        2.971        2.610        2.587        0.472        1.000        1.000        0.000        2.000        0.000        1.000        0.000        1.000        0.000        0.000        0.000        0.000        0.000        0.000        0.000        0.000        0.000        0.000        0.000        1.000        0.000        0.000        0.000        0.000        1.000        5.000        2.000        4.000        1.000        3.000        0.000        2.000        0.000        4.494        0.000       95.506        0.000        0.000        1.888        1.950        2.308
     600.000  -217208.466    21592.002    13256.864    38921.314      110.868  -329554.782    38465.268       25.777       25.588        2.561        2.602        2.658        2.607        2.705        2.566        2.688        2.507        2.643        2.601        2.494        2.532        3.063        2.945        2.604        2.546        0.489        1.000        0.000        0.000        2.000        0.000        1.000        0.000        1.000        0.000        0.000        0.000        1.000        0.000        0.000        0.000        2.000        0.000        0.000        0.000        0.000        0.000        0.000        0.000        0.000        1.000        2.000        3.000        3.000        3.000        3.000        0.000        1.000        0.000        4.494        0.000       95.506        0.000        0.000        2.422        2.478        2.820
     610.000  -216893.518    21636.508    13435.893    38710.926      127.787  -329841.698    39037.067       25.987       25.683        2.574        2.549        2.684        2.537        2.661        2.503        2.687        2.528        2.652        2.648        2.479        2.563        3.066        2.988        2.616        2.561        0.517        0.000        0.000        0.000        2.000        0.000        2.000        0.000        1.000        0.000        0.000        0.000        0.000        0.000        0.000        0.000        0.000        0.000        0.000        0.000        0.000        0.000        0.000        0.000        0.000        0.000        4.000        1.000        4.000        1.000        4.000        0.000        2.000        0.000        0.000        0.000      100.000        0.000        0.000        2.233        2.290        2.644
     620.000  -216945.185    20887.965    13207.382    38887.440      131.518  -330378.978    40319.489       25.988       25.955        2.566        2.548        2.694        2.635        2.696        2.623        2.729        2.407        2.679        2.610        2.491        2.562        3.010        2.965        2.592        2.490        0.476        1.000        0.000        0.000        2.000        0.000        2.000        0.000        1.000        0.000        0.000        0.000        1.000        0.000        0.000        0.000        0.000        0.000        0.000        0.000        0.000        0.000        0.000        0.000        0.000        0.000        4.000        2.000        4.000        3.000        1.000        0.000        0.000        0.000        4.494        0.000       95.506        0.000        0.000        2.275        2.319        2.715
     630.000  -216909.589    21624.910    13411.856    39017.626      121.190  -330116.349    39031.177       25.716       25.592        2.589        2.621        2.723        2.611        2.670        2.592        2.676        2.434        2.666        2.635        2.541        2.559        3.037        2.998        2.608        2.561        0.481        0.000        1.000        0.000        2.000        0.000        2.000        0.000        1.000        0.000        0.000        0.000        0.000        0.000        0.000        0.000        2.000        0.000        0.000        0.000        1.000        0.000        0.000        0.000        0.000        1.000        2.000        4.000        8.000        1.000        1.000        0.000        3.000        0.000        4.494        0.000       95.506        0.000        0.000        2.269        2.324        2.811
     640.000  -216696.658    22298.521    13017.723    38834.738      123.500  -329487.439    38516.299       25.659       25.672        2.573        2.616        2.691        2.592        2.698        2.574        2.666        2.487        2.643        2.582        2.487        2.524        3.110        2.925        2.602        2.498        0.500        0.000        1.000        0.000        1.000        0.000        2.000        0.000        1.000        0.000        0.000        0.000        0.000        0.000        1.000        0.000        1.000        0.000        0.000        0.000        0.000        0.000        0.000        0.000        0.000        1.000        5.000        1.000        5.000        0.000        3.000        0.000        1.000        0.000        0.000        0.000      100.000        0.000        0.000        1.915        1.981        2.695
     650.000  -216732.676    22068.581    13044.927    38955.605      120.481  -328704.827    37782.556       25.647       25.620        2.570        2.587        2.674        2.627        2.681        2.603        2.691        2.454        2.616        2.585        2.456        2.550        3.089        2.972        2.608        2.566        0.481        0.000        0.000        0.000        2.000        0.000        1.000        0.000        1.000        0.000        1.000        0.000        0.000        0.000        0.000        0.000        1.000        0.000        0.000        0.000        0.000        0.000        0.000        0.000        0.000        2.000        1.000        2.000        6.000        2.000        1.000        0.000        4.000        0.000        4.494        0.000       95.506        0.000        0.000        2.112        2.146        2.741
     660.000  -216837.364    21263.406    12889.198    38817.144      111.532  -330157.508    40238.864       25.857       25.821        7.415        2.573        2.685        2.578        2.708        2.590        2.664        2.482        2.657        2.521        2.459        2.513        2.989        2.995        2.593        2.587        0.474        1.000        0.000        0.000        2.000        0.000        1.000        0.000        1.000        0.000        0.000        0.000        0.000        0.000        0.000        0.000        0.000        0.000        0.000        0.000        1.000        0.000        0.000        0.000        0.000        1.000        2.000        5.000        2.000        2.000        2.000        0.000        0.000        0.000        8.989        0.000       91.011        0.000        0.000        1.826        1.850        2.529
     670.000  -217225.813    22556.197    13250.872    39016.615      122.646  -330453.829    38281.686       25.771       25.925       14.734        2.583        2.708        2.641        2.670        2.595        2.691        2.518        2.597        2.579        2.510        2.510        3.037        2.969        2.612        2.567        0.503        1.000        0.000        0.000        2.000        0.000        1.000        0.000        0.000        0.000        0.000        0.000        0.000        0.000        0.000        0.000        0.000        0.000        0.000        0.000        1.000        0.000        0.000        0.000        0.000        0.000        4.000        2.000        6.000        1.000        1.000        0.000        2.000        0.000        4.494        0.000       95.506        0.000        0.000        1.777        1.796        2.630
     680.000  -216808.292    22563.607    13113.841    38912.677      120.684  -329859.162    38340.062       26.065       26.014       14.806        2.548        2.696        2.663        2.725        2.617        2.656        2.563        2.612        2.613        2.406        2.506        3.125        3.029        2.608        2.540        0.502        1.000        0.000        0.000        2.000        0.000        2.000        0.000        1.000        0.000        0.000        0.000        1.000        0.000        0.000        0.000        0.000        0.000        0.000        0.000        1.000        0.000        0.000        0.000        0.000        0.000        2.000        1.000        4.000        0.000        2.000        0.000        4.000        0.000        0.000        0.000      100.000        0.000        0.000        1.941        1.952        2.707
     690.000  -216319.808    21363.712    13144.287    38841.586      108.153  -330526.964    40749.418       25.954       25.844        9.997        2.570        2.654        2.649        2.682        2.550        2.711        2.465        2.602        2.550        2.473        2.481        3.080        2.988        2.563        2.538        0.507        1.000        1.000        0.000        2.000        0.000        2.000        0.000        1.000        0.000        0.000        0.000        0.000        0.000        0.000        0.000        2.000        0.000        0.000        0.000        1.000        0.000        0.000        0.000        0.000        0.000        1.000        2.000        5.000        2.000        0.000        0.000        4.000        0.000        0.000        0.000      100.000        0.000        0.000        1.776        1.811        2.607
     700.000  -216246.554    21133.317    13032.426    39182.286      116.952  -328508.347    38796.813       25.953       26.061        7.540        2.557        2.689        2.614        2.696        2.565        2.641        2.495        2.606        2.495        2.426        2.536        3.064        3.030        2.593        2.565        0.495        1.000        0.000        0.000        2.000        0.000        2.000        0.000        1.000        0.000        0.000        0.000        2.000        0.000        0.000        0.000        2.000        0.000        0.000        0.000        1.000        0.000        0.000        0.000        0.000        0.000        4.000        3.000        4.000        2.000        3.000        0.000        1.000        0.000        0.000        0.000      100.000        0.000        0.000        1.698        1.725        2.596
     710.000  -216560.414    21880.567    13122.641    38927.121      129.085  -328635.347    38015.521       26.228       26.010       14.604        2.607        2.711        2.710        2.644        2.589        2.677        2.450        2.624        2.572        2.454        2.543        3.048        2.987        2.609        2.535        0.476        1.000        1.000        0.000        2.000        0.000        2.000        0.000        0.000        0.000        0.000        0.000        0.000        0.000        0.000        0.000        1.000        0.000        0.000        0.000        1.000        0.000        0.000        0.000        0.000        2.000        0.000        2.000        3.000        1.000        3.000        0.000        3.000        0.000        4.494        0.000       95.506        0.000        0.000        1.925        1.946        2.826
     720.000  -216910.647    21626.670    13232.526    38873.729       93.975  -329294.790    38557.243       25.894       25.899        7.603        2.604        2.634        2.673        2.660        2.577        2.700        2.456        2.621        2.624        2.470        2.524        3.100        2.955        2.610        2.605        0.504        1.000        1.000        0.000        2.000        1.000        2.000        0.000        1.000        0.000        0.000        0.000        0.000        0.000        0.000        0.000        1.000        0.000        0.000        0.000        1.000        0.000        0.000        0.000        0.000        0.000        0.000        0.000        7.000        2.000        0.000        0.000        3.000        0.000        0.000        0.000      100.000        0.000        0.000        1.868        1.873        2.830
     730.000  -216284.797    21404.994    13267.006    38807.237      125.285  -328233.528    38344.210       26.039       25.917        2.549        2.546        2.615        2.677        2.630        2.576        2.660        2.496        2.617        2.596        2.477        2.505        3.109        3.041        2.616        2.556        0.474        1.000        0.000        0.000        2.000        0.000        1.000        0.000        0.000        0.000        0.000        0.000        0.000        0.000        1.000        0.000        2.000        0.000        0.000        0.000        1.000        0.000        0.000        0.000        0.000        0.000        4.000        2.000        2.000        2.000        2.000        0.000        1.000        0.000        4.494        0.000       95.506        0.000        0.000        1.868        1.909        2.827
     740.000  -216217.398    21979.969    13582.868    39007.966      100.663  -329433.774    38544.911       25.599       25.712        7.704        2.605        2.616        2.663        2.656        2.589        2.689        2.519        2.621        2.642        2.472        2.460        3.114        2.946        2.587        2.508        0.478        1.000        0.000        0.000        0.000        0.000        2.000        0.000        1.000        0.000        0.000        0.000        2.000        0.000        0.000        0.000        0.000        0.000        0.000        0.000        0.000        0.000        0.000        0.000        0.000        0.000        2.000        2.000        3.000        4.000        3.000        0.000        5.000        0.000        0.000        0.000      100.000        0.000        0.000        1.873        1.883        2.900
     750.000  -217413.220    21016.733    13096.042    39044.730       86.767  -329879.397    39221.904       25.395       25.430       15.807        2.605        2.646        2.670        2.646        2.586        2.685        2.542        2.589        2.564        2.434        2.556        3.036        2.998        2.595        2.529        0.484        1.000        0.000        0.000        1.000        0.000        2.000        0.000        1.000        0.000        0.000        0.000        0.000        0.000        0.000        0.000        0.000        0.000        0.000        0.000        1.000        0.000        0.000        0.000        0.000        1.000        4.000        2.000        4.000        3.000        3.000        0.000        6.000        0.000        4.494        0.000       95.506        0.000        0.000        1.749        1.764        2.662
     760.000  -216710.891    22326.493    13339.672    38947.355      109.945  -329068.334    37633.977       25.557       25.872       10.376        2.572        2.662        2.682        2.680        2.594        2.695        2.482        2.590        2.615        2.516        2.510        3.088        2.988        2.599        2.573        0.503        0.000        0.000        0.000        1.000        0.000        2.000        0.000        1.000        0.000        0.000        0.000        0.000        0.000        0.000        0.000        0.000        0.000        0.000        0.000        1.000        0.000        0.000        0.000        0.000        0.000        2.000        1.000        3.000        2.000        3.000        0.000        2.000        0.000        4.494        0.000       95.506        0.000        0.000        1.841        1.848        2.869
     770.000  -216532.606    22062.533    13327.231    39048.171      113.954  -329092.346    38007.852       25.590       25.693        2.612        2.515        2.619        2.657        2.630        2.567        2.694        2.470        2.643        2.622        2.523        2.543        3.127        3.063        2.573        2.566        0.486        0.000        0.000        0.000        1.000        0.000        2.000        0.000        1.000        0.000        0.000        0.000        0.000        0.000        0.000        0.000        0.000        0.000        0.000        0.000        1.000        0.000        0.000        0.000        0.000        0.000        4.000        2.000        2.000        1.000        1.000        0.000        1.000        0.000        4.494        0.000       95.506        0.000        0.000        1.940        1.966        2.949
     780.000  -217234.998    22559.324    13615.289    38984.007      131.617  -330601.570    38076.336       25.824       25.952        2.616        2.604        2.655        2.674        2.711        2.583        2.680        2.488        2.596        2.643        2.481        2.495        3.101        3.014        2.588        2.535        0.503        1.000        0.000        0.000        1.000        0.000        2.000        0.000        1.000        0.000        0.000        0.000        0.000        0.000        0.000        0.000        0.000        0.000        0.000        0.000        1.000        0.000        0.000        0.000        0.000        0.000        2.000        0.000        2.000        0.000        4.000        0.000        2.000        0.000        0.000        0.000      100.000        0.000        0.000        1.984        2.020        2.962
     790.000  -217346.696    21385.952    13410.479    38917.699      102.332  -330064.232    38901.075       25.798       25.787        2.573        2.578        2.636        2.635        2.666        2.581        2.712        2.496        2.606        2.559        2.471        2.556        3.056        2.981        2.599        2.557        0.489        1.000        0.000        0.000        1.000        0.000        2.000        0.000        1.000        0.000        0.000        0.000        2.000        0.000        0.000        0.000        2.000        0.000        0.000        0.000        1.000        0.000        0.000        0.000        0.000        1.000        2.000        0.000        3.000        0.000        3.000        0.000        3.000        0.000        4.494        0.000       95.506        0.000        0.000        1.931        1.981        2.755
     800.000  -216831.130    21437.086    13268.953    38947.878      117.025  -330248.206    39646.135       25.912       25.801        2.610        2.550        2.688        2.642        2.695        2.583        2.684        2.493        2.589        2.584        2.499        2.550        3.019        3.018        2.626        2.498        0.496        1.000        0.000        0.000        1.000        0.000        2.000        0.000        1.000        0.000        0.000        0.000        0.000        0.000        0.000        0.000        0.000        0.000        0.000        0.000        0.000        0.000        0.000        0.000        0.000        0.000        6.000        1.000        4.000        1.000        5.000        0.000        2.000        0.000        4.494        0.000       95.506        0.000        0.000        1.930        1.987        2.792
     810.000  -216316.750    22661.724    13370.121    38834.467       94.870  -329287.595    38009.663       25.741       25.898        2.564        2.524        2.631        2.681        2.697        2.558        2.680        2.500        2.645        2.644        2.452        2.518        3.029        2.905        2.623        2.535        0.484        0.000        0.000        1.000        1.000        0.000        2.000        0.000        1.000        0.000        1.000        0.000        0.000        0.000        0.000        0.000        2.000        0.000        0.000        0.000        0.000        0.000        0.000        0.000        0.000        0.000        4.000        1.000        2.000        2.000        1.000        2.000        1.000        0.000        4.494        0.000       95.506        0.000        0.000        1.985        2.022        2.874
     820.000  -217368.032    21851.973    13305.916    39027.907      115.088  -329616.203    37947.287       25.669       25.732        2.565        2.592        2.633        2.615        2.681        2.586        2.681        2.472        2.570        2.575        2.429        2.538        3.018        2.944        2.577        2.636        0.495        1.000        1.000        0.000        1.000        0.000        1.000        0.000        1.000        0.000        0.000        0.000        0.000        0.000        0.000        0.000        1.000        0.000        0.000        0.000        0.000        0.000        0.000        0.000        0.000        0.000        2.000        0.000        6.000        2.000        3.000        0.000        5.000        0.000        4.494        0.000       95.506        0.000        0.000        2.116        2.143        3.062
     830.000  -216322.343    20804.380    13533.233    38934.053      104.977  -328341.455    38642.469       25.561       25.679        2.593        2.582        2.683        2.657        2.621        2.567        2.701        2.470        2.571        2.517        2.511        2.566        3.148        2.944        2.625        2.593        0.447        1.000        1.000        0.000        1.000        0.000        1.000        0.000        1.000        0.000        0.000        0.000        0.000        0.000        2.000        0.000        2.000        0.000        0.000        0.000        1.000        0.000        0.000        0.000        0.000        1.000        4.000        0.000        6.000        2.000        4.000        0.000        0.000        0.000       11.236        0.000       88.764        0.000        0.000        1.895        1.926        3.056
     840.000  -217285.175    21610.539    13309.101    38877.632      109.723  -329701.728    38509.558       25.558       25.561        2.643        2.590        2.645        2.553        2.613        2.559        2.692        2.468        2.659        2.633        2.502        2.525        3.085        2.976        2.580        2.531        0.497        1.000        0.000        0.000        1.000        0.000        2.000        0.000        1.000        0.000        0.000        0.000        0.000        0.000        0.000        0.000        0.000        0.000        0.000        0.000        1.000        0.000        0.000        0.000        0.000        0.000        2.000        1.000        3.000        2.000        7.000        0.000        2.000        0.000        4.494        0.000       95.506        0.000        0.000        1.963        2.002        2.934
     850.000  -216238.849    20993.052    13244.138    38821.518       92.286  -329062.076    39672.234       25.864       26.078        2.619        2.549        2.617        2.600        2.630        2.595        2.655        2.471        2.617        2.615        2.507        2.549        3.037        2.980        2.582        2.583        0.515        1.000        0.000        1.000        1.000        0.000        2.000        0.000        1.000        0.000        0.000        0.000        0.000        0.000        0.000        0.000        1.000        0.000        0.000        0.000        0.000        0.000        0.000        0.000        0.000        0.000        1.000        1.000        1.000        1.000        2.000        1.000        1.000        0.000        8.989        0.000       91.011        0.000        0.000        2.158        2.187        3.121
     860.000  -217030.379    21905.893    13494.437    38857.855       89.678  -329554.456    38176.214       25.604       25.680        2.618        2.566        2.615        2.651        2.649        2.571        2.689        2.560        2.566        2.576        2.490        2.496        3.057        3.015        2.581        2.586        0.494        1.000        0.000        0.000        1.000        0.000        1.000        0.000        1.000        0.000        0.000        1.000        0.000        0.000        0.000        0.000        0.000        0.000        0.000        0.000        1.000        0.000        0.000        0.000        0.000        0.000        2.000        3.000        2.000        3.000        5.000        2.000        4.000        0.000        4.494        0.000       95.506        0.000        0.000        2.015        2.059        2.923
     870.000  -216962.908    21474.251    13203.175    39139.050      110.836  -330166.397    39276.177       25.576       25.843        2.584        2.552        2.597        2.605        2.654        2.532        2.692        2.482        2.641        2.563        2.493        2.505        3.055        2.964        2.615        2.566        0.483        0.000        0.000        0.000        1.000        0.000        2.000        0.000        1.000        0.000        1.000        0.000        0.000        0.000        1.000        0.000        0.000        0.000        0.000        0.000        1.000        0.000        0.000        0.000        0.000        0.000        2.000        1.000        3.000        1.000        4.000        1.000        2.000        0.000        4.494        0.000       95.506        0.000        0.000        1.887        1.931        2.798
     880.000  -216658.207    21060.470    13046.626    39264.241      111.565  -330400.321    40259.211       25.651       25.893        2.548        2.547        2.603        2.642        2.623        2.589        2.661        2.442        2.663        2.583        2.481        2.568        3.103        2.966        2.643        2.584        0.495        1.000        0.000        0.000        1.000        0.000        2.000        0.000        1.000        0.000        0.000        0.000        0.000        0.000        0.000        0.000        0.000        0.000        0.000        0.000        1.000        0.000        0.000        0.000        0.000        0.000        4.000        1.000        3.000        2.000        3.000        0.000        4.000        0.000        4.494        0.000       95.506        0.000        0.000        1.966        2.007        2.863
     890.000  -216563.128    22458.422    13308.131    38853.589      104.503  -329141.923    37854.151       25.827       25.705        2.631        2.565        2.637        2.602        2.637        2.597        2.689        2.484        2.637        2.655        2.458        2.555        3.066        2.966        2.572        2.551        0.473        1.000        0.000        0.000        1.000        0.000        2.000        0.000        1.000        0.000        0.000        0.000        0.000        0.000        1.000        0.000        1.000        0.000        0.000        0.000        1.000        0.000        0.000        0.000        0.000        0.000        1.000        1.000        3.000        0.000        4.000        0.000        3.000        0.000        4.494        0.000       95.506        0.000        0.000        1.950        2.020        2.730
     900.000  -217428.759    21649.883    13183.261    38827.671       87.702  -331127.208    39949.931       25.577       25.676        2.558        2.585        2.683        2.627        2.583        2.570        2.646        2.446        2.668        2.580        2.466        2.546        3.030        2.976        2.651        2.626        0.468        1.000        0.000        0.000        1.000        0.000        3.000        0.000        1.000        0.000        0.000        0.000        0.000        0.000        0.000        0.000        0.000        0.000        0.000        0.000        1.000        0.000        0.000        0.000        0.000        0.000        3.000        0.000        2.000        0.000        7.000        1.000        2.000        0.000        0.000        0.000      100.000        0.000        0.000        1.897        1.975        2.762
     910.000  -217342.069    22052.058    13361.892    38790.830      114.035  -330363.835    38702.952       25.680       25.558        2.614        2.585        2.703        2.672        2.635        2.547        2.730        2.493        2.653        2.614        2.472        2.513        3.051        2.990        2.591        2.610        0.483        1.000        0.000        0.000        1.000        0.000        3.000        0.000        1.000        0.000        0.000        0.000        0.000        0.000        0.000        0.000        0.000        0.000        0.000        0.000        1.000        0.000        0.000        0.000        0.000        1.000        5.000        1.000        3.000        0.000        1.000        0.000        0.000        0.000        4.494        0.000       95.506        0.000        0.000        2.014        2.079        2.807
     920.000  -216622.164    22265.288    13515.420    39078.104       92.599  -328965.830    37392.256       25.737       25.605        2.547        2.585        2.701        2.661        2.643        2.589        2.715        2.487        2.668        2.650        2.462        2.504        3.038        2.960        2.592        2.605        0.500        0.000        0.000        0.000        1.000        0.000        3.000        0.000        1.000        0.000        0.000        0.000        0.000        0.000        0.000        0.000        1.000        0.000        0.000        0.000        1.000        0.000        0.000        0.000        0.000        0.000        2.000        2.000        2.000        0.000        3.000        0.000        0.000        0.000        4.494        0.000       95.506        0.000        0.000        2.046        2.101        2.789
     930.000  -217008.147    21521.621    13331.573    39012.671       98.964  -330012.721    39039.745       25.711       25.386        2.600        2.618        2.667        2.610        2.668        2.583        2.673        2.498        2.680        2.578        2.483        2.536        3.120        2.975        2.621        2.514        0.508        0.000        0.000        0.000        0.000        0.000        2.000        0.000        1.000        0.000        0.000        0.000        0.000        0.000        0.000        0.000        0.000        0.000        0.000        0.000        1.000        0.000        0.000        0.000        0.000        0.000        4.000        1.000        3.000        0.000        2.000        0.000        0.000        0.000        4.494        0.000       95.506        0.000        0.000        2.535        2.583        3.222
     940.000  -217017.617    21180.547    13247.114    38778.579      117.061  -329791.010    39450.092       25.710       25.549        2.589        2.579        2.694        2.653        2.607        2.562        2.640        2.487        2.699        2.660        2.481        2.546        3.022        2.927        2.606        2.603        0.463        1.000        0.000        0.000        1.000        0.000        3.000        0.000        1.000        0.000        0.000        0.000        0.000        0.000        0.000        0.000        2.000        0.000        0.000        0.000        1.000        0.000        0.000        0.000        0.000        1.000        2.000        1.000        1.000        0.000        3.000        0.000        1.000        0.000        4.494        0.000       95.506        0.000        0.000        2.652        2.700        3.339
     950.000  -216904.688    21768.034    13221.177    38873.590       91.169  -329297.121    38438.463       25.519       25.468        2.576        2.559        2.667        2.656        2.556        2.606        2.695        2.436        2.667        2.599        2.451        2.578        3.135        3.019        2.603        2.548        0.489        0.000        1.000        0.000        1.000        0.000        3.000        0.000        1.000        0.000        0.000        0.000        0.000        0.000        0.000        0.000        0.000        0.000        0.000        0.000        1.000        0.000        0.000        0.000        0.000        2.000        1.000        0.000        4.000        2.000        2.000        0.000        2.000        0.000        4.494        0.000       95.506        0.000        0.000        2.347        2.414        3.058
     960.000  -216957.823    21910.848    13425.710    38935.565       93.770  -330487.618    39163.902       25.526       25.559        2.594        2.599        2.672        2.659        2.543        2.549        2.723        2.515        2.719        2.633        2.476        2.532        3.010        3.016        2.615        2.564        0.487        1.000        1.000        0.000        1.000        0.000        2.000        0.000        1.000        0.000        0.000        0.000        0.000        0.000        0.000        0.000        0.000        0.000        0.000        0.000        0.000        0.000        0.000        0.000        0.000        0.000        1.000        1.000        3.000        2.000        4.000        0.000        4.000        0.000        4.494        0.000       95.506        0.000        0.000        1.787        1.832        2.655
     970.000  -217243.037    22281.588    13289.831    38833.377       92.794  -329821.894    38081.267       25.948       25.846        2.617        2.582        2.627        2.662        2.539        2.592        2.712        2.494        2.613        2.501        2.485        2.513        3.077        3.011        2.609        2.552        0.495        0.000        0.000        0.000        1.000        0.000        4.000        0.000        1.000        0.000        0.000        0.000        0.000        0.000        0.000        0.000        0.000        0.000        0.000        0.000        1.000        0.000        0.000        0.000        0.000        1.000        4.000        0.000        2.000        2.000        1.000        0.000        2.000        0.000        4.494        0.000       95.506        0.000        0.000        2.108        2.172        2.791
     980.000  -216671.350    21852.772    13404.091    38710.668      108.793  -329089.155    38341.480       25.665       25.792        2.612        2.587        2.679        2.685        2.506        2.613        2.713        2.455        2.560        2.627        2.499        2.519        3.035        3.014        2.652        2.590        0.501        0.000        0.000        1.000        1.000        0.000        3.000        0.000        1.000        0.000        0.000        1.000        0.000        0.000        1.000        0.000        1.000        0.000        0.000        0.000        1.000        0.000        0.000        0.000        0.000        0.000        2.000        0.000        2.000        1.000        7.000        0.000        1.000        0.000        4.494        0.000       95.506        0.000        0.000        2.388        2.438        2.991
     990.000  -217044.578    22062.605    13645.915    38551.643      105.733  -330000.016    38589.542       25.729       25.864        2.603        2.651        2.672        2.649        2.563        2.591        2.675        2.467        2.621        2.628        2.488        2.564        3.068        2.967        2.612        2.555        0.469        1.000        0.000        1.000        1.000        0.000        2.000        0.000        1.000        0.000        0.000        0.000        0.000        0.000        0.000        0.000        0.000        0.000        0.000        0.000        1.000        0.000        0.000        0.000        0.000        2.000        2.000        1.000        2.000        4.000        3.000        1.000        2.000        0.000        4.494        0.000       95.506        0.000        0.000        2.243        2.293        2.908
    1000.000  -216583.632    20864.493    13301.190    38940.922      116.695  -329394.552    39587.620       25.696       25.816        2.579        2.531        2.685        2.706        2.541        2.633        2.707        2.478        2.614        2.589        2.498        2.553        3.018        2.970        2.579        2.587        0.460        0.000        0.000        1.000        1.000        0.000        3.000        0.000        1.000        0.000        0.000        0.000        0.000        0.000        1.000        0.000        0.000        0.000        0.000        0.000        0.000        0.000        0.000        0.000        0.000        0.000        1.000        1.000        3.000        0.000        4.000        1.000        4.000        0.000        0.000        0.000      100.000        0.000        0.000        1.945        1.976        2.596
     Average  -218319.453    22013.100    13375.241    38880.035      108.857  -332029.637    39332.951       25.836       25.741        3.395        2.592        2.671        2.631        2.666        2.580        2.693        2.507        2.634        2.594        2.477        2.519        3.066        2.985        2.602        2.568        0.487        0.802        0.436        0.277        0.842        0.208        2.198        0.000        0.802        0.000        0.139        0.040        0.139        0.000        0.139        0.000        0.960        0.000        0.000        0.000        0.574        0.000        0.000        0.000        0.000        1.228        2.267        1.267        3.228        1.277        3.406        0.317        2.465        0.000        2.959        0.000       97.041        0.000        0.000        2.084        2.135        2.606

