____Time[ps] Energy[ kJ/mol ]_____Bond _______Angle ____Dihedral ___Planarity _____Coulomb _________VdW _Your result _Your result _Your result _Your result _Your result _Your result _Your result _Your result _Your result _Your result _Your result _Your result _Your result _Your result _Your result _Your result _Your result _Your result _Your result _Your result _Your result _Your result _Your result _Your result _Your result _Your result _Your result _Your result _Your result _Your result _Your result _Your result _Your result _Your result _Your result _Your result _Your result _Your result _Your result _Your result _Your result _Your result _Your result _Your result _Your result _Your result _Your result _Your result _Your result _Your result _Your result _Your result _Your result _Your result _Your result _Your result _Your result _RMSDs[A]:CA ____Backbone __HeavyAtoms
       0.000  -355713.159     7783.165     4662.129    37902.745       14.347  -474693.135    68617.589       25.410       25.254        2.556        3.103        2.566        2.637        2.633        3.007        2.698        2.488        3.201        2.675        3.121        2.678        3.148        2.963        2.520        2.588        0.489        0.000        0.000        0.000        1.000        3.000        4.000        0.000        0.000        0.000        0.000        0.000        0.000        0.000        1.000        0.000        2.000        0.000        0.000        0.000        1.000        0.000        0.000        0.000        0.000        0.000        1.000        0.000        0.000        0.000        5.000        0.000        2.000        0.000        4.494        0.000       95.506        0.000        0.000        0.409        0.433        0.548
      10.000  -268398.974    30081.707    15690.822    37878.253       84.930  -404007.572    51872.887       26.066       25.624        2.665        3.108        2.553        2.641        2.633        3.068        2.658        2.527        3.229        2.694        3.220        2.619        3.067        3.006        2.571        2.613        0.476        0.000        0.000        0.000        1.000        4.000        3.000        0.000        0.000        0.000        0.000        0.000        0.000        0.000        1.000        0.000        0.000        0.000        0.000        0.000        1.000        0.000        0.000        0.000        0.000        0.000        3.000        0.000        0.000        0.000        9.000        0.000        2.000        0.000        4.494        0.000       95.506        0.000        0.000        1.139        1.179        1.425
      20.000  -267887.029    30966.893    15613.829    37897.594      119.700  -401562.997    49077.952       26.124       25.620        2.624        3.193        2.582        2.669        2.661        3.063        2.686        2.538        3.240        2.683        3.148        2.650        3.047        2.976        2.528        2.613        0.477        0.000        0.000        0.000        1.000        3.000        4.000        0.000        0.000        0.000        0.000        0.000        0.000        0.000        0.000        0.000        0.000        0.000        0.000        0.000        1.000        0.000        0.000        0.000        0.000        0.000        1.000        0.000        3.000        0.000        6.000        0.000        3.000        0.000        0.000        0.000      100.000        0.000        0.000        1.305        1.336        1.495
      30.000  -267884.849    30330.662    15874.736    37829.526      115.026  -402701.934    50667.136       26.050       25.901        2.649        3.023        2.569        2.640        2.706        3.099        2.672        2.540        3.248        2.651        3.195        2.645        3.040        2.973        2.536        2.635        0.477        0.000        0.000        0.000        1.000        4.000        3.000        0.000        0.000        0.000        0.000        0.000        0.000        0.000        1.000        0.000        1.000        0.000        0.000        0.000        1.000        0.000        0.000        0.000        0.000        0.000        1.000        0.000        1.000        0.000        5.000        0.000        5.000        0.000        0.000        0.000      100.000        0.000        0.000        1.339        1.364        1.655
      40.000  -267144.361    29097.323    15967.329    37784.738       84.496  -401159.604    51081.357       26.002       25.980        2.629        3.154        2.589        2.660        2.700        3.127        2.664        2.556        3.279        2.674        3.215        2.600        3.019        3.018        2.508        2.573        0.493        0.000        1.000        0.000        1.000        4.000        4.000        0.000        0.000        0.000        0.000        0.000        0.000        0.000        0.000        0.000        1.000        0.000        0.000        0.000        1.000        0.000        0.000        0.000        0.000        0.000        4.000        0.000        1.000        0.000        2.000        0.000        1.000        0.000        0.000        0.000      100.000        0.000        0.000        1.215        1.249        1.581
      50.000  -266840.988    28788.177    16175.387    38062.633       93.202  -402575.530    52615.142       26.168       25.981        2.567        3.120        2.538        2.578        2.737        3.110        2.685        2.521        3.259        2.594        3.155        2.594        3.120        3.037        2.519        2.562        0.485        0.000        1.000        0.000        1.000        4.000        4.000        0.000        0.000        0.000        0.000        0.000        0.000        0.000        0.000        0.000        1.000        0.000        0.000        0.000        1.000        0.000        0.000        0.000        0.000        0.000        3.000        0.000        0.000        0.000        2.000        0.000        2.000        0.000        0.000        0.000      100.000        0.000        0.000        1.346        1.352        1.703
      60.000  -266349.302    29119.874    16027.652    37928.978       92.291  -399530.802    50012.705       26.138       25.989        2.633        3.102        2.604        2.585        2.682        3.144        2.698        2.549        3.247        2.625        3.092        2.598        3.103        3.077        2.529        2.601        0.479        0.000        1.000        0.000        1.000        4.000        3.000        0.000        0.000        0.000        0.000        0.000        0.000        0.000        1.000        0.000        0.000        0.000        0.000        0.000        1.000        0.000        0.000        0.000        0.000        2.000        2.000        0.000        1.000        1.000        4.000        0.000        1.000        0.000        0.000        0.000      100.000        0.000        0.000        1.405        1.412        1.710
      70.000  -266368.356    28974.955    16509.343    37693.451      110.662  -399703.034    50046.266       26.465       26.304        2.580        3.106        2.554        2.570        2.709        3.131        2.661        2.559        3.259        2.595        3.114        2.616        3.097        3.022        2.520        2.623        0.513        0.000        0.000        0.000        1.000        4.000        4.000        0.000        0.000        0.000        0.000        0.000        0.000        0.000        1.000        0.000        0.000        0.000        0.000        0.000        1.000        0.000        0.000        0.000        0.000        0.000        4.000        0.000        1.000        0.000        2.000        0.000        1.000        0.000        0.000        0.000      100.000        0.000        0.000        1.774        1.799        2.050
      80.000  -266091.890    29032.340    16195.046    37804.906      126.886  -399506.284    50255.217       26.311       26.205        2.649        3.224        2.563        2.597        2.685        3.118        2.682        2.515        3.227        2.640        3.168        2.609        3.076        3.049        2.524        2.600        0.465        0.000        1.000        0.000        1.000        4.000        3.000        0.000        0.000        0.000        0.000        0.000        0.000        0.000        0.000        0.000        1.000        0.000        0.000        0.000        1.000        0.000        0.000        0.000        0.000        1.000        3.000        0.000        3.000        0.000        2.000        0.000        1.000        0.000        0.000        0.000      100.000        0.000        0.000        1.754        1.792        2.027
      90.000  -265887.572    28561.091    15901.012    37910.171      104.234  -398218.553    49854.473       26.139       25.882        2.636        3.203        2.541        2.627        2.652        3.016        2.666        2.493        3.250        2.602        3.152        2.595        3.089        3.003        2.520        2.668        0.492        0.000        1.000        0.000        1.000        4.000        4.000        0.000        0.000        0.000        0.000        0.000        0.000        0.000        0.000        0.000        1.000        0.000        0.000        0.000        1.000        0.000        0.000        0.000        0.000        1.000        3.000        0.000        0.000        0.000        4.000        0.000        0.000        0.000        4.494        0.000       95.506        0.000        0.000        1.747        1.788        1.979
     100.000  -265716.294    27149.501    15902.848    37947.648      119.362  -397243.584    50407.931       26.355       26.150        2.686        3.108        2.564        2.644        2.691        2.995        2.673        2.512        3.281        2.604        3.192        2.680        3.025        2.999        2.515        2.614        0.471        0.000        0.000        0.000        1.000        4.000        3.000        0.000        0.000        0.000        0.000        0.000        0.000        0.000        0.000        0.000        0.000        0.000        0.000        0.000        1.000        0.000        0.000        0.000        0.000        2.000        1.000        0.000        1.000        0.000        6.000        0.000        0.000        0.000        0.000        0.000      100.000        0.000        0.000        1.569        1.583        1.807
     110.000  -265040.976    27885.294    16424.196    37898.815      108.773  -397005.593    49647.539       26.514       26.118        2.633        3.172        2.561        2.595        2.680        3.021        2.661        2.531        3.222        2.644        3.177        2.591        3.069        3.006        2.542        2.613        0.477        0.000        0.000        0.000        1.000        4.000        4.000        0.000        0.000        0.000        0.000        0.000        0.000        0.000        0.000        0.000        0.000        0.000        0.000        0.000        1.000        0.000        0.000        0.000        0.000        0.000        3.000        0.000        0.000        0.000        4.000        0.000        3.000        0.000        0.000        0.000      100.000        0.000        0.000        1.781        1.805        2.004
     120.000  -265150.105    26110.445    16000.344    38036.740      107.058  -395668.671    50263.979       26.101       25.694        2.510        3.147        2.554        2.570        2.646        3.133        2.681        2.535        3.248        2.530        3.147        2.639        3.102        2.997        2.553        2.541        0.471        0.000        0.000        0.000        1.000        3.000        5.000        0.000        0.000        1.000        1.000        0.000        0.000        0.000        0.000        0.000        0.000        0.000        0.000        0.000        1.000        0.000        0.000        0.000        0.000        0.000        3.000        0.000        1.000        0.000        3.000        0.000        1.000        0.000        0.000        0.000      100.000        0.000        0.000        1.398        1.407        1.811
     130.000  -264902.968    27513.495    16205.539    37988.901      104.902  -395818.425    49102.621       26.184       26.071        2.556        3.113        2.554        2.598        2.708        3.152        2.674        2.555        3.231        2.614        3.194        2.592        3.059        3.018        2.513        2.529        0.486        0.000        1.000        0.000        2.000        4.000        3.000        0.000        0.000        1.000        1.000        0.000        0.000        0.000        0.000        0.000        0.000        0.000        0.000        0.000        1.000        0.000        0.000        0.000        0.000        0.000        3.000        0.000        1.000        0.000        2.000        0.000        3.000        0.000        0.000        0.000      100.000        0.000        0.000        1.598        1.608        1.838
     140.000  -264892.036    26750.105    16045.939    38169.007      107.094  -397007.166    51042.985       26.261       25.974        2.622        3.103        2.557        2.572        2.668        3.010        2.676        2.476        3.219        2.582        3.126        2.598        3.063        3.064        2.516        2.510        0.493        1.000        0.000        0.000        2.000        4.000        3.000        0.000        0.000        0.000        0.000        0.000        0.000        0.000        0.000        0.000        0.000        0.000        0.000        0.000        1.000        0.000        0.000        0.000        0.000        1.000        2.000        0.000        5.000        1.000        1.000        0.000        2.000        0.000        4.494        0.000       95.506        0.000        0.000        1.553        1.575        1.871
     150.000  -265607.240    27594.505    15932.003    38113.714      110.704  -395904.315    48546.149       26.126       25.817        2.644        3.034        2.549        2.607        2.662        3.099        2.686        2.499        3.199        2.564        3.182        2.605        3.129        3.008        2.509        2.616        0.488        1.000        0.000        0.000        2.000        4.000        3.000        0.000        0.000        0.000        0.000        0.000        2.000        0.000        1.000        0.000        0.000        0.000        0.000        0.000        0.000        0.000        0.000        0.000        0.000        0.000        0.000        0.000        0.000        1.000        3.000        0.000        1.000        0.000        0.000        0.000      100.000        0.000        0.000        1.483        1.489        1.771
     160.000  -264099.888    26004.377    15861.498    37914.899      113.245  -394151.944    50158.036       26.198       26.042        2.640        3.115        2.529        2.646        2.636        3.042        2.672        2.513        3.205        2.668        3.151        2.547        3.061        3.035        2.529        2.507        0.492        1.000        0.000        0.000        2.000        3.000        3.000        0.000        0.000        0.000        1.000        0.000        1.000        0.000        1.000        0.000        1.000        0.000        0.000        0.000        1.000        0.000        0.000        0.000        0.000        1.000        1.000        0.000        2.000        0.000        3.000        0.000        3.000        0.000        0.000        0.000      100.000        0.000        0.000        1.670        1.694        2.009
     170.000  -264161.570    27659.544    15949.986    38006.772      100.251  -394246.775    48368.651       26.362       25.995        2.671        3.097        2.557        2.652        2.697        3.064        2.666        2.468        3.241        2.664        3.143        2.423        3.032        3.040        2.557        2.547        0.463        1.000        0.000        0.000        2.000        4.000        4.000        0.000        0.000        0.000        0.000        0.000        0.000        0.000        1.000        0.000        0.000        0.000        0.000        0.000        1.000        0.000        0.000        0.000        0.000        1.000        7.000        0.000        3.000        0.000        3.000        0.000        2.000        0.000        0.000        0.000      100.000        0.000        0.000        1.674        1.673        1.979
     180.000  -263939.262    27781.044    16012.617    37814.141      107.862  -393967.315    48312.390       26.115       25.897        2.624        3.134        2.562        2.674        2.676        3.113        2.673        2.507        3.197        2.719        3.178        2.445        3.105        3.001        2.526        2.604        0.498        1.000        0.000        0.000        2.000        4.000        3.000        0.000        0.000        0.000        0.000        0.000        0.000        0.000        0.000        0.000        2.000        0.000        0.000        0.000        1.000        0.000        0.000        0.000        0.000        0.000        2.000        0.000        2.000        0.000        3.000        0.000        2.000        0.000        4.494        0.000       95.506        0.000        0.000        2.102        2.106        2.342
     190.000  -264387.006    28335.693    15703.236    37971.253      127.243  -394937.558    48413.126       25.528       25.525        2.650        3.105        2.559        2.659        2.672        3.092        2.673        2.471        3.240        2.642        3.124        2.475        3.039        3.009        2.553        2.529        0.467        1.000        0.000        0.000        2.000        3.000        4.000        0.000        0.000        1.000        1.000        0.000        0.000        0.000        0.000        0.000        0.000        0.000        0.000        0.000        1.000        0.000        0.000        0.000        0.000        0.000        0.000        0.000        0.000        0.000        4.000        0.000        0.000        0.000        0.000        0.000      100.000        0.000        0.000        2.488        2.472        2.647
     200.000  -264663.942    27705.403    15720.535    37742.617      113.695  -393602.343    47656.150       25.856       25.595        2.654        3.076        2.538        2.640        2.671        2.949        2.656        2.517        3.282        2.663        3.172        2.454        3.010        3.020        2.535        2.590        0.492        1.000        0.000        0.000        2.000        4.000        4.000        0.000        0.000        0.000        0.000        0.000        0.000        0.000        0.000        0.000        1.000        0.000        0.000        0.000        1.000        0.000        0.000        0.000        0.000        1.000        1.000        0.000        0.000        0.000        4.000        0.000        2.000        0.000        4.494        0.000       95.506        0.000        0.000        2.725        2.715        2.875
     210.000  -264190.949    27965.630    15608.090    37967.597      117.589  -393747.737    47897.882       25.245       25.374        2.609        3.135        2.569        2.592        2.629        3.019        2.599        2.499        3.208        2.680        3.149        2.400        3.149        3.070        2.506        2.514        0.488        1.000        0.000        0.000        2.000        4.000        4.000        0.000        0.000        0.000        1.000        0.000        0.000        0.000        1.000        0.000        1.000        0.000        0.000        0.000        1.000        0.000        0.000        0.000        0.000        0.000        2.000        0.000        0.000        1.000        2.000        0.000        0.000        0.000        4.494        0.000       95.506        0.000        0.000        2.957        2.938        3.083
     220.000  -264138.399    27034.412    15771.660    37984.202      117.416  -393203.076    48156.987       25.641       25.694        2.635        3.080        2.551        2.654        2.598        3.112        2.611        2.455        3.256        2.667        3.147        2.534        3.053        3.028        2.535        2.571        0.479        1.000        0.000        0.000        2.000        3.000        3.000        0.000        0.000        0.000        0.000        0.000        0.000        0.000        1.000        0.000        0.000        0.000        0.000        0.000        1.000        0.000        0.000        0.000        0.000        0.000        1.000        0.000        2.000        0.000        2.000        0.000        1.000        0.000        0.000        0.000      100.000        0.000        0.000        2.570        2.578        2.741
     230.000  -264305.494    27160.415    15974.995    38064.739      107.365  -393439.200    47826.191       25.699       25.572        2.658        3.084        2.521        2.644        2.565        3.100        2.699        2.530        3.228        2.673        3.173        2.520        3.069        2.993        2.505        2.530        0.512        1.000        0.000        0.000        1.000        4.000        5.000        0.000        0.000        1.000        0.000        0.000        1.000        0.000        1.000        0.000        1.000        0.000        0.000        0.000        1.000        0.000        0.000        0.000        0.000        0.000        0.000        0.000        2.000        0.000        4.000        0.000        0.000        0.000        0.000        0.000      100.000        0.000        0.000        2.296        2.290        2.472
     240.000  -263549.107    25598.753    15493.786    38157.953      125.381  -391730.141    48805.162       25.694       25.562        2.621        3.070        2.514        2.651        2.607        3.082        2.678        2.526        3.214        2.644        3.217        2.520        3.098        3.057        2.550        2.592        0.484        1.000        0.000        0.000        2.000        4.000        4.000        0.000        0.000        0.000        0.000        0.000        0.000        0.000        1.000        0.000        2.000        0.000        0.000        0.000        1.000        0.000        0.000        0.000        0.000        0.000        3.000        0.000        1.000        0.000        2.000        0.000        0.000        0.000        0.000        0.000      100.000        0.000        0.000        1.629        1.636        1.966
     250.000  -263082.963    26536.330    15461.398    37840.500      117.668  -391872.781    48833.921       25.848       25.612        2.651        3.122        2.559        2.645        2.654        3.063        2.686        2.453        3.242        2.696        3.195        2.435        3.044        2.987        2.520        2.553        0.478        1.000        0.000        0.000        2.000        4.000        5.000        0.000        0.000        1.000        1.000        0.000        0.000        0.000        1.000        0.000        1.000        0.000        0.000        0.000        1.000        0.000        0.000        0.000        0.000        0.000        2.000        0.000        1.000        0.000        4.000        0.000        2.000        0.000        0.000        0.000      100.000        0.000        0.000        1.800        1.824        2.165
     260.000  -263263.141    27515.246    15710.263    37889.291      112.794  -391299.514    46808.779       26.101       25.630        2.618        2.937        2.519        2.671        2.688        3.067        2.707        2.541        3.213        2.643        3.147        2.498        3.088        3.021        2.463        2.589        0.483        1.000        0.000        0.000        2.000        3.000        4.000        0.000        0.000        0.000        1.000        0.000        1.000        0.000        0.000        0.000        0.000        0.000        0.000        0.000        1.000        0.000        0.000        0.000        0.000        1.000        2.000        0.000        3.000        0.000        5.000        0.000        0.000        0.000        0.000        0.000      100.000        0.000        0.000        2.205        2.219        2.456
     270.000  -262163.307    26589.198    15714.388    38040.620      134.069  -390204.128    47562.546       25.938       25.495        2.601        3.083        2.529        2.626        2.657        3.074        2.636        2.536        3.246        2.623        3.146        2.544        3.007        2.966        2.552        2.639        0.467        1.000        0.000        0.000        1.000        3.000        5.000        0.000        0.000        0.000        0.000        0.000        1.000        0.000        0.000        0.000        2.000        0.000        0.000        0.000        1.000        0.000        0.000        0.000        0.000        1.000        2.000        0.000        0.000        1.000        5.000        0.000        1.000        0.000        4.494        0.000       95.506        0.000        0.000        2.165        2.191        2.486
     280.000  -263684.946    26859.142    15608.045    37735.670      121.486  -391353.097    47343.808       25.651       25.510        2.633        3.126        2.537        2.679        2.626        3.155        2.704        2.530        3.218        2.647        3.092        2.522        3.142        3.079        2.535        2.602        0.481        1.000        1.000        0.000        2.000        3.000        4.000        0.000        0.000        0.000        0.000        0.000        1.000        0.000        1.000        0.000        1.000        0.000        0.000        0.000        1.000        0.000        0.000        0.000        0.000        0.000        3.000        0.000        1.000        0.000        1.000        0.000        1.000        0.000        0.000        0.000      100.000        0.000        0.000        2.259        2.296        2.664
     290.000  -263356.980    26517.485    15496.402    37809.681      103.764  -391601.253    48316.941       25.694       25.676        2.643        3.079        2.572        2.668        2.691        3.070        2.679        2.474        3.260        2.663        3.133        2.515        3.080        2.961        2.528        2.594        0.489        1.000        1.000        0.000        2.000        3.000        5.000        0.000        0.000        0.000        0.000        0.000        0.000        0.000        1.000        0.000        3.000        0.000        0.000        0.000        1.000        0.000        0.000        0.000        0.000        0.000        5.000        0.000        0.000        0.000        4.000        0.000        1.000        0.000        0.000        0.000      100.000        0.000        0.000        2.360        2.378        2.687
     300.000  -262380.830    25578.122    15691.048    37812.901      123.058  -390259.027    48673.066       25.739       25.543        2.623        3.012        2.564        2.634        2.683        3.026        2.705        2.505        3.244        2.704        3.174        2.542        3.093        2.986        2.591        2.648        0.502        1.000        0.000        0.000        2.000        3.000        4.000        0.000        0.000        0.000        0.000        0.000        0.000        0.000        0.000        0.000        1.000        0.000        0.000        0.000        1.000        0.000        0.000        0.000        0.000        0.000        1.000        0.000        1.000        0.000        8.000        0.000        2.000        0.000        0.000        0.000      100.000        0.000        0.000        2.377        2.383        2.658
     310.000  -263993.065    26696.352    15732.332    37785.754      130.822  -393084.190    48745.864       25.722       25.777        2.641        3.003        2.554        2.693        2.661        3.102        2.669        2.536        3.239        2.664        3.175        2.503        3.056        3.046        2.544        2.618        0.502        1.000        0.000        0.000        2.000        3.000        4.000        0.000        0.000        0.000        0.000        0.000        0.000        0.000        0.000        0.000        3.000        0.000        0.000        0.000        1.000        0.000        0.000        0.000        0.000        0.000        2.000        0.000        1.000        0.000        5.000        0.000        1.000        0.000        4.494        0.000       95.506        0.000        0.000        2.135        2.160        2.457
     320.000  -262811.988    26043.223    15368.604    37780.071      113.041  -391680.754    49563.827       26.083       25.809        2.645        3.071        2.515        2.697        2.645        3.113        2.680        2.556        3.194        2.716        3.184        2.503        3.029        2.922        2.551        2.647        0.471        1.000        0.000        0.000        2.000        3.000        3.000        0.000        0.000        0.000        0.000        0.000        0.000        0.000        2.000        0.000        2.000        0.000        0.000        0.000        1.000        0.000        0.000        0.000        0.000        1.000        1.000        0.000        2.000        0.000        7.000        0.000        2.000        0.000        0.000        0.000      100.000        0.000        0.000        2.524        2.548        2.764
     330.000  -263566.804    25802.357    15554.804    37876.952      131.301  -390765.600    47833.383       25.739       25.616        2.596        3.041        2.540        2.698        2.637        3.121        2.700        2.508        3.203        2.707        3.163        2.496        3.008        3.097        2.561        2.615        0.496        1.000        0.000        0.000        2.000        3.000        4.000        0.000        0.000        0.000        0.000        0.000        0.000        1.000        3.000        0.000        3.000        0.000        0.000        0.000        1.000        0.000        0.000        0.000        0.000        1.000        1.000        0.000        2.000        0.000        6.000        0.000        0.000        0.000        4.494        0.000       95.506        0.000        0.000        2.076        2.100        2.515
     340.000  -262712.109    26605.713    15691.576    37766.109       84.378  -389848.195    46988.310       26.062       25.871        2.603        3.039        2.531        2.641        2.660        3.101        2.672        2.555        3.202        2.658        3.109        2.483        3.068        3.022        2.497        2.611        0.478        1.000        0.000        0.000        2.000        3.000        4.000        0.000        0.000        0.000        0.000        0.000        1.000        0.000        1.000        0.000        2.000        0.000        0.000        0.000        1.000        0.000        0.000        0.000        0.000        1.000        5.000        0.000        0.000        0.000        2.000        0.000        2.000        0.000        0.000        0.000      100.000        0.000        0.000        2.121        2.159        2.415
     350.000  -263180.769    26239.059    15469.488    37972.630      118.448  -390522.368    47541.974       26.207       26.035        2.622        2.996        2.504        2.634        2.701        3.126        2.693        2.547        3.260        2.726        3.144        2.478        3.153        2.971        2.481        2.631        0.491        1.000        0.000        0.000        2.000        3.000        5.000        0.000        0.000        0.000        0.000        0.000        0.000        0.000        2.000        0.000        0.000        0.000        0.000        0.000        0.000        0.000        0.000        0.000        0.000        0.000        3.000        0.000        1.000        0.000        2.000        0.000        1.000        0.000        4.494        0.000       95.506        0.000        0.000        1.958        1.993        2.341
     360.000  -262647.041    26601.439    15481.227    38003.023       92.688  -391048.237    48222.819       26.198       25.943        2.632        3.011        2.535        2.612        2.633        3.058        2.697        2.527        3.230        2.684        3.205        2.511        3.146        3.016        2.519        2.584        0.488        1.000        0.000        0.000        1.000        3.000        6.000        0.000        0.000        1.000        0.000        0.000        0.000        0.000        1.000        0.000        0.000        0.000        0.000        0.000        0.000        0.000        0.000        0.000        0.000        0.000        0.000        0.000        1.000        0.000        2.000        0.000        1.000        0.000        0.000        0.000      100.000        0.000        0.000        1.829        1.843        2.243
     370.000  -262806.288    25586.153    15106.372    38114.229       92.273  -390117.993    48412.679       25.857       25.757        2.635        3.092        2.497        2.590        2.658        3.072        2.669        2.520        3.189        2.685        3.141        2.530        3.072        3.058        2.492        2.597        0.474        1.000        0.000        0.000        2.000        3.000        5.000        0.000        0.000        0.000        0.000        0.000        0.000        0.000        0.000        0.000        1.000        0.000        0.000        0.000        1.000        0.000        0.000        0.000        0.000        1.000        1.000        0.000        4.000        0.000        2.000        0.000        2.000        0.000        0.000        0.000      100.000        0.000        0.000        1.386        1.417        1.876
     380.000  -262147.172    26974.600    15546.258    37876.742       92.654  -388577.597    45940.171       25.861       25.669        2.629        3.092        2.509        2.620        2.626        3.072        2.716        2.525        3.210        2.679        3.155        2.538        3.107        3.046        2.580        2.627        0.454        1.000        0.000        0.000        2.000        3.000        5.000        0.000        0.000        1.000        0.000        0.000        1.000        0.000        1.000        0.000        0.000        0.000        0.000        0.000        1.000        0.000        0.000        0.000        0.000        1.000        1.000        0.000        2.000        0.000        1.000        0.000        3.000        0.000        0.000        0.000      100.000        0.000        0.000        1.911        1.981        2.234
     390.000  -262614.917    26862.605    15640.231    37839.541       95.454  -389390.347    46337.600       26.139       25.851        2.661        3.102        2.496        2.662        2.590        3.109        2.691        2.501        3.241        2.712        3.154        2.495        3.081        2.998        2.745        2.618        0.499        1.000        0.000        0.000        2.000        3.000        5.000        0.000        0.000        0.000        0.000        0.000        0.000        0.000        2.000        0.000        0.000        0.000        0.000        0.000        1.000        0.000        0.000        0.000        0.000        0.000        4.000        0.000        1.000        0.000        8.000        0.000        0.000        0.000        0.000        0.000      100.000        0.000        0.000        1.978        2.029        2.350
     400.000  -263510.287    26166.437    15653.609    37977.080      102.198  -390824.006    47414.396       25.927       25.724        2.634        3.134        2.502        2.624        2.605        3.066        2.722        2.481        3.179        2.710        3.151        2.548        3.081        2.957        2.601        2.574        0.490        1.000        0.000        0.000        1.000        3.000        6.000        0.000        0.000        0.000        0.000        0.000        0.000        1.000        0.000        0.000        0.000        0.000        0.000        0.000        1.000        0.000        0.000        0.000        0.000        0.000        2.000        0.000        4.000        1.000        3.000        0.000        1.000        0.000        0.000        0.000      100.000        0.000        0.000        1.679        1.707        2.135
     410.000  -262495.124    25752.397    15498.841    37909.915      133.578  -389398.081    47608.224       26.377       25.852        2.655        3.123        2.475        2.644        2.588        3.028        2.692        2.539        3.232        2.686        3.189        2.506        3.042        2.998        2.614        2.634        0.477        1.000        0.000        0.000        2.000        3.000        3.000        0.000        0.000        0.000        0.000        0.000        0.000        0.000        1.000        0.000        0.000        0.000        0.000        0.000        1.000        0.000        0.000        0.000        0.000        0.000        0.000        0.000        2.000        0.000        3.000        0.000        1.000        0.000        0.000        0.000      100.000        0.000        0.000        1.625        1.654        1.950
     420.000  -262249.314    25632.995    15746.979    37923.653      124.379  -389980.052    48302.733       26.179       25.856        2.641        3.059        2.509        2.594        2.550        3.060        2.673        2.509        3.222        2.644        3.172        2.565        3.050        3.010        2.647        2.545        0.471        1.000        0.000        0.000        2.000        3.000        4.000        0.000        0.000        0.000        0.000        0.000        1.000        0.000        0.000        0.000        1.000        0.000        0.000        0.000        1.000        0.000        0.000        0.000        0.000        0.000        1.000        0.000        6.000        1.000        6.000        0.000        2.000        0.000        0.000        0.000      100.000        0.000        0.000        1.618        1.654        2.021
     430.000  -262971.835    25046.965    15406.072    37835.446      104.386  -389792.451    48427.746       26.107       25.974        2.632        3.034        2.499        2.600        2.642        3.039        2.645        2.545        3.265        2.657        3.166        2.523        3.085        3.011        2.656        2.583        0.511        1.000        0.000        0.000        2.000        3.000        5.000        0.000        0.000        0.000        0.000        0.000        0.000        1.000        1.000        0.000        3.000        0.000        0.000        0.000        1.000        0.000        0.000        0.000        0.000        0.000        0.000        0.000        3.000        1.000        6.000        0.000        2.000        0.000        0.000        0.000      100.000        0.000        0.000        1.523        1.551        1.974
     440.000  -262967.126    24914.151    15697.920    37925.235      105.679  -390972.726    49362.615       26.104       25.938        2.559        3.072        2.495        2.613        2.628        3.080        2.690        2.551        3.266        2.708        3.167        2.551        3.034        2.933        2.670        2.624        0.475        1.000        0.000        0.000        1.000        3.000        5.000        0.000        0.000        1.000        0.000        0.000        0.000        0.000        0.000        0.000        2.000        0.000        0.000        0.000        1.000        0.000        0.000        0.000        0.000        0.000        0.000        0.000        4.000        1.000        6.000        0.000        1.000        0.000        0.000        0.000      100.000        0.000        0.000        1.525        1.575        1.970
     450.000  -263026.054    26422.579    15248.251    37726.768      135.432  -389419.431    46860.347       26.297       26.260        2.583        2.997        2.477        2.642        2.618        3.089        2.660        2.534        3.219        2.682        3.188        2.497        3.155        3.023        2.712        2.662        0.487        1.000        0.000        0.000        1.000        3.000        4.000        0.000        0.000        1.000        2.000        0.000        0.000        0.000        0.000        0.000        1.000        0.000        0.000        0.000        1.000        0.000        0.000        0.000        0.000        0.000        1.000        0.000        4.000        0.000        5.000        0.000        0.000        0.000        0.000        0.000      100.000        0.000        0.000        1.533        1.567        2.041
     460.000  -262661.164    26115.096    15537.556    37640.955      116.747  -388424.729    46353.211       26.151       25.916        2.525        3.011        2.521        2.613        2.697        3.121        2.708        2.498        3.154        2.638        3.231        2.500        3.151        3.005        2.642        2.648        0.490        1.000        0.000        0.000        1.000        3.000        4.000        0.000        0.000        1.000        1.000        0.000        0.000        0.000        0.000        0.000        2.000        0.000        0.000        0.000        1.000        0.000        0.000        0.000        0.000        1.000        2.000        0.000        3.000        1.000        6.000        0.000        5.000        0.000        0.000        0.000      100.000        0.000        0.000        1.766        1.803        2.307
     470.000  -262274.627    25216.197    15311.006    37895.121      104.036  -388462.534    47661.546       26.043       25.815        2.629        3.068        2.531        2.577        2.653        3.070        2.675        2.520        3.227        2.674        3.233        2.494        3.109        2.952        2.669        2.609        0.498        1.000        0.000        0.000        2.000        3.000        4.000        0.000        0.000        0.000        1.000        0.000        2.000        0.000        0.000        0.000        2.000        0.000        0.000        0.000        1.000        0.000        0.000        0.000        0.000        1.000        0.000        0.000        1.000        1.000        5.000        0.000        1.000        0.000        0.000        0.000      100.000        0.000        0.000        1.658        1.712        2.247
     480.000  -262301.076    26343.785    15673.122    37764.239      114.832  -390874.199    48677.144       26.037       25.772        2.624        3.094        2.512        2.622        2.579        3.026        2.679        2.516        3.222        2.703        3.178        2.519        3.075        2.980        2.687        2.624        0.488        1.000        0.000        0.000        2.000        3.000        3.000        0.000        0.000        0.000        0.000        0.000        1.000        0.000        1.000        0.000        2.000        0.000        0.000        0.000        1.000        0.000        0.000        0.000        0.000        3.000        1.000        0.000        2.000        1.000        5.000        0.000        2.000        0.000        0.000        0.000      100.000        0.000        0.000        1.687        1.720        2.358
     490.000  -263085.421    25969.683    15666.579    37621.077      110.444  -390611.859    48158.655       26.054       25.702        2.594        3.066        2.516        2.638        2.572        3.136        2.683        2.514        3.284        2.713        3.186        2.505        3.131        2.949        2.707        2.600        0.478        1.000        0.000        0.000        1.000        3.000        4.000        0.000        0.000        0.000        0.000        0.000        0.000        0.000        0.000        0.000        2.000        0.000        0.000        0.000        1.000        0.000        0.000        0.000        0.000        0.000        1.000        0.000        1.000        1.000        3.000        0.000        1.000        0.000        0.000        0.000      100.000        0.000        0.000        2.033        2.067        2.545
     500.000  -262331.283    26030.612    15456.199    37900.660      147.354  -390154.140    48288.032       25.980       25.668        2.676        3.041        2.509        2.660        2.548        3.080        2.633        2.526        3.242        2.692        3.214        2.510        3.023        3.017        2.667        2.636        0.487        1.000        1.000        0.000        2.000        3.000        4.000        0.000        0.000        0.000        0.000        0.000        0.000        0.000        0.000        0.000        2.000        0.000        0.000        0.000        1.000        0.000        0.000        0.000        0.000        1.000        5.000        0.000        4.000        0.000        6.000        0.000        2.000        0.000        0.000        0.000      100.000        0.000        0.000        1.758        1.788        2.217
     510.000  -262388.140    26019.068    15804.508    37988.708      116.727  -390617.551    48300.399       25.889       25.680        2.586        2.968        2.499        2.677        2.597        3.102        2.653        2.468        3.235        2.643        3.199        2.533        3.111        2.941        2.642        2.676        0.496        1.000        1.000        0.000        2.000        3.000        4.000        0.000        0.000        1.000        1.000        0.000        1.000        1.000        1.000        0.000        2.000        0.000        0.000        0.000        1.000        0.000        0.000        0.000        0.000        0.000        0.000        0.000        3.000        2.000        8.000        0.000        3.000        0.000        0.000        0.000      100.000        0.000        0.000        1.846        1.883        2.269
     520.000  -262737.231    24836.566    15788.847    37833.681      100.448  -389740.281    48443.508       25.883       25.721        2.666        3.045        2.500        2.606        2.594        3.086        2.639        2.501        3.293        2.670        3.191        2.496        3.135        2.995        2.639        2.619        0.477        1.000        0.000        0.000        2.000        3.000        4.000        0.000        0.000        0.000        0.000        0.000        0.000        0.000        0.000        0.000        3.000        0.000        0.000        0.000        1.000        0.000        0.000        0.000        0.000        0.000        4.000        0.000        1.000        2.000        7.000        0.000        0.000        0.000        0.000        0.000      100.000        0.000        0.000        1.824        1.815        2.215
     530.000  -262590.055    26566.106    15567.690    37751.930      128.703  -390300.611    47696.126       25.821       25.833        2.628        3.068        2.504        2.649        2.617        3.082        2.671        2.542        3.270        2.720        3.160        2.529        3.081        2.981        2.645        2.653        0.497        1.000        0.000        0.000        1.000        3.000        4.000        0.000        0.000        0.000        0.000        0.000        0.000        0.000        0.000        0.000        2.000        0.000        0.000        0.000        1.000        0.000        0.000        0.000        0.000        0.000        2.000        0.000        1.000        0.000        5.000        0.000        3.000        0.000        0.000        0.000      100.000        0.000        0.000        1.772        1.772        2.237
     540.000  -262380.450    26087.427    15599.322    37808.663      113.142  -389404.018    47415.015       25.719       25.850        2.628        3.036        2.494        2.668        2.675        2.999        2.640        2.511        3.236        2.675        3.221        2.546        3.114        2.942        2.640        2.603        0.484        1.000        0.000        0.000        2.000        3.000        4.000        0.000        0.000        0.000        2.000        0.000        0.000        0.000        1.000        0.000        1.000        0.000        0.000        0.000        1.000        0.000        0.000        0.000        0.000        0.000        1.000        0.000        1.000        0.000        3.000        0.000        4.000        0.000        0.000        0.000      100.000        0.000        0.000        1.870        1.890        2.262
     550.000  -262263.643    25844.937    15521.128    37978.365       97.227  -389477.646    47772.346       25.938       25.680        2.638        3.066        2.516        2.656        2.629        3.054        2.635        2.482        3.255        2.636        3.126        2.546        3.089        3.024        2.627        2.617        0.476        1.000        1.000        0.000        2.000        3.000        3.000        0.000        0.000        0.000        0.000        0.000        1.000        0.000        1.000        0.000        0.000        0.000        0.000        0.000        0.000        0.000        0.000        0.000        0.000        0.000        2.000        0.000        2.000        1.000        4.000        0.000        1.000        0.000        0.000        0.000      100.000        0.000        0.000        1.730        1.756        2.162
     560.000  -262721.814    24899.878    15759.420    37789.366      117.200  -390568.408    49280.729       26.080       25.704        2.642        2.990        2.536        2.590        2.660        3.036        2.689        2.490        3.217        2.672        3.180        2.546        3.086        2.930        2.652        2.611        0.491        1.000        1.000        0.000        2.000        3.000        4.000        0.000        0.000        0.000        1.000        0.000        0.000        0.000        1.000        0.000        1.000        0.000        0.000        0.000        1.000        0.000        0.000        0.000        0.000        0.000        1.000        0.000        2.000        0.000        5.000        0.000        1.000        0.000        0.000        0.000      100.000        0.000        0.000        1.687        1.720        2.205
     570.000  -262421.449    25750.484    15112.616    38177.922      121.728  -390714.414    49130.215       25.949       25.721        2.614        3.060        2.497        2.573        2.647        3.133        2.693        2.482        3.231        2.615        3.142        2.486        3.065        2.917        2.662        2.557        0.470        1.000        1.000        0.000        1.000        3.000        4.000        0.000        0.000        0.000        0.000        0.000        0.000        0.000        0.000        0.000        1.000        0.000        0.000        0.000        1.000        0.000        0.000        0.000        0.000        0.000        2.000        0.000        2.000        1.000        7.000        0.000        1.000        0.000        0.000        0.000      100.000        0.000        0.000        1.832        1.867        2.276
     580.000  -262133.014    26763.907    15302.417    38141.320      114.575  -388550.695    46095.462       25.715       25.467        2.650        3.030        2.485        2.603        2.656        3.040        2.702        2.457        3.286        2.630        3.161        2.501        3.077        2.962        2.657        2.607        0.488        1.000        0.000        0.000        2.000        3.000        4.000        0.000        0.000        0.000        0.000        0.000        0.000        0.000        0.000        0.000        3.000        0.000        0.000        0.000        1.000        0.000        0.000        0.000        0.000        1.000        2.000        0.000        0.000        1.000        6.000        0.000        2.000        0.000        0.000        0.000      100.000        0.000        0.000        2.003        2.012        2.389
     590.000  -262497.473    26337.954    15492.238    37710.472       92.129  -388368.610    46238.344       25.876       25.853        2.577        3.034        2.558        2.589        2.598        3.098        2.706        2.530        3.244        2.630        3.106        2.535        3.091        2.957        2.664        2.633        0.481        1.000        0.000        0.000        2.000        3.000        4.000        0.000        0.000        0.000        0.000        0.000        0.000        0.000        0.000        0.000        2.000        0.000        0.000        0.000        1.000        0.000        0.000        0.000        0.000        1.000        2.000        0.000        4.000        0.000        5.000        0.000        0.000        0.000        0.000        0.000      100.000        0.000        0.000        2.710        2.739        2.976
     600.000  -261737.529    24691.828    15596.804    37961.228      121.174  -388858.513    48749.949       25.677       25.625        2.613        3.003        2.518        2.581        2.640        3.125        2.673        2.449        3.231        2.719        3.133        2.497        3.085        2.976        2.644        2.584        0.484        1.000        0.000        0.000        2.000        3.000        4.000        0.000        0.000        0.000        0.000        0.000        0.000        0.000        0.000        0.000        3.000        0.000        0.000        0.000        1.000        0.000        0.000        0.000        0.000        0.000        4.000        0.000        0.000        2.000        6.000        0.000        0.000        0.000        0.000        0.000      100.000        0.000        0.000        2.904        2.926        3.189
     610.000  -262822.200    25866.095    15122.560    38111.300      112.336  -390134.935    48100.444       25.717       25.469        2.622        3.071        2.461        2.592        2.610        3.032        2.656        2.475        3.307        2.704        3.159        2.476        2.999        2.985        2.625        2.603        0.505        1.000        1.000        0.000        2.000        3.000        4.000        0.000        0.000        0.000        0.000        0.000        0.000        0.000        1.000        0.000        4.000        0.000        0.000        0.000        1.000        0.000        0.000        0.000        0.000        1.000        3.000        0.000        2.000        1.000        2.000        0.000        0.000        0.000        0.000        0.000      100.000        0.000        0.000        2.990        3.032        3.298
     620.000  -262116.939    25266.540    15784.643    37785.499      128.098  -388565.248    47483.529       26.018       25.736        2.620        3.020        2.517        2.636        2.601        3.047        2.687        2.514        3.218        2.673        3.173        2.490        3.050        3.019        2.651        2.625        0.482        0.000        0.000        0.000        2.000        3.000        4.000        0.000        0.000        0.000        0.000        0.000        0.000        0.000        0.000        0.000        1.000        0.000        0.000        0.000        1.000        0.000        0.000        0.000        0.000        0.000        7.000        0.000        3.000        1.000        4.000        0.000        3.000        0.000        0.000        0.000      100.000        0.000        0.000        2.799        2.858        3.053
     630.000  -262080.531    26194.044    15927.097    37909.228      100.274  -388969.914    46758.740       25.702       25.298        2.643        3.052        2.563        2.585        2.650        3.067        2.690        2.503        3.199        2.706        3.198        2.476        3.126        3.054        2.640        2.538        0.501        1.000        0.000        0.000        2.000        3.000        5.000        0.000        0.000        0.000        0.000        0.000        1.000        0.000        1.000        0.000        0.000        0.000        0.000        0.000        1.000        0.000        0.000        0.000        0.000        0.000        3.000        0.000        4.000        0.000        2.000        0.000        1.000        0.000        0.000        0.000      100.000        0.000        0.000        2.473        2.515        2.870
     640.000  -263051.490    26159.411    15921.238    37858.946      103.393  -390314.955    47220.476       25.451       25.155        2.640        3.033        2.508        2.638        2.638        3.065        2.637        2.540        3.274        2.699        3.181        2.519        3.132        3.023        2.668        2.615        0.486        1.000        0.000        0.000        1.000        3.000        4.000        0.000        0.000        0.000        0.000        0.000        1.000        0.000        0.000        0.000        1.000        0.000        0.000        0.000        1.000        0.000        0.000        0.000        0.000        0.000        3.000        0.000        0.000        0.000        1.000        0.000        6.000        0.000        0.000        0.000      100.000        0.000        0.000        2.439        2.520        2.921
     650.000  -262380.334    25688.759    15212.241    38073.822       86.384  -389608.319    48166.780       25.898       25.575        2.623        3.056        2.540        2.674        2.609        3.066        2.663        2.516        3.207        2.600        3.123        2.485        3.044        2.986        2.634        2.603        0.491        1.000        1.000        0.000        2.000        3.000        3.000        0.000        0.000        0.000        0.000        0.000        0.000        1.000        0.000        0.000        2.000        0.000        0.000        0.000        1.000        0.000        0.000        0.000        0.000        0.000        1.000        0.000        1.000        1.000        2.000        0.000        5.000        0.000        0.000        0.000      100.000        0.000        0.000        2.118        2.156        2.492
     660.000  -262527.824    26753.841    15201.181    38049.401      124.926  -389704.014    47046.841       25.809       25.531        2.661        3.011        2.501        2.653        2.679        3.041        2.706        2.481        3.213        2.656        3.167        2.565        3.175        2.941        2.632        2.653        0.493        1.000        0.000        0.000        2.000        3.000        5.000        0.000        0.000        0.000        0.000        0.000        1.000        0.000        0.000        0.000        1.000        0.000        0.000        0.000        1.000        0.000        0.000        0.000        0.000        1.000        4.000        0.000        3.000        1.000        3.000        0.000        3.000        0.000        0.000        0.000      100.000        0.000        0.000        2.142        2.201        2.582
     670.000  -263075.557    25794.286    15335.549    38067.541      140.427  -390122.302    47708.942       25.927       25.551        2.649        3.059        2.489        2.649        2.686        3.092        2.683        2.502        3.250        2.666        3.166        2.527        3.133        2.946        2.647        2.643        0.479        1.000        1.000        0.000        2.000        3.000        5.000        0.000        0.000        0.000        0.000        0.000        1.000        0.000        0.000        0.000        1.000        0.000        0.000        0.000        1.000        0.000        0.000        0.000        0.000        0.000        1.000        0.000        3.000        1.000        4.000        0.000        5.000        0.000        0.000        0.000      100.000        0.000        0.000        1.765        1.795        2.226
     680.000  -262209.218    26272.304    15463.771    37910.481      107.175  -389592.434    47629.485       25.818       25.434        2.589        3.061        2.466        2.600        2.648        3.056        2.701        2.544        3.209        2.619        3.201        2.509        3.057        2.963        2.691        2.631        0.496        1.000        0.000        0.000        2.000        3.000        4.000        0.000        0.000        0.000        0.000        0.000        0.000        1.000        0.000        0.000        3.000        0.000        0.000        0.000        1.000        0.000        0.000        0.000        0.000        2.000        2.000        0.000        4.000        1.000        5.000        0.000        1.000        0.000        0.000        0.000      100.000        0.000        0.000        1.558        1.570        2.196
     690.000  -262492.055    25989.020    15321.782    37996.524      103.085  -389576.610    47674.143       26.137       25.802        2.638        3.016        2.535        2.634        2.583        3.119        2.668        2.494        3.205        2.696        3.160        2.507        3.140        2.946        2.643        2.613        0.470        1.000        0.000        0.000        2.000        3.000        3.000        0.000        0.000        0.000        1.000        0.000        1.000        0.000        0.000        0.000        2.000        0.000        0.000        0.000        1.000        0.000        0.000        0.000        0.000        0.000        1.000        0.000        2.000        2.000        7.000        0.000        3.000        0.000        0.000        0.000      100.000        0.000        0.000        1.584        1.601        2.258
     700.000  -262394.867    26435.139    15023.660    37818.035      103.109  -387501.061    45726.251       25.934       25.737        2.608        3.050        2.529        2.618        2.722        3.048        2.671        2.480        3.255        2.689        3.117        2.554        3.119        2.999        2.682        2.640        0.471        1.000        0.000        0.000        2.000        3.000        3.000        0.000        0.000        0.000        0.000        0.000        0.000        0.000        0.000        0.000        1.000        0.000        0.000        0.000        1.000        0.000        0.000        0.000        0.000        1.000        4.000        0.000        1.000        1.000        3.000        0.000        1.000        0.000        0.000        0.000      100.000        0.000        0.000        1.480        1.515        2.205
     710.000  -262487.300    25307.566    15483.318    37994.884      101.883  -389028.993    47654.042       25.854       25.669        2.626        2.990        2.505        2.590        2.705        2.983        2.661        2.523        3.186        2.698        3.165        2.561        3.031        2.997        2.650        2.573        0.474        1.000        0.000        0.000        2.000        3.000        4.000        0.000        0.000        0.000        0.000        0.000        0.000        0.000        0.000        0.000        0.000        0.000        0.000        0.000        1.000        0.000        0.000        0.000        0.000        0.000        3.000        0.000        2.000        1.000        6.000        0.000        2.000        0.000        0.000        0.000      100.000        0.000        0.000        1.651        1.681        2.290
     720.000  -262097.897    25721.626    15472.064    38250.151      114.137  -390119.228    48463.354       25.808       25.569        2.669        3.078        2.488        2.648        2.600        3.106        2.680        2.546        3.216        2.681        3.081        2.539        3.080        2.990        2.616        2.628        0.507        1.000        1.000        0.000        2.000        3.000        5.000        0.000        0.000        0.000        0.000        0.000        0.000        0.000        0.000        0.000        1.000        0.000        0.000        0.000        1.000        0.000        0.000        0.000        0.000        0.000        1.000        0.000        1.000        0.000        4.000        0.000        0.000        0.000        0.000        0.000      100.000        0.000        0.000        1.491        1.502        2.112
     730.000  -262314.380    26611.943    15667.991    37985.917      111.718  -388762.785    46070.835       25.920       25.707        2.636        3.097        2.534        2.645        2.630        3.192        2.681        2.472        3.218        2.721        3.164        2.534        3.099        2.977        2.663        2.590        0.486        1.000        1.000        0.000        2.000        3.000        5.000        0.000        0.000        0.000        1.000        0.000        0.000        0.000        0.000        0.000        0.000        0.000        0.000        0.000        0.000        0.000        0.000        0.000        0.000        0.000        2.000        0.000        2.000        0.000        9.000        0.000        2.000        0.000        0.000        0.000      100.000        0.000        0.000        1.739        1.758        2.282
     740.000  -261893.659    26090.476    15125.493    37933.463      126.884  -388465.275    47295.301       26.074       25.671        2.664        3.145        2.519        2.602        2.660        3.090        2.717        2.536        3.165        2.708        3.140        2.515        3.106        2.997        2.618        2.592        0.502        1.000        0.000        0.000        2.000        3.000        4.000        0.000        0.000        0.000        0.000        0.000        0.000        0.000        1.000        0.000        5.000        0.000        0.000        0.000        1.000        0.000        0.000        0.000        0.000        1.000        3.000        0.000        2.000        1.000        5.000        0.000        0.000        0.000        0.000        0.000      100.000        0.000        0.000        1.822        1.838        2.347
     750.000  -263064.017    26325.683    15272.442    38043.904      111.130  -390346.575    47529.398       26.006       25.539        2.611        2.974        2.482        2.616        2.672        3.082        2.668        2.434        3.226        2.709        3.206        2.573        3.022        2.947        2.614        2.639        0.478        1.000        0.000        0.000        2.000        3.000        3.000        0.000        0.000        0.000        0.000        0.000        0.000        0.000        0.000        0.000        1.000        0.000        0.000        0.000        1.000        0.000        0.000        0.000        0.000        0.000        4.000        0.000        0.000        0.000        6.000        0.000        0.000        0.000        0.000        0.000      100.000        0.000        0.000        1.333        1.353        2.010
     760.000  -262785.189    25527.448    15178.502    38008.759      104.522  -390917.014    49312.595       26.258       25.732        2.631        3.009        2.528        2.565        2.665        3.118        2.642        2.469        3.291        2.694        3.152        2.469        3.124        3.047        2.710        2.599        0.456        1.000        0.000        0.000        2.000        3.000        4.000        0.000        0.000        0.000        0.000        0.000        2.000        0.000        3.000        0.000        1.000        0.000        0.000        0.000        1.000        0.000        0.000        0.000        0.000        0.000        3.000        0.000        2.000        0.000        7.000        0.000        1.000        0.000        0.000        0.000      100.000        0.000        0.000        1.635        1.643        2.098
     770.000  -261978.859    25825.627    15355.738    38021.576      107.560  -389511.189    48221.829       26.079       25.480        2.654        3.062        2.472        2.646        2.685        3.023        2.663        2.458        3.189        2.735        3.157        2.459        3.076        3.015        2.704        2.608        0.490        1.000        0.000        0.000        2.000        3.000        4.000        0.000        0.000        0.000        0.000        0.000        0.000        0.000        1.000        0.000        1.000        0.000        0.000        0.000        1.000        0.000        0.000        0.000        0.000        0.000        6.000        0.000        2.000        0.000        4.000        0.000        2.000        0.000        0.000        0.000      100.000        0.000        0.000        1.649        1.666        2.271
     780.000  -262315.621    25127.713    15268.948    38049.191      129.065  -388731.423    47840.884       26.069       25.582        2.632        3.066        2.479        2.592        2.683        3.107        2.692        2.539        3.235        2.682        3.154        2.472        3.080        2.948        2.609        2.607        0.470        1.000        0.000        0.000        2.000        3.000        4.000        0.000        0.000        0.000        0.000        0.000        0.000        0.000        0.000        0.000        2.000        0.000        0.000        0.000        1.000        0.000        0.000        0.000        0.000        0.000        2.000        0.000        1.000        1.000        3.000        0.000        1.000        0.000        0.000        0.000      100.000        0.000        0.000        1.900        1.925        2.498
     790.000  -262002.388    24673.185    14963.261    38254.172      130.486  -388960.849    48937.357       25.901       25.607        2.629        3.050        2.520        2.598        2.674        3.037        2.723        2.447        3.214        2.639        3.204        2.532        3.077        3.010        2.695        2.582        0.486        1.000        0.000        0.000        1.000        3.000        3.000        0.000        0.000        0.000        0.000        0.000        1.000        0.000        0.000        0.000        2.000        0.000        0.000        0.000        1.000        0.000        0.000        0.000        0.000        0.000        1.000        0.000        4.000        1.000        2.000        0.000        2.000        0.000        0.000        0.000      100.000        0.000        0.000        1.776        1.816        2.342
     800.000  -262367.596    26283.927    15294.308    38043.596       94.231  -389214.383    47130.723       25.745       25.414        2.626        3.055        2.498        2.600        2.668        3.026        2.659        2.445        3.266        2.638        3.121        2.500        3.171        2.971        2.683        2.566        0.462        1.000        0.000        0.000        2.000        3.000        4.000        0.000        0.000        0.000        0.000        0.000        0.000        0.000        0.000        0.000        2.000        0.000        0.000        0.000        0.000        0.000        0.000        0.000        0.000        1.000        1.000        0.000        3.000        0.000        5.000        0.000        0.000        0.000        0.000        0.000      100.000        0.000        0.000        1.452        1.508        2.183
     810.000  -262161.595    25751.974    15154.042    38082.965       96.367  -388857.111    47610.168       26.036       25.686        2.591        3.109        2.449        2.611        2.680        3.046        2.671        2.526        3.244        2.624        3.127        2.471        3.098        2.977        2.648        2.594        0.471        1.000        0.000        0.000        2.000        3.000        4.000        0.000        0.000        1.000        1.000        0.000        0.000        0.000        0.000        0.000        1.000        0.000        0.000        0.000        1.000        0.000        0.000        0.000        0.000        0.000        6.000        0.000        1.000        0.000        6.000        0.000        1.000        0.000        4.494        0.000       95.506        0.000        0.000        1.517        1.551        2.174
     820.000  -262564.516    26423.303    15261.985    38070.436      107.070  -389796.579    47369.270       26.014       25.769        2.657        3.037        2.477        2.664        2.635        3.095        2.683        2.468        3.245        2.677        3.140        2.527        3.136        3.021        2.644        2.609        0.478        1.000        0.000        0.000        2.000        3.000        4.000        0.000        0.000        0.000        0.000        0.000        0.000        0.000        0.000        0.000        1.000        0.000        0.000        0.000        1.000        0.000        0.000        0.000        0.000        1.000        3.000        0.000        4.000        0.000        5.000        0.000        2.000        0.000        0.000        0.000      100.000        0.000        0.000        1.218        1.291        1.965
     830.000  -262213.813    26475.493    15081.906    38016.287      142.070  -388974.213    47044.642       25.838       25.640        2.644        3.042        2.474        2.606        2.635        3.125        2.671        2.503        3.254        2.669        3.155        2.502        3.035        2.997        2.629        2.562        0.492        1.000        0.000        0.000        2.000        3.000        2.000        0.000        0.000        0.000        0.000        0.000        0.000        0.000        0.000        0.000        2.000        0.000        0.000        0.000        1.000        0.000        0.000        0.000        0.000        0.000        3.000        0.000        1.000        0.000        4.000        0.000        1.000        0.000        0.000        0.000      100.000        0.000        0.000        1.397        1.463        2.069
     840.000  -262696.434    26284.714    15080.601    37727.490      104.095  -387935.893    46042.558       25.950       25.768        2.643        3.096        2.496        2.599        2.696        2.977        2.710        2.502        3.188        2.688        3.146        2.539        3.129        3.050        2.670        2.577        0.497        1.000        0.000        0.000        2.000        3.000        5.000        0.000        0.000        0.000        0.000        0.000        0.000        0.000        0.000        0.000        1.000        0.000        0.000        0.000        1.000        0.000        0.000        0.000        0.000        1.000        2.000        0.000        1.000        0.000        5.000        0.000        0.000        0.000        0.000        0.000      100.000        0.000        0.000        1.505        1.562        2.151
     850.000  -261596.969    26938.057    15115.976    38049.438       92.612  -387322.315    45529.264       25.932       25.653        2.631        3.118        2.507        2.656        2.675        3.052        2.643        2.511        3.203        2.648        3.185        2.546        3.141        2.984        2.724        2.559        0.494        1.000        1.000        0.000        2.000        3.000        4.000        0.000        0.000        0.000        0.000        0.000        0.000        0.000        0.000        0.000        2.000        0.000        0.000        0.000        1.000        0.000        0.000        0.000        0.000        0.000        3.000        0.000        3.000        1.000        3.000        0.000        2.000        0.000        0.000        0.000      100.000        0.000        0.000        1.453        1.509        2.051
     860.000  -262619.823    26711.963    15007.054    38113.879      102.878  -389237.662    46682.066       26.113       25.816        2.654        3.005        2.489        2.672        2.625        3.035        2.682        2.498        3.284        2.707        3.183        2.482        3.124        2.973        2.681        2.533        0.504        0.000        0.000        0.000        2.000        3.000        4.000        0.000        0.000        0.000        0.000        0.000        0.000        0.000        0.000        0.000        2.000        0.000        0.000        0.000        1.000        0.000        0.000        0.000        0.000        2.000        2.000        0.000        1.000        1.000        1.000        0.000        1.000        0.000        0.000        0.000      100.000        0.000        0.000        1.627        1.667        2.246
     870.000  -262287.945    26586.658    15439.278    37918.959      135.104  -389597.255    47229.310       26.284       25.774        2.635        3.065        2.510        2.690        2.640        2.944        2.625        2.533        3.269        2.660        3.182        2.515        3.134        2.961        2.678        2.574        0.471        1.000        0.000        0.000        1.000        3.000        4.000        0.000        0.000        0.000        0.000        0.000        0.000        1.000        0.000        0.000        2.000        0.000        0.000        0.000        1.000        0.000        0.000        0.000        0.000        0.000        4.000        0.000        1.000        1.000        6.000        0.000        1.000        0.000        0.000        0.000      100.000        0.000        0.000        1.755        1.793        2.278
     880.000  -262681.538    25705.049    15171.097    37863.894       93.641  -389031.912    47516.693       26.160       25.808        2.616        3.100        2.512        2.607        2.661        3.045        2.629        2.513        3.215        2.686        3.154        2.546        3.141        2.962        2.670        2.603        0.490        1.000        0.000        0.000        2.000        3.000        4.000        0.000        0.000        0.000        0.000        0.000        0.000        0.000        1.000        0.000        2.000        0.000        0.000        0.000        1.000        0.000        0.000        0.000        0.000        0.000        2.000        0.000        1.000        1.000        3.000        0.000        2.000        0.000        0.000        0.000      100.000        0.000        0.000        1.808        1.837        2.163
     890.000  -262486.346    26046.689    15249.399    38016.542      106.760  -389932.626    48026.890       26.254       25.939        2.651        3.101        2.499        2.640        2.622        2.955        2.684        2.520        3.225        2.664        3.131        2.527        3.080        3.006        2.656        2.608        0.495        1.000        0.000        0.000        2.000        3.000        4.000        0.000        0.000        0.000        0.000        0.000        1.000        0.000        0.000        0.000        2.000        0.000        0.000        0.000        0.000        0.000        0.000        0.000        0.000        1.000        3.000        0.000        2.000        0.000        2.000        0.000        0.000        0.000        0.000        0.000      100.000        0.000        0.000        1.816        1.853        2.287
     900.000  -262523.543    25277.566    15225.457    37962.634      102.692  -389006.306    47914.414       26.169       25.772        2.626        3.075        2.492        2.657        2.598        2.990        2.728        2.489        3.217        2.723        3.179        2.483        3.018        2.918        2.676        2.609        0.467        1.000        1.000        0.000        2.000        3.000        4.000        0.000        0.000        0.000        0.000        0.000        0.000        0.000        0.000        0.000        0.000        0.000        0.000        0.000        1.000        0.000        0.000        0.000        0.000        0.000        1.000        0.000        0.000        1.000        6.000        0.000        4.000        0.000        0.000        0.000      100.000        0.000        0.000        1.684        1.749        2.200
     910.000  -261209.529    25558.195    15561.082    37840.841      107.835  -387245.067    46967.585       26.357       25.808        2.650        3.060        2.489        2.654        2.686        3.028        2.690        2.490        3.166        2.679        3.163        2.538        3.092        2.955        2.699        2.592        0.486        1.000        1.000        0.000        2.000        2.000        2.000        0.000        0.000        0.000        0.000        0.000        0.000        0.000        0.000        0.000        1.000        0.000        0.000        0.000        1.000        0.000        0.000        0.000        0.000        2.000        3.000        0.000        3.000        0.000        5.000        0.000        1.000        0.000        0.000        0.000      100.000        0.000        0.000        1.701        1.766        2.304
     920.000  -262160.990    24829.899    15020.182    38221.777      112.333  -388852.688    48507.507       26.144       25.660        2.617        3.077        2.508        2.682        2.637        3.026        2.672        2.493        3.207        2.676        3.203        2.523        3.063        2.994        2.654        2.561        0.482        1.000        0.000        0.000        2.000        3.000        4.000        0.000        0.000        0.000        0.000        0.000        0.000        0.000        1.000        0.000        0.000        0.000        0.000        0.000        1.000        0.000        0.000        0.000        0.000        0.000        2.000        0.000        3.000        0.000        3.000        0.000        1.000        0.000        0.000        0.000      100.000        0.000        0.000        1.468        1.552        2.195
     930.000  -262183.433    26195.245    15191.043    37801.995      127.508  -387918.121    46418.897       26.033       25.697        2.662        3.078        2.481        2.642        2.680        3.035        2.656        2.542        3.192        2.702        3.120        2.510        3.124        2.913        2.698        2.623        0.480        1.000        0.000        0.000        2.000        3.000        2.000        0.000        0.000        0.000        0.000        0.000        0.000        0.000        0.000        0.000        1.000        0.000        0.000        0.000        1.000        0.000        0.000        0.000        0.000        0.000        4.000        0.000        4.000        0.000        3.000        0.000        0.000        0.000        0.000        0.000      100.000        0.000        0.000        1.762        1.820        2.338
     940.000  -262406.345    26119.447    15200.522    37850.786      109.024  -387891.610    46205.486       25.886       25.689        2.628        3.113        2.521        2.687        2.616        2.974        2.682        2.500        3.246        2.689        3.082        2.523        3.139        2.931        2.702        2.625        0.483        1.000        0.000        0.000        2.000        3.000        4.000        0.000        0.000        1.000        0.000        0.000        1.000        0.000        1.000        0.000        1.000        0.000        0.000        0.000        1.000        0.000        0.000        0.000        0.000        0.000        1.000        0.000        2.000        0.000        4.000        0.000        4.000        0.000        0.000        0.000      100.000        0.000        0.000        1.458        1.528        2.248
     950.000  -262091.839    26445.149    15422.176    37972.347      107.596  -387768.813    45729.706       25.957       25.747        2.650        3.054        2.497        2.682        2.659        3.035        2.676        2.549        3.232        2.693        3.086        2.545        3.122        2.972        2.669        2.634        0.501        1.000        0.000        0.000        2.000        3.000        2.000        0.000        0.000        0.000        0.000        0.000        0.000        0.000        0.000        0.000        0.000        0.000        0.000        0.000        1.000        0.000        0.000        0.000        0.000        0.000        2.000        0.000        2.000        0.000        4.000        0.000        0.000        0.000        0.000        0.000      100.000        0.000        0.000        1.520        1.583        2.305
     960.000  -261788.340    26292.979    15558.835    37692.524      118.508  -388760.350    47309.164       25.925       25.648        2.627        3.064        2.501        2.675        2.649        3.105        2.645        2.506        3.212        2.694        3.120        2.479        3.082        3.006        2.717        2.593        0.488        1.000        0.000        0.000        1.000        3.000        4.000        0.000        0.000        0.000        0.000        0.000        0.000        0.000        1.000        0.000        0.000        0.000        0.000        0.000        1.000        0.000        0.000        0.000        0.000        0.000        2.000        0.000        1.000        1.000        1.000        0.000        0.000        0.000        0.000        0.000      100.000        0.000        0.000        1.596        1.672        2.329
     970.000  -262380.855    26010.498    15398.420    37895.672      111.796  -389161.388    47364.147       25.968       25.847        2.635        3.112        2.484        2.676        2.632        3.007        2.667        2.549        3.263        2.718        3.101        2.505        3.063        2.984        2.694        2.531        0.468        1.000        0.000        0.000        2.000        3.000        3.000        0.000        0.000        0.000        1.000        0.000        0.000        0.000        1.000        0.000        2.000        0.000        0.000        0.000        0.000        0.000        0.000        0.000        0.000        0.000        2.000        0.000        3.000        0.000        5.000        0.000        1.000        0.000        0.000        0.000      100.000        0.000        0.000        1.682        1.779        2.334
     980.000  -262759.437    25632.626    14967.491    38018.356      112.698  -388384.303    46893.694       26.041       25.766        2.611        3.038        2.528        2.624        2.649        3.015        2.641        2.458        3.155        2.706        3.130        2.529        3.055        2.957        2.678        2.514        0.481        1.000        0.000        0.000        2.000        3.000        2.000        0.000        0.000        0.000        0.000        0.000        0.000        0.000        0.000        0.000        5.000        0.000        0.000        0.000        1.000        0.000        0.000        0.000        0.000        0.000        1.000        0.000        2.000        1.000        4.000        0.000        2.000        0.000        0.000        0.000      100.000        0.000        0.000        2.183        2.269        2.702
     990.000  -262375.275    25568.187    15375.312    37822.232      107.994  -388870.041    47621.042       26.206       25.946        2.627        3.055        2.488        2.594        2.651        3.006        2.672        2.539        3.203        2.705        3.149        2.530        3.094        2.922        2.720        2.587        0.473        1.000        1.000        0.000        2.000        3.000        2.000        0.000        0.000        0.000        0.000        0.000        0.000        0.000        0.000        0.000        3.000        0.000        0.000        0.000        1.000        0.000        0.000        0.000        0.000        2.000        1.000        0.000        1.000        0.000        4.000        0.000        1.000        0.000        0.000        0.000      100.000        0.000        0.000        2.044        2.141        2.601
    1000.000  -262774.230    25290.836    15044.323    38052.830      122.433  -389308.405    48023.753       26.050       25.672        2.703        3.006        2.502        2.615        2.651        3.041        2.714        2.476        3.158        2.697        3.180        2.549        3.106        2.978        2.697        2.614        0.485        1.000        1.000        0.000        2.000        3.000        2.000        0.000        0.000        0.000        0.000        0.000        0.000        0.000        1.000        0.000        1.000        0.000        0.000        0.000        1.000        0.000        0.000        0.000        0.000        0.000        4.000        0.000        0.000        0.000        3.000        0.000        0.000        0.000        0.000        0.000      100.000        0.000        0.000        1.988        2.094        2.592
     Average  -264157.315    26311.486    15434.258    37931.047      110.709  -392222.510    48277.694       25.988       25.739        2.628        3.070        2.520        2.631        2.648        3.066        2.675        2.509        3.230        2.670        3.160        2.529        3.086        2.993        2.612        2.598        0.484        0.842        0.228        0.000        1.733        3.188        3.861        0.000        0.000        0.129        0.188        0.000        0.248        0.069        0.465        0.000        1.277        0.000        0.000        0.000        0.921        0.000        0.000        0.000        0.000        0.406        2.238        0.000        1.762        0.416        4.158        0.000        1.505        0.000        0.534        0.000       99.466        0.000        0.000        1.818        1.851        2.255

