____Time[ps] Energy[ kJ/mol ]_____Bond _______Angle ____Dihedral ___Planarity _____Coulomb _________VdW _Your result _Your result _Your result _Your result _Your result _Your result _Your result _Your result _Your result _Your result _Your result _Your result _Your result _Your result _Your result _Your result _Your result _Your result _Your result _Your result _Your result _Your result _Your result _Your result _Your result _Your result _Your result _Your result _Your result _Your result _Your result _Your result _Your result _Your result _Your result _Your result _Your result _Your result _Your result _Your result _Your result _Your result _Your result _Your result _Your result _Your result _Your result _Your result _Your result _Your result _Your result _Your result _Your result _Your result _Your result _Your result _Your result _RMSDs[A]:CA ____Backbone __HeavyAtoms
       0.000  -352761.175    12568.259     5840.574    37755.991       14.844  -477242.795    68301.951       25.373       25.299        2.902        2.930        3.076        3.177        3.182        2.996        2.668        2.480        2.682        2.650        2.512        2.693        3.090        2.965        3.054        2.955        0.490        1.000        1.000        1.000        1.000        3.000        0.000        0.000        1.000        1.000        0.000        0.000        0.000        0.000        0.000        2.000        3.000        0.000        0.000        0.000        0.000        0.000        0.000        0.000        0.000        1.000        1.000        0.000        2.000        1.000        3.000        1.000        0.000        0.000        0.000        0.000      100.000        0.000        0.000        0.502        0.516        0.682
      10.000  -264080.972    30236.867    15427.623    37793.299       95.756  -397439.114    49804.597       25.884       25.798        2.724        3.048        3.162        3.146        3.231        2.992        2.650        2.452        2.694        2.677        2.499        2.656        3.044        3.051        3.022        2.970        0.479        0.000        1.000        1.000        1.000        2.000        0.000        0.000        1.000        1.000        0.000        0.000        0.000        1.000        0.000        1.000        0.000        0.000        0.000        0.000        0.000        0.000        0.000        0.000        0.000        0.000        1.000        0.000        0.000        0.000        4.000        0.000        1.000        0.000        0.000        0.000      100.000        0.000        0.000        1.150        1.171        1.381
      20.000  -263708.664    30170.463    16218.930    37488.059       99.095  -397494.957    49809.746       25.848       26.127        2.795        3.138        3.203        3.147        3.185        3.054        2.691        2.469        2.708        2.669        2.448        2.703        3.034        3.030        3.045        2.975        0.512        1.000        1.000        0.000        1.000        3.000        0.000        0.000        1.000        0.000        0.000        0.000        0.000        0.000        0.000        0.000        0.000        0.000        0.000        0.000        1.000        0.000        0.000        0.000        0.000        0.000        0.000        3.000        2.000        0.000        0.000        1.000        1.000        0.000        0.000        0.000      100.000        0.000        0.000        1.203        1.241        1.533
      30.000  -263926.010    29536.005    15900.134    37692.153      104.088  -397910.398    50752.008       25.893       25.955        2.803        3.165        3.160        3.210        3.219        3.036        2.732        2.483        2.722        2.655        2.459        2.703        3.021        2.989        3.073        2.984        0.474        0.000        1.000        0.000        1.000        3.000        0.000        1.000        1.000        0.000        0.000        0.000        0.000        0.000        0.000        0.000        0.000        0.000        0.000        0.000        1.000        0.000        0.000        0.000        0.000        0.000        0.000        1.000        0.000        0.000        0.000        2.000        1.000        0.000        0.000        0.000      100.000        0.000        0.000        1.207        1.210        1.705
      40.000  -263824.489    29324.922    16017.170    37655.476      112.450  -396930.079    49995.572       25.958       26.080        2.810        3.143        3.138        3.142        3.233        3.100        2.683        2.492        2.658        2.683        2.525        2.528        3.004        3.049        3.028        3.039        0.506        0.000        0.000        0.000        0.000        2.000        0.000        0.000        1.000        0.000        0.000        0.000        0.000        0.000        0.000        2.000        1.000        0.000        0.000        0.000        0.000        0.000        0.000        0.000        0.000        0.000        0.000        0.000        0.000        0.000        0.000        0.000        0.000        0.000        0.000        0.000      100.000        0.000        0.000        1.331        1.355        1.855
      50.000  -263098.714    28236.022    16277.398    37664.254      104.557  -396702.159    51321.213       26.291       26.423        2.760        3.077        3.084        3.144        3.165        3.125        2.637        2.421        2.661        2.640        2.476        2.558        3.062        3.026        3.077        2.922        0.488        1.000        0.000        0.000        0.000        2.000        0.000        0.000        1.000        0.000        0.000        0.000        0.000        0.000        1.000        0.000        0.000        0.000        0.000        0.000        0.000        0.000        0.000        0.000        0.000        0.000        1.000        3.000        0.000        0.000        0.000        2.000        1.000        0.000        0.000        0.000      100.000        0.000        0.000        1.674        1.695        2.237
      60.000  -263233.350    28145.032    15884.383    37616.029      129.629  -395155.624    50147.201       26.156       26.044        2.731        3.077        3.144        3.187        3.219        3.056        2.683        2.486        2.673        2.636        2.474        2.518        3.018        2.988        3.064        2.949        0.484        1.000        0.000        0.000        1.000        2.000        0.000        0.000        1.000        0.000        0.000        0.000        0.000        0.000        1.000        1.000        3.000        0.000        0.000        0.000        0.000        0.000        0.000        0.000        0.000        0.000        1.000        2.000        0.000        1.000        0.000        0.000        0.000        0.000        0.000        0.000      100.000        0.000        0.000        1.382        1.384        2.005
      70.000  -262448.269    28831.214    16241.919    37479.783      108.525  -393737.294    48627.584       26.270       26.216        2.801        3.079        3.142        3.148        3.219        3.127        2.649        2.442        2.700        2.641        2.468        2.586        3.036        3.060        3.023        2.984        0.478        1.000        0.000        0.000        0.000        2.000        0.000        1.000        1.000        0.000        1.000        0.000        0.000        0.000        1.000        0.000        2.000        0.000        0.000        0.000        0.000        0.000        0.000        0.000        0.000        0.000        1.000        0.000        0.000        1.000        1.000        0.000        0.000        0.000        0.000        0.000      100.000        0.000        0.000        1.633        1.653        2.176
      80.000  -262197.109    28097.250    16358.874    37538.495      103.825  -393274.008    48978.455       26.184       26.144        2.725        3.063        3.138        3.209        3.192        3.122        2.719        2.486        2.726        2.638        2.457        2.561        3.084        3.055        3.223        2.981        0.467        1.000        0.000        0.000        1.000        2.000        0.000        1.000        1.000        0.000        0.000        1.000        1.000        1.000        1.000        0.000        0.000        0.000        0.000        0.000        1.000        0.000        0.000        0.000        0.000        1.000        1.000        4.000        1.000        0.000        1.000        0.000        1.000        0.000        0.000        0.000      100.000        0.000        0.000        1.679        1.678        2.274
      90.000  -262620.313    27095.679    16114.243    37575.423      113.568  -393832.182    50312.958       25.900       26.151        2.770        3.194        3.204        3.167        3.197        3.065        2.656        2.462        2.672        2.646        2.467        2.540        3.069        3.006        3.227        3.025        0.496        0.000        0.000        0.000        1.000        2.000        0.000        1.000        1.000        2.000        0.000        0.000        0.000        0.000        0.000        0.000        0.000        0.000        0.000        0.000        1.000        0.000        0.000        0.000        0.000        1.000        3.000        1.000        1.000        0.000        1.000        0.000        1.000        0.000        0.000        0.000      100.000        0.000        0.000        1.361        1.372        2.012
     100.000  -261542.404    27537.920    16282.762    37669.563      124.643  -393252.210    50094.918       25.884       26.013        2.750        3.193        3.139        3.122        3.219        3.054        2.676        2.458        2.684        2.661        2.479        2.533        3.018        3.006        3.236        2.959        0.502        1.000        0.000        0.000        1.000        2.000        0.000        1.000        1.000        1.000        0.000        0.000        0.000        0.000        0.000        2.000        2.000        0.000        0.000        0.000        1.000        0.000        0.000        0.000        0.000        0.000        1.000        0.000        1.000        0.000        3.000        1.000        0.000        0.000        0.000        0.000      100.000        0.000        0.000        1.313        1.309        2.086
     110.000  -262085.181    27413.525    15339.003    37642.396      111.416  -391768.488    49176.967       26.003       25.940        3.039        3.146        3.139        3.094        3.170        3.107        2.707        2.448        2.679        2.663        2.484        2.554        3.043        3.010        3.230        3.027        0.496        1.000        0.000        1.000        0.000        2.000        0.000        1.000        1.000        0.000        1.000        0.000        0.000        0.000        0.000        0.000        2.000        0.000        0.000        0.000        0.000        0.000        0.000        0.000        0.000        2.000        1.000        1.000        0.000        0.000        1.000        0.000        0.000        0.000        0.000        0.000      100.000        0.000        0.000        1.492        1.496        2.241
     120.000  -261883.860    27895.104    16104.641    37714.433      116.611  -392083.176    48368.528       25.793       25.905        3.036        3.041        3.148        3.074        3.200        3.068        2.640        2.493        2.687        2.636        2.484        2.523        3.089        2.997        3.243        2.978        0.483        1.000        0.000        0.000        0.000        2.000        0.000        1.000        1.000        1.000        0.000        0.000        0.000        0.000        2.000        0.000        0.000        0.000        0.000        0.000        0.000        0.000        0.000        0.000        0.000        0.000        3.000        0.000        1.000        0.000        3.000        0.000        0.000        0.000        0.000        0.000      100.000        0.000        0.000        1.308        1.307        2.245
     130.000  -261285.174    26855.859    16098.608    37923.048      123.425  -392681.318    50395.204       25.789       25.732        3.049        3.127        3.172        3.094        3.170        3.102        2.648        2.498        2.685        2.587        2.486        2.519        3.058        3.001        3.221        3.029        0.513        1.000        0.000        0.000        1.000        2.000        0.000        1.000        1.000        0.000        1.000        0.000        1.000        0.000        0.000        1.000        2.000        0.000        0.000        0.000        1.000        0.000        0.000        0.000        0.000        0.000        1.000        0.000        1.000        0.000        1.000        1.000        2.000        0.000        0.000        0.000      100.000        0.000        0.000        1.306        1.301        2.177
     140.000  -261247.246    26718.999    16172.269    37704.188      119.696  -392405.849    50443.451       26.046       25.769        2.989        3.013        3.171        3.179        3.151        3.057        2.657        2.464        2.667        2.625        2.450        2.549        3.051        3.033        3.184        2.994        0.492        1.000        0.000        0.000        0.000        2.000        0.000        0.000        1.000        1.000        0.000        0.000        1.000        1.000        0.000        0.000        0.000        0.000        0.000        0.000        0.000        0.000        0.000        0.000        0.000        2.000        2.000        0.000        1.000        0.000        1.000        1.000        3.000        0.000        0.000        0.000      100.000        0.000        0.000        1.497        1.495        2.452
     150.000  -261540.374    28373.304    15861.019    37677.364      126.507  -391084.576    47506.009       25.825       25.786        2.994        3.065        3.172        3.163        3.111        3.051        2.702        2.522        2.665        2.616        2.521        2.560        3.131        3.020        3.165        3.058        0.499        0.000        0.000        1.000        1.000        2.000        0.000        0.000        1.000        1.000        0.000        0.000        0.000        1.000        0.000        1.000        0.000        0.000        0.000        0.000        1.000        0.000        0.000        0.000        0.000        1.000        1.000        1.000        0.000        0.000        1.000        0.000        2.000        0.000        4.494        0.000       95.506        0.000        0.000        1.615        1.627        2.646
     160.000  -261229.990    27841.228    16011.097    37572.028       95.627  -390400.173    47650.202       25.712       25.847        2.991        3.143        3.202        3.145        3.158        3.080        2.664        2.456        2.648        2.620        2.480        2.557        3.119        3.015        3.170        2.944        0.490        1.000        0.000        1.000        1.000        2.000        0.000        1.000        1.000        0.000        0.000        0.000        0.000        0.000        1.000        0.000        2.000        0.000        0.000        0.000        0.000        0.000        0.000        0.000        0.000        0.000        0.000        1.000        1.000        0.000        1.000        1.000        0.000        0.000        0.000        0.000      100.000        0.000        0.000        1.736        1.728        2.761
     170.000  -260927.893    27167.026    15792.013    37650.088      119.092  -388996.381    47340.269       25.727       25.802        2.966        3.117        3.136        3.179        3.185        3.121        2.667        2.451        2.648        2.662        2.477        2.539        3.098        3.000        3.244        2.856        0.495        1.000        0.000        0.000        1.000        2.000        0.000        1.000        1.000        0.000        0.000        0.000        0.000        0.000        0.000        2.000        1.000        0.000        0.000        0.000        1.000        0.000        0.000        0.000        0.000        0.000        1.000        2.000        2.000        0.000        3.000        1.000        0.000        0.000        0.000        0.000      100.000        0.000        0.000        1.860        1.864        2.806
     180.000  -261177.848    26442.844    15738.884    37697.797      125.776  -389790.454    48607.306       25.544       25.785        3.063        3.148        3.123        3.195        3.184        3.170        2.724        2.459        2.652        2.650        2.479        2.588        3.050        3.046        3.213        2.852        0.478        1.000        1.000        1.000        0.000        2.000        0.000        1.000        1.000        0.000        0.000        0.000        0.000        1.000        0.000        2.000        0.000        0.000        0.000        0.000        0.000        0.000        0.000        0.000        0.000        1.000        2.000        1.000        0.000        0.000        1.000        2.000        1.000        0.000        0.000        0.000      100.000        0.000        0.000        1.857        1.847        2.803
     190.000  -260054.963    25734.148    16403.863    37651.494      117.697  -389429.945    49467.780       25.639       25.688        3.085        3.065        3.076        3.218        3.209        3.025        2.706        2.508        2.695        2.637        2.488        2.495        3.063        3.049        3.144        2.952        0.466        1.000        1.000        0.000        0.000        2.000        0.000        0.000        1.000        1.000        0.000        0.000        0.000        1.000        0.000        1.000        2.000        0.000        0.000        0.000        0.000        0.000        0.000        0.000        0.000        0.000        0.000        0.000        0.000        0.000        1.000        1.000        2.000        0.000        0.000        0.000      100.000        0.000        0.000        2.166        2.208        3.004
     200.000  -260531.494    26863.451    15920.718    37637.794      125.087  -388811.660    47733.116       25.600       25.835        3.097        3.131        3.162        3.212        3.196        3.094        2.672        2.474        2.675        2.607        2.513        2.549        3.078        3.001        3.150        2.952        0.485        1.000        0.000        1.000        0.000        2.000        0.000        1.000        1.000        1.000        0.000        0.000        0.000        0.000        0.000        0.000        1.000        0.000        0.000        0.000        0.000        0.000        0.000        0.000        0.000        0.000        0.000        0.000        0.000        0.000        0.000        0.000        1.000        0.000        0.000        0.000      100.000        0.000        0.000        2.228        2.242        3.085
     210.000  -259650.672    26073.369    16375.953    37826.608      128.754  -389235.546    49180.189       25.471       25.599        3.094        3.102        3.178        3.044        3.195        3.098        2.690        2.450        2.682        2.647        2.498        2.528        3.039        2.997        3.200        2.955        0.489        1.000        0.000        1.000        0.000        2.000        0.000        1.000        1.000        0.000        0.000        1.000        0.000        1.000        0.000        1.000        1.000        0.000        0.000        0.000        0.000        0.000        0.000        0.000        0.000        1.000        1.000        0.000        1.000        0.000        1.000        0.000        0.000        0.000        0.000        0.000      100.000        0.000        0.000        2.007        2.055        2.865
     220.000  -259881.160    26093.632    15900.657    37668.865       94.854  -388811.827    49172.659       25.922       25.828        3.085        3.116        3.195        3.136        3.214        3.084        2.641        2.442        2.700        2.667        2.490        2.536        3.092        3.033        3.175        3.007        0.475        1.000        0.000        0.000        1.000        1.000        0.000        1.000        1.000        1.000        0.000        0.000        0.000        0.000        0.000        1.000        2.000        0.000        0.000        0.000        0.000        0.000        0.000        0.000        0.000        1.000        2.000        1.000        1.000        0.000        1.000        1.000        2.000        0.000        0.000        0.000      100.000        0.000        0.000        2.136        2.166        2.937
     230.000  -259936.515    27134.811    15812.185    37752.760       95.010  -388091.713    47360.433       25.763       25.635        3.119        3.156        3.163        3.133        3.260        3.142        2.683        2.444        2.667        2.631        2.494        2.504        3.134        3.082        3.191        3.001        0.502        1.000        0.000        0.000        1.000        2.000        0.000        0.000        1.000        1.000        0.000        0.000        1.000        0.000        0.000        0.000        0.000        0.000        0.000        0.000        1.000        0.000        0.000        0.000        0.000        1.000        1.000        3.000        2.000        0.000        1.000        1.000        0.000        0.000        0.000        0.000      100.000        0.000        0.000        2.351        2.391        3.055
     240.000  -260180.009    27123.661    15749.890    37639.884      128.370  -389106.335    48284.523       25.607       25.823        3.035        3.146        3.203        3.180        3.311        3.000        2.709        2.484        2.669        2.657        2.454        2.540        3.082        3.069        3.195        3.008        0.506        1.000        0.000        1.000        0.000        2.000        0.000        1.000        1.000        1.000        0.000        0.000        0.000        1.000        0.000        1.000        1.000        0.000        0.000        0.000        0.000        0.000        0.000        0.000        0.000        0.000        0.000        1.000        1.000        0.000        0.000        1.000        0.000        0.000        0.000        0.000      100.000        0.000        0.000        2.599        2.621        3.489
     250.000  -259549.243    25187.479    16014.889    37657.894      122.534  -386972.603    48440.563       25.674       25.843        3.071        3.215        3.222        3.186        3.276        3.025        2.641        2.483        2.666        2.682        2.451        2.556        3.130        3.044        3.235        2.975        0.505        1.000        0.000        1.000        0.000        2.000        0.000        1.000        1.000        0.000        0.000        0.000        0.000        0.000        0.000        0.000        1.000        0.000        0.000        0.000        0.000        0.000        0.000        0.000        0.000        0.000        0.000        0.000        0.000        0.000        0.000        2.000        1.000        0.000        0.000        0.000      100.000        0.000        0.000        2.787        2.807        3.595
     260.000  -259358.694    26329.600    16158.811    37762.952      142.389  -387885.712    48133.266       25.763       25.936        3.052        3.154        3.179        3.199        3.260        3.033        2.660        2.470        2.696        2.661        2.481        2.550        3.068        3.074        3.178        2.964        0.488        1.000        1.000        1.000        1.000        2.000        0.000        1.000        1.000        1.000        0.000        0.000        0.000        1.000        0.000        0.000        2.000        0.000        0.000        0.000        1.000        0.000        0.000        0.000        0.000        0.000        1.000        0.000        1.000        0.000        0.000        1.000        3.000        0.000        0.000        0.000      100.000        0.000        0.000        2.461        2.489        3.445
     270.000  -259340.445    26528.399    15437.846    37838.909      117.561  -387353.637    48090.477       25.673       25.687        3.117        3.181        3.191        3.176        3.240        3.059        2.658        2.452        2.659        2.669        2.477        2.524        3.089        2.996        3.230        3.002        0.496        1.000        1.000        1.000        1.000        2.000        0.000        1.000        1.000        0.000        0.000        0.000        0.000        1.000        0.000        0.000        0.000        0.000        0.000        0.000        0.000        0.000        0.000        0.000        0.000        0.000        1.000        0.000        1.000        1.000        3.000        0.000        0.000        0.000        0.000        0.000      100.000        0.000        0.000        2.085        2.071        3.396
     280.000  -259666.888    25735.854    15812.903    37571.183      150.630  -388204.486    49267.027       25.749       25.944        3.065        3.109        3.193        3.131        3.208        3.056        2.697        2.454        2.694        2.681        2.491        2.502        3.046        2.968        3.151        2.926        0.504        1.000        0.000        1.000        1.000        2.000        0.000        1.000        1.000        0.000        0.000        0.000        0.000        0.000        0.000        1.000        0.000        0.000        0.000        0.000        1.000        0.000        0.000        0.000        0.000        0.000        2.000        0.000        0.000        0.000        1.000        1.000        1.000        0.000        0.000        0.000      100.000        0.000        0.000        2.113        2.109        3.569
     290.000  -259820.037    26246.190    15799.484    37861.515      114.459  -387275.964    47434.280       25.593       25.506        3.084        3.183        3.188        3.103        3.265        3.008        2.671        2.503        2.692        2.693        2.506        2.537        3.133        3.088        3.172        2.971        0.469        1.000        0.000        1.000        1.000        2.000        0.000        1.000        1.000        1.000        0.000        0.000        0.000        2.000        0.000        1.000        1.000        0.000        0.000        0.000        1.000        0.000        0.000        0.000        0.000        0.000        1.000        0.000        1.000        0.000        0.000        0.000        2.000        0.000        0.000        0.000      100.000        0.000        0.000        2.021        2.050        3.737
     300.000  -259726.997    27363.508    15092.633    37635.063      106.447  -387148.145    47223.498       25.605       25.713        3.046        3.175        3.250        3.116        3.279        3.078        2.688        2.483        2.662        2.698        2.519        2.570        3.112        3.040        3.185        3.001        0.494        1.000        0.000        0.000        1.000        2.000        0.000        1.000        1.000        0.000        0.000        0.000        0.000        0.000        0.000        2.000        2.000        0.000        0.000        0.000        1.000        0.000        0.000        0.000        0.000        0.000        0.000        1.000        0.000        0.000        0.000        1.000        4.000        0.000        0.000        0.000      100.000        0.000        0.000        1.801        1.814        3.625
     310.000  -259861.015    26981.352    15743.632    37719.441      104.628  -387217.883    46807.815       25.790       25.996        3.092        3.193        3.156        3.159        3.211        3.057        2.670        2.456        2.708        2.697        2.485        2.551        3.072        3.041        3.211        2.986        0.487        1.000        0.000        0.000        0.000        1.000        0.000        0.000        1.000        0.000        0.000        0.000        0.000        0.000        0.000        3.000        0.000        0.000        0.000        0.000        0.000        0.000        0.000        0.000        0.000        0.000        0.000        1.000        1.000        0.000        0.000        1.000        0.000        0.000        0.000        0.000      100.000        0.000        0.000        2.046        2.059        3.615
     320.000  -259760.603    26643.301    15423.554    37919.216      132.989  -387356.481    47476.817       25.664       25.793        3.007        3.131        3.227        3.215        3.233        3.000        2.661        2.495        2.709        2.689        2.536        2.493        3.120        3.062        3.123        2.998        0.480        1.000        0.000        0.000        1.000        2.000        0.000        0.000        1.000        0.000        0.000        0.000        0.000        0.000        0.000        0.000        0.000        0.000        0.000        0.000        0.000        0.000        0.000        0.000        0.000        1.000        0.000        0.000        0.000        0.000        0.000        2.000        0.000        0.000        0.000        0.000      100.000        0.000        0.000        1.970        1.988        3.507
     330.000  -259426.208    27029.030    15358.587    37424.053      127.300  -386026.920    46661.743       26.052       26.113        3.084        3.143        3.155        3.185        3.165        3.032        2.719        2.425        2.717        2.693        2.491        2.514        3.078        3.051        3.196        2.976        0.489        1.000        0.000        0.000        0.000        2.000        0.000        0.000        1.000        1.000        0.000        0.000        0.000        0.000        0.000        0.000        0.000        0.000        0.000        0.000        0.000        0.000        0.000        0.000        0.000        0.000        0.000        2.000        0.000        0.000        0.000        2.000        1.000        0.000        0.000        0.000      100.000        0.000        0.000        2.071        2.077        3.524
     340.000  -259294.193    26027.234    15667.781    37783.811      120.655  -387215.724    48322.050       25.783       25.808        3.076        3.141        3.153        3.184        3.231        3.140        2.657        2.456        2.729        2.628        2.487        2.531        3.051        3.102        3.111        2.971        0.491        1.000        0.000        0.000        1.000        2.000        0.000        0.000        1.000        0.000        0.000        0.000        0.000        1.000        0.000        2.000        1.000        0.000        0.000        0.000        1.000        0.000        0.000        0.000        0.000        0.000        0.000        0.000        0.000        0.000        0.000        0.000        1.000        0.000        0.000        0.000      100.000        0.000        0.000        1.607        1.619        3.449
     350.000  -259645.612    26475.828    15325.010    37634.620      105.963  -386256.005    47068.973       25.897       26.073        3.059        3.162        3.151        3.148        3.188        3.102        2.719        2.463        2.714        2.639        2.507        2.522        3.074        3.039        3.161        3.039        0.502        1.000        0.000        0.000        1.000        2.000        0.000        0.000        1.000        1.000        0.000        1.000        0.000        1.000        0.000        0.000        1.000        0.000        0.000        0.000        0.000        0.000        0.000        0.000        0.000        1.000        0.000        1.000        1.000        1.000        1.000        0.000        2.000        0.000        0.000        0.000      100.000        0.000        0.000        2.133        2.133        3.838
     360.000  -259170.726    26624.536    15603.612    37898.447      121.085  -386782.168    47363.762       25.606       25.881        3.059        3.115        3.211        3.136        3.183        3.031        2.708        2.492        2.677        2.686        2.545        2.516        3.095        3.109        3.184        3.049        0.497        1.000        0.000        0.000        1.000        2.000        0.000        0.000        1.000        1.000        0.000        0.000        0.000        1.000        0.000        2.000        3.000        0.000        0.000        0.000        1.000        0.000        0.000        0.000        0.000        1.000        1.000        3.000        0.000        0.000        0.000        1.000        0.000        0.000        0.000        0.000      100.000        0.000        0.000        2.249        2.238        3.809
     370.000  -259365.183    26556.631    15703.391    37614.479      111.266  -385865.309    46514.359       25.938       26.003        3.075        3.149        3.165        3.132        3.210        3.024        2.691        2.456        2.712        2.692        2.468        2.539        3.114        3.038        3.214        2.994        0.505        1.000        0.000        0.000        0.000        2.000        0.000        0.000        1.000        1.000        0.000        0.000        0.000        0.000        0.000        0.000        1.000        0.000        0.000        0.000        0.000        0.000        0.000        0.000        0.000        0.000        0.000        0.000        1.000        0.000        0.000        1.000        2.000        0.000        0.000        0.000      100.000        0.000        0.000        2.039        2.033        3.941
     380.000  -259700.375    26893.946    15367.286    37660.379      134.029  -386630.286    46874.270       25.943       26.128        2.961        3.136        3.218        3.173        3.278        3.004        2.691        2.471        2.697        2.684        2.514        2.483        3.099        3.049        3.200        2.986        0.491        0.000        0.000        0.000        1.000        2.000        0.000        0.000        1.000        1.000        0.000        0.000        0.000        1.000        0.000        0.000        2.000        0.000        0.000        0.000        0.000        0.000        0.000        0.000        0.000        2.000        0.000        3.000        1.000        0.000        0.000        3.000        2.000        0.000        0.000        0.000      100.000        0.000        0.000        1.759        1.776        3.849
     390.000  -259024.750    26038.365    15362.970    37767.719      119.971  -385002.770    46688.993       26.100       26.101        2.990        3.223        3.142        3.080        3.215        3.026        2.712        2.489        2.699        2.685        2.503        2.465        3.154        3.047        3.179        3.002        0.491        1.000        0.000        0.000        0.000        2.000        0.000        0.000        1.000        0.000        0.000        0.000        0.000        0.000        0.000        2.000        0.000        0.000        0.000        0.000        0.000        0.000        0.000        0.000        0.000        1.000        0.000        0.000        1.000        1.000        0.000        0.000        1.000        0.000        0.000        0.000      100.000        0.000        0.000        1.637        1.601        3.748
     400.000  -259842.345    26584.954    15586.182    37704.280      114.499  -387950.220    48117.959       25.875       25.820        3.060        3.148        3.181        3.165        3.260        3.090        2.713        2.455        2.754        2.644        2.524        2.568        3.087        3.025        3.133        2.917        0.511        1.000        0.000        0.000        1.000        1.000        0.000        0.000        1.000        0.000        0.000        0.000        0.000        0.000        0.000        2.000        1.000        0.000        0.000        0.000        1.000        0.000        0.000        0.000        0.000        2.000        0.000        4.000        0.000        1.000        0.000        0.000        2.000        0.000        0.000        0.000      100.000        0.000        0.000        1.525        1.499        3.771
     410.000  -259239.259    26384.098    15692.641    37660.074      129.856  -385757.572    46651.645       26.074       26.164        3.041        3.145        3.204        3.186        3.291        3.043        2.691        2.459        2.676        2.652        2.483        2.492        3.137        3.041        3.165        2.951        0.455        1.000        0.000        0.000        0.000        1.000        0.000        0.000        1.000        0.000        0.000        0.000        0.000        1.000        0.000        0.000        1.000        0.000        0.000        0.000        0.000        0.000        0.000        0.000        0.000        2.000        0.000        2.000        2.000        0.000        1.000        2.000        0.000        0.000        0.000        0.000      100.000        0.000        0.000        1.613        1.603        3.910
     420.000  -259495.092    25394.628    15287.383    37743.385      116.220  -385897.766    47861.058       26.231       26.181        3.050        3.160        3.191        3.131        3.247        3.104        2.703        2.482        2.693        2.693        2.520        2.529        3.156        3.049        3.154        2.863        0.475        1.000        0.000        0.000        0.000        2.000        0.000        0.000        1.000        0.000        0.000        0.000        0.000        0.000        0.000        1.000        2.000        0.000        0.000        0.000        0.000        0.000        0.000        0.000        0.000        1.000        0.000        1.000        0.000        1.000        0.000        0.000        2.000        0.000        0.000        0.000      100.000        0.000        0.000        1.690        1.698        3.681
     430.000  -259452.389    25896.888    15164.693    37908.956      104.692  -385863.567    47335.948       25.744       26.177        3.001        3.137        3.281        3.139        3.164        3.052        2.703        2.461        2.664        2.703        2.482        2.487        3.083        3.047        3.171        2.932        0.498        1.000        0.000        0.000        0.000        2.000        0.000        0.000        1.000        0.000        0.000        0.000        0.000        0.000        0.000        1.000        0.000        0.000        0.000        0.000        0.000        0.000        0.000        0.000        0.000        1.000        0.000        1.000        1.000        0.000        0.000        0.000        1.000        0.000        0.000        0.000      100.000        0.000        0.000        1.700        1.715        3.934
     440.000  -259338.505    26187.977    15438.547    37792.462      103.033  -387039.126    48178.603       25.940       25.907        3.030        3.122        3.223        3.139        3.232        3.045        2.697        2.460        2.720        2.627        2.473        2.541        3.099        3.042        3.139        2.864        0.492        1.000        0.000        0.000        0.000        2.000        0.000        0.000        1.000        0.000        0.000        1.000        0.000        0.000        0.000        2.000        1.000        0.000        0.000        0.000        0.000        0.000        0.000        0.000        0.000        0.000        0.000        1.000        1.000        0.000        1.000        1.000        0.000        0.000        0.000        0.000      100.000        0.000        0.000        1.916        1.927        3.833
     450.000  -259210.898    24885.136    15354.275    37733.354      116.812  -386154.144    48853.669       26.164       25.826        3.082        3.232        3.200        3.147        3.252        3.000        2.680        2.460        2.684        2.617        2.482        2.533        3.051        3.018        3.231        2.959        0.485        1.000        0.000        0.000        0.000        2.000        0.000        0.000        1.000        0.000        0.000        0.000        0.000        0.000        0.000        1.000        0.000        0.000        0.000        0.000        0.000        0.000        0.000        0.000        0.000        2.000        0.000        1.000        0.000        0.000        0.000        3.000        3.000        0.000        0.000        0.000      100.000        0.000        0.000        1.663        1.683        3.650
     460.000  -258881.406    24914.265    15615.924    37808.876      118.147  -385970.508    48631.890       25.671       25.771        3.048        3.126        3.200        3.149        3.189        3.016        2.701        2.450        2.694        2.689        2.513        2.546        3.091        3.068        3.189        2.927        0.474        1.000        0.000        0.000        0.000        2.000        0.000        0.000        1.000        0.000        0.000        0.000        0.000        0.000        0.000        2.000        1.000        0.000        0.000        0.000        0.000        0.000        0.000        0.000        0.000        1.000        0.000        2.000        1.000        0.000        2.000        0.000        2.000        0.000        0.000        0.000      100.000        0.000        0.000        1.612        1.638        3.741
     470.000  -259570.596    26272.494    15485.736    37588.674      127.155  -384958.476    45913.821       25.911       25.867        3.097        3.190        3.208        3.180        3.187        3.001        2.724        2.446        2.697        2.690        2.486        2.529        3.085        3.050        3.181        2.919        0.495        1.000        0.000        0.000        1.000        2.000        0.000        0.000        1.000        0.000        0.000        0.000        0.000        1.000        0.000        1.000        1.000        0.000        0.000        0.000        0.000        0.000        0.000        0.000        0.000        2.000        0.000        1.000        0.000        0.000        0.000        1.000        0.000        0.000        0.000        0.000      100.000        0.000        0.000        1.579        1.573        3.600
     480.000  -258907.983    25140.251    15621.711    37744.284      125.804  -385094.191    47554.158       25.819       25.827        3.051        3.143        3.131        3.136        3.176        2.992        2.686        2.519        2.678        2.611        2.462        2.555        3.074        3.051        3.249        2.886        0.496        1.000        0.000        0.000        1.000        2.000        0.000        0.000        1.000        0.000        0.000        0.000        0.000        0.000        0.000        1.000        3.000        0.000        0.000        0.000        1.000        0.000        0.000        0.000        0.000        1.000        0.000        0.000        2.000        0.000        0.000        2.000        2.000        0.000        0.000        0.000      100.000        0.000        0.000        1.678        1.658        3.643
     490.000  -259613.132    26203.876    15457.813    37668.821      100.095  -387721.022    48677.284       25.641       25.650        3.096        3.177        3.163        3.206        3.248        3.070        2.698        2.450        2.729        2.667        2.484        2.550        3.052        3.052        3.169        2.970        0.488        1.000        0.000        0.000        0.000        2.000        0.000        0.000        1.000        0.000        0.000        0.000        0.000        0.000        0.000        2.000        3.000        0.000        0.000        0.000        0.000        0.000        0.000        0.000        0.000        3.000        0.000        1.000        2.000        0.000        1.000        0.000        0.000        0.000        0.000        0.000      100.000        0.000        0.000        1.601        1.593        3.689
     500.000  -259012.370    27095.252    15044.872    37726.790      129.245  -386143.240    47134.710       25.901       25.839        3.060        3.124        3.188        3.171        3.212        2.989        2.674        2.443        2.690        2.644        2.524        2.520        3.090        3.045        3.185        2.952        0.473        1.000        1.000        0.000        0.000        2.000        0.000        0.000        1.000        0.000        0.000        0.000        0.000        0.000        0.000        0.000        1.000        0.000        0.000        0.000        0.000        0.000        0.000        0.000        0.000        1.000        2.000        1.000        1.000        0.000        2.000        1.000        1.000        0.000        0.000        0.000      100.000        0.000        0.000        1.653        1.649        3.431
     510.000  -259749.618    26201.530    15276.527    37621.163      128.003  -384511.703    45534.863       25.893       25.713        3.084        3.124        3.215        3.200        3.236        3.097        2.690        2.438        2.703        2.657        2.467        2.534        3.139        3.035        3.199        2.912        0.496        0.000        0.000        0.000        1.000        2.000        0.000        0.000        1.000        1.000        0.000        0.000        0.000        1.000        0.000        1.000        2.000        0.000        0.000        0.000        1.000        0.000        0.000        0.000        0.000        2.000        0.000        2.000        1.000        0.000        1.000        1.000        4.000        0.000        0.000        0.000      100.000        0.000        0.000        1.574        1.545        3.545
     520.000  -258434.979    25572.800    15352.620    37711.846      126.315  -383674.982    46476.422       25.652       25.717        3.071        3.077        3.134        3.161        3.220        3.025        2.680        2.466        2.646        2.701        2.514        2.511        3.178        2.994        3.116        2.967        0.481        1.000        0.000        0.000        1.000        2.000        0.000        0.000        1.000        1.000        0.000        0.000        0.000        1.000        0.000        1.000        2.000        0.000        0.000        0.000        1.000        0.000        0.000        0.000        0.000        0.000        3.000        0.000        1.000        0.000        0.000        1.000        2.000        0.000        0.000        0.000      100.000        0.000        0.000        1.526        1.510        3.352
     530.000  -259391.815    26483.231    15224.860    37649.968      121.769  -384728.045    45856.402       25.712       25.700        2.968        3.141        3.177        3.186        3.203        3.107        2.699        2.490        2.724        2.680        2.493        2.512        3.031        2.961        3.194        3.034        0.467        1.000        0.000        0.000        1.000        2.000        0.000        0.000        1.000        0.000        0.000        0.000        0.000        0.000        0.000        1.000        1.000        0.000        0.000        0.000        0.000        0.000        0.000        0.000        0.000        0.000        0.000        0.000        1.000        0.000        0.000        1.000        6.000        0.000        4.494        0.000       95.506        0.000        0.000        2.093        2.145        3.848
     540.000  -259936.041    25507.753    15091.896    37803.484      140.995  -384582.952    46102.783       25.847       25.787        3.062        3.119        3.157        3.213        3.210        3.160        2.680        2.476        2.697        2.683        2.502        2.592        3.042        2.970        3.238        2.988        0.498        1.000        0.000        0.000        0.000        2.000        0.000        0.000        1.000        0.000        0.000        0.000        0.000        0.000        0.000        0.000        1.000        0.000        0.000        0.000        0.000        0.000        0.000        0.000        0.000        0.000        1.000        0.000        1.000        0.000        0.000        1.000        0.000        0.000        0.000        0.000      100.000        0.000        0.000        1.878        1.872        3.468
     550.000  -258863.147    25101.583    15146.894    37854.616      134.780  -385474.686    48373.666       25.690       25.551        3.161        3.150        3.108        3.186        3.199        3.055        2.662        2.514        2.693        2.687        2.497        2.531        3.085        2.978        3.250        2.985        0.474        1.000        0.000        0.000        0.000        2.000        0.000        0.000        1.000        0.000        0.000        0.000        0.000        0.000        0.000        0.000        1.000        0.000        0.000        0.000        0.000        0.000        0.000        0.000        0.000        2.000        0.000        2.000        0.000        0.000        0.000        0.000        2.000        0.000        0.000        0.000      100.000        0.000        0.000        1.979        1.988        3.725
     560.000  -259407.086    26014.754    15265.996    37709.472      116.533  -385890.032    47376.192       25.544       25.470        3.030        3.121        3.215        3.237        3.168        3.082        2.688        2.459        2.675        2.612        2.517        2.573        3.074        2.954        3.236        3.061        0.471        1.000        0.000        0.000        0.000        2.000        0.000        0.000        1.000        0.000        0.000        0.000        0.000        0.000        0.000        1.000        3.000        0.000        0.000        0.000        0.000        0.000        0.000        0.000        0.000        3.000        1.000        1.000        1.000        0.000        0.000        1.000        0.000        0.000        0.000        0.000      100.000        0.000        0.000        1.970        1.977        3.630
     570.000  -259064.297    24623.036    15084.912    37821.289      117.870  -384505.158    47793.752       25.611       25.364        3.087        3.144        3.221        3.200        3.193        3.112        2.625        2.440        2.729        2.662        2.484        2.500        3.040        2.991        3.219        2.938        0.478        1.000        0.000        0.000        0.000        2.000        0.000        0.000        1.000        0.000        0.000        1.000        0.000        0.000        0.000        1.000        1.000        0.000        0.000        0.000        0.000        0.000        0.000        0.000        0.000        0.000        0.000        0.000        0.000        0.000        2.000        1.000        2.000        0.000        0.000        0.000      100.000        0.000        0.000        1.562        1.562        3.486
     580.000  -259320.543    25696.440    14880.233    37710.065      112.020  -384237.570    46518.268       25.819       25.578        3.107        3.204        3.192        3.147        3.196        3.131        2.706        2.428        2.705        2.629        2.542        2.483        3.071        2.982        3.264        3.025        0.492        1.000        0.000        0.000        0.000        2.000        0.000        0.000        1.000        0.000        0.000        0.000        0.000        1.000        0.000        1.000        0.000        0.000        0.000        0.000        0.000        0.000        0.000        0.000        0.000        0.000        0.000        0.000        1.000        0.000        0.000        1.000        2.000        0.000        4.494        0.000       95.506        0.000        0.000        2.293        2.309        3.936
     590.000  -258858.986    25267.859    15086.599    37875.165      106.854  -384384.940    47189.477       25.642       25.526        3.170        3.180        3.177        3.194        3.219        3.092        2.648        2.439        2.725        2.604        2.461        2.510        3.076        2.964        3.274        3.045        0.507        1.000        0.000        0.000        0.000        2.000        0.000        0.000        1.000        0.000        0.000        0.000        0.000        0.000        0.000        0.000        1.000        0.000        0.000        0.000        0.000        0.000        0.000        0.000        0.000        0.000        0.000        1.000        0.000        0.000        0.000        3.000        0.000        0.000        4.494        0.000       95.506        0.000        0.000        1.788        1.776        3.558
     600.000  -258464.425    26726.623    15108.431    37763.195      135.156  -384646.404    46448.574       25.514       25.285        2.975        3.185        3.177        3.188        3.235        3.145        2.663        2.451        2.692        2.598        2.507        2.505        3.075        2.926        3.229        3.037        0.471        1.000        0.000        0.000        0.000        2.000        0.000        0.000        1.000        0.000        0.000        0.000        0.000        0.000        0.000        0.000        0.000        0.000        0.000        0.000        0.000        0.000        0.000        0.000        0.000        0.000        1.000        1.000        0.000        0.000        0.000        1.000        0.000        0.000        0.000        0.000      100.000        0.000        0.000        1.825        1.822        3.457
     610.000  -258121.587    25929.663    15389.039    37792.384       92.315  -383340.371    46015.383       25.573       25.675        3.036        3.159        3.209        3.148        3.247        3.108        2.647        2.446        2.685        2.641        2.499        2.546        3.067        2.958        3.249        2.999        0.473        1.000        0.000        0.000        0.000        2.000        0.000        0.000        1.000        0.000        0.000        0.000        0.000        0.000        0.000        0.000        3.000        0.000        0.000        0.000        0.000        0.000        0.000        0.000        0.000        1.000        1.000        0.000        0.000        0.000        1.000        1.000        2.000        0.000        0.000        0.000      100.000        0.000        0.000        1.453        1.465        3.454
     620.000  -258538.536    25028.611    15440.520    37884.864      111.305  -385381.227    48377.391       25.497       25.420        3.029        3.174        3.209        3.132        3.237        3.142        2.620        2.451        2.705        2.638        2.482        2.544        3.051        3.023        3.252        3.000        0.495        1.000        0.000        0.000        0.000        2.000        0.000        0.000        1.000        0.000        0.000        0.000        0.000        0.000        0.000        0.000        2.000        0.000        0.000        0.000        0.000        0.000        0.000        0.000        0.000        1.000        0.000        2.000        1.000        0.000        0.000        0.000        3.000        0.000        0.000        0.000      100.000        0.000        0.000        1.298        1.339        3.420
     630.000  -258578.068    25651.800    15461.450    37946.903      133.657  -386888.583    49116.704       25.717       25.735        3.030        3.096        3.194        3.116        3.270        2.977        2.672        2.426        2.702        2.640        2.505        2.558        3.068        2.976        3.301        2.930        0.489        1.000        0.000        0.000        0.000        2.000        0.000        0.000        1.000        0.000        0.000        0.000        0.000        0.000        0.000        1.000        1.000        0.000        0.000        0.000        0.000        0.000        0.000        0.000        0.000        1.000        0.000        4.000        0.000        0.000        0.000        1.000        0.000        0.000        0.000        0.000      100.000        0.000        0.000        1.672        1.708        3.490
     640.000  -258296.225    25875.544    15184.159    38079.026      102.087  -384528.498    46991.457       25.652       25.409        3.044        3.190        3.168        3.123        3.293        3.083        2.663        2.435        2.681        2.613        2.499        2.535        3.050        2.968        3.247        2.958        0.511        1.000        0.000        0.000        0.000        2.000        0.000        0.000        1.000        0.000        0.000        0.000        0.000        0.000        0.000        0.000        3.000        0.000        0.000        0.000        0.000        0.000        0.000        0.000        0.000        2.000        0.000        0.000        1.000        0.000        0.000        1.000        0.000        0.000        0.000        0.000      100.000        0.000        0.000        1.696        1.753        3.437
     650.000  -258808.097    25426.747    15490.485    37841.522      110.098  -383971.034    46294.085       26.135       25.920        3.135        3.209        3.244        3.133        3.197        3.137        2.690        2.423        2.684        2.663        2.499        2.532        3.098        2.985        3.243        2.977        0.491        1.000        0.000        0.000        0.000        2.000        0.000        0.000        1.000        0.000        0.000        0.000        0.000        0.000        0.000        0.000        1.000        0.000        0.000        0.000        0.000        0.000        0.000        0.000        0.000        1.000        0.000        0.000        1.000        0.000        0.000        1.000        0.000        0.000        0.000        0.000      100.000        0.000        0.000        1.942        1.990        3.533
     660.000  -258411.323    26755.596    14864.432    37857.916      114.164  -383844.662    45841.231       25.726       25.511        3.044        3.114        3.153        3.161        3.206        3.099        2.641        2.523        2.715        2.689        2.481        2.573        3.088        2.979        3.251        2.957        0.462        1.000        0.000        0.000        1.000        2.000        0.000        0.000        1.000        0.000        0.000        0.000        0.000        0.000        0.000        2.000        0.000        0.000        0.000        0.000        0.000        0.000        0.000        0.000        0.000        0.000        0.000        1.000        1.000        0.000        0.000        0.000        1.000        0.000        0.000        0.000      100.000        0.000        0.000        1.869        1.927        3.335
     670.000  -258116.789    25252.121    15121.707    37692.594      119.597  -384275.885    47973.076       26.171       25.874        2.964        3.203        3.157        3.112        3.186        3.022        2.686        2.454        2.658        2.615        2.455        2.506        3.064        3.037        3.252        3.035        0.497        0.000        0.000        0.000        1.000        2.000        0.000        0.000        1.000        0.000        0.000        0.000        0.000        0.000        0.000        0.000        1.000        0.000        0.000        0.000        0.000        0.000        0.000        0.000        0.000        0.000        0.000        2.000        0.000        0.000        0.000        4.000        0.000        0.000        0.000        0.000      100.000        0.000        0.000        1.734        1.806        3.285
     680.000  -258910.688    24824.067    15308.807    37761.425      116.806  -385402.429    48480.637       25.735       25.466        3.098        3.192        3.192        3.140        3.225        3.032        2.677        2.496        2.678        2.615        2.460        2.497        3.111        3.004        3.254        2.993        0.492        1.000        0.000        0.000        0.000        2.000        0.000        0.000        1.000        0.000        0.000        1.000        0.000        1.000        0.000        1.000        0.000        0.000        0.000        0.000        0.000        0.000        0.000        0.000        0.000        1.000        0.000        1.000        1.000        0.000        0.000        0.000        2.000        0.000        0.000        0.000      100.000        0.000        0.000        1.584        1.657        3.166
     690.000  -257714.614    24834.297    15136.144    37757.653      136.021  -383413.280    47834.552       26.074       25.764        3.051        3.186        3.177        3.191        3.214        2.991        2.671        2.494        2.704        2.677        2.485        2.553        3.015        2.995        3.259        3.003        0.484        0.000        0.000        0.000        0.000        2.000        0.000        0.000        1.000        0.000        0.000        1.000        0.000        0.000        0.000        1.000        2.000        0.000        0.000        0.000        0.000        0.000        0.000        0.000        0.000        0.000        0.000        2.000        1.000        0.000        1.000        0.000        0.000        0.000        0.000        0.000      100.000        0.000        0.000        1.472        1.552        3.065
     700.000  -258289.469    26222.688    15112.069    37745.244      141.869  -384364.298    46852.959       26.000       25.821        3.109        3.145        3.169        3.225        3.272        2.972        2.646        2.464        2.670        2.629        2.483        2.557        3.027        3.003        3.261        2.971        0.482        1.000        0.000        0.000        0.000        2.000        0.000        0.000        0.000        0.000        0.000        0.000        0.000        0.000        0.000        1.000        3.000        0.000        0.000        0.000        0.000        0.000        0.000        0.000        0.000        0.000        0.000        1.000        1.000        0.000        0.000        0.000        0.000        0.000        0.000        0.000      100.000        0.000        0.000        1.701        1.773        3.214
     710.000  -258787.851    26601.681    14975.885    37859.970      118.338  -383707.427    45363.700       26.016       25.670        3.075        3.231        3.126        3.176        3.226        2.985        2.707        2.466        2.696        2.665        2.479        2.504        3.057        3.011        3.201        2.995        0.484        1.000        0.000        0.000        0.000        2.000        0.000        0.000        1.000        0.000        0.000        0.000        0.000        0.000        0.000        0.000        1.000        0.000        0.000        0.000        0.000        0.000        0.000        0.000        0.000        0.000        1.000        0.000        0.000        0.000        0.000        2.000        5.000        0.000        0.000        0.000      100.000        0.000        0.000        1.669        1.734        3.215
     720.000  -258585.206    25370.549    15312.679    37741.973      101.343  -383255.180    46143.430       26.010       25.603        2.996        3.226        3.102        3.147        3.225        3.003        2.693        2.466        2.689        2.669        2.476        2.581        3.082        2.993        3.183        2.934        0.487        1.000        0.000        0.000        0.000        2.000        0.000        0.000        1.000        0.000        0.000        0.000        0.000        0.000        0.000        1.000        1.000        0.000        0.000        0.000        0.000        0.000        0.000        0.000        0.000        0.000        0.000        0.000        1.000        0.000        0.000        2.000        1.000        0.000        0.000        0.000      100.000        0.000        0.000        1.665        1.725        3.377
     730.000  -258233.843    24883.930    15274.114    37857.968      111.044  -384050.468    47689.569       26.134       25.691        3.029        3.170        3.099        3.104        3.230        3.150        2.703        2.472        2.693        2.679        2.482        2.524        3.096        2.941        3.217        3.008        0.489        1.000        0.000        0.000        0.000        2.000        0.000        0.000        1.000        0.000        0.000        0.000        0.000        0.000        0.000        1.000        0.000        0.000        0.000        0.000        0.000        0.000        0.000        0.000        0.000        1.000        1.000        0.000        0.000        0.000        2.000        0.000        2.000        0.000        0.000        0.000      100.000        0.000        0.000        1.614        1.666        3.210
     740.000  -259072.906    25788.574    15084.547    37684.494      122.543  -385133.460    47380.396       26.423       25.893        3.096        3.178        3.132        3.120        3.222        3.054        2.682        2.449        2.692        2.709        2.500        2.543        3.121        2.886        3.168        2.963        0.501        1.000        0.000        0.000        0.000        2.000        0.000        0.000        1.000        0.000        0.000        0.000        0.000        0.000        0.000        0.000        0.000        0.000        0.000        0.000        0.000        0.000        0.000        0.000        0.000        0.000        0.000        0.000        0.000        0.000        0.000        1.000        1.000        0.000        0.000        0.000      100.000        0.000        0.000        1.944        2.009        3.678
     750.000  -258861.743    25308.510    14873.419    37883.647      115.967  -385473.710    48430.424       25.905       25.698        3.148        3.101        3.120        3.221        3.286        2.963        2.626        2.422        2.686        2.705        2.492        2.548        3.107        2.997        3.229        2.996        0.475        1.000        0.000        0.000        0.000        1.000        0.000        0.000        1.000        0.000        0.000        0.000        0.000        1.000        0.000        1.000        1.000        0.000        0.000        0.000        0.000        0.000        0.000        0.000        0.000        1.000        0.000        0.000        1.000        0.000        0.000        0.000        1.000        0.000        0.000        0.000      100.000        0.000        0.000        1.568        1.641        3.679
     760.000  -259299.147    25142.423    15265.549    37929.436      111.482  -385308.462    47560.425       25.875       25.551        3.063        3.132        3.024        3.167        3.212        3.069        2.692        2.498        2.720        2.652        2.516        2.508        3.106        2.951        3.159        3.038        0.486        1.000        0.000        0.000        0.000        2.000        0.000        0.000        1.000        0.000        0.000        0.000        0.000        0.000        0.000        0.000        0.000        0.000        0.000        0.000        0.000        0.000        0.000        0.000        0.000        1.000        1.000        1.000        0.000        0.000        1.000        0.000        2.000        0.000        0.000        0.000      100.000        0.000        0.000        1.970        2.031        3.956
     770.000  -258716.309    24673.136    15308.029    38168.780      141.779  -385095.591    48087.558       25.856       25.751        3.039        3.162        3.122        3.101        3.213        3.065        2.690        2.475        2.727        2.654        2.487        2.514        3.074        2.952        3.228        2.976        0.492        1.000        0.000        0.000        0.000        2.000        0.000        0.000        1.000        0.000        0.000        0.000        0.000        0.000        0.000        0.000        0.000        0.000        0.000        0.000        0.000        0.000        0.000        0.000        0.000        1.000        1.000        1.000        0.000        0.000        0.000        2.000        1.000        0.000        0.000        0.000      100.000        0.000        0.000        1.995        2.039        3.741
     780.000  -258486.560    25496.086    15286.220    37702.774       98.512  -383665.308    46595.156       26.044       25.579        3.055        3.179        3.177        3.168        3.218        3.017        2.731        2.472        2.704        2.701        2.483        2.523        3.028        3.002        3.166        2.940        0.495        1.000        0.000        0.000        1.000        2.000        0.000        0.000        1.000        0.000        0.000        0.000        0.000        0.000        0.000        0.000        1.000        0.000        0.000        0.000        1.000        0.000        0.000        0.000        0.000        0.000        0.000        0.000        0.000        0.000        1.000        1.000        0.000        0.000        0.000        0.000      100.000        0.000        0.000        2.307        2.344        3.996
     790.000  -257766.763    24331.041    15159.819    37890.307      114.092  -383525.408    48263.387       25.667       25.184        2.990        3.085        3.109        3.160        3.229        3.081        2.708        2.435        2.677        2.700        2.463        2.517        3.045        2.980        3.193        2.999        0.473        0.000        0.000        0.000        1.000        2.000        0.000        0.000        1.000        0.000        0.000        0.000        0.000        0.000        0.000        0.000        0.000        0.000        0.000        0.000        0.000        0.000        0.000        0.000        0.000        0.000        0.000        1.000        1.000        0.000        0.000        0.000        3.000        0.000        4.494        0.000       95.506        0.000        0.000        2.242        2.300        3.918
     800.000  -259470.303    26170.114    14994.789    37796.255       99.039  -383491.467    44960.966       25.945       25.555        2.979        3.156        3.183        3.185        3.232        3.022        2.728        2.492        2.697        2.687        2.472        2.526        3.071        2.958        3.244        3.001        0.484        1.000        0.000        0.000        0.000        2.000        0.000        0.000        1.000        0.000        0.000        0.000        0.000        0.000        0.000        0.000        2.000        0.000        0.000        0.000        0.000        0.000        0.000        0.000        0.000        3.000        0.000        1.000        0.000        0.000        0.000        0.000        0.000        0.000        0.000        0.000      100.000        0.000        0.000        2.317        2.392        3.767
     810.000  -258308.559    24777.655    15089.056    37881.201       99.774  -384899.065    48742.819       25.678       25.382        2.885        3.115        3.091        3.103        3.240        3.073        2.683        2.431        2.693        2.710        2.507        2.487        3.148        2.963        3.174        2.968        0.463        1.000        0.000        0.000        0.000        2.000        0.000        0.000        1.000        0.000        0.000        0.000        0.000        0.000        0.000        1.000        0.000        0.000        0.000        0.000        0.000        0.000        0.000        0.000        0.000        0.000        0.000        1.000        2.000        0.000        0.000        1.000        1.000        0.000        0.000        0.000      100.000        0.000        0.000        2.122        2.183        3.854
     820.000  -258683.912    25541.823    15042.684    37736.471      161.372  -383789.436    46623.174       26.084       25.788        3.060        3.111        3.068        3.146        3.189        3.015        2.680        2.482        2.700        2.633        2.480        2.491        3.082        2.980        3.218        2.951        0.464        1.000        0.000        0.000        0.000        2.000        0.000        0.000        1.000        0.000        0.000        0.000        0.000        0.000        0.000        1.000        0.000        0.000        0.000        0.000        0.000        0.000        0.000        0.000        0.000        0.000        0.000        0.000        1.000        0.000        0.000        1.000        0.000        0.000        0.000        0.000      100.000        0.000        0.000        1.914        1.964        3.794
     830.000  -258494.046    26173.415    15219.191    38014.541      129.626  -384906.072    46875.253       25.787       25.571        3.007        3.192        3.152        3.117        3.182        3.067        2.705        2.444        2.696        2.682        2.473        2.546        3.058        2.979        3.203        2.982        0.474        1.000        0.000        0.000        1.000        2.000        0.000        0.000        1.000        0.000        0.000        0.000        0.000        0.000        0.000        1.000        1.000        0.000        0.000        0.000        1.000        0.000        0.000        0.000        0.000        1.000        0.000        0.000        3.000        0.000        0.000        1.000        2.000        0.000        0.000        0.000      100.000        0.000        0.000        1.958        2.007        3.822
     840.000  -259130.785    25318.100    15265.053    37747.082      100.298  -385611.377    48050.060       25.861       25.803        3.118        3.151        3.158        3.146        3.199        3.082        2.679        2.481        2.714        2.663        2.459        2.522        3.120        2.951        3.183        3.044        0.475        1.000        0.000        0.000        0.000        2.000        0.000        0.000        1.000        0.000        0.000        2.000        0.000        0.000        0.000        2.000        3.000        0.000        0.000        0.000        0.000        0.000        0.000        0.000        0.000        1.000        0.000        1.000        0.000        0.000        0.000        1.000        0.000        0.000        0.000        0.000      100.000        0.000        0.000        2.002        2.056        3.783
     850.000  -258201.988    24701.231    15534.669    37970.308      102.033  -385102.197    48591.967       25.817       25.440        3.086        3.035        3.174        3.176        3.229        3.086        2.663        2.478        2.701        2.673        2.478        2.527        3.127        3.005        3.203        2.967        0.466        1.000        0.000        0.000        1.000        2.000        0.000        0.000        1.000        0.000        0.000        1.000        0.000        1.000        0.000        1.000        1.000        0.000        0.000        0.000        1.000        0.000        0.000        0.000        0.000        0.000        0.000        1.000        1.000        0.000        0.000        2.000        3.000        0.000        0.000        0.000      100.000        0.000        0.000        1.894        1.958        3.657
     860.000  -258476.218    25628.078    14839.666    37880.570      114.095  -383016.447    46077.820       26.061       25.540        3.087        3.203        3.107        3.167        3.193        3.012        2.684        2.477        2.690        2.663        2.501        2.509        3.090        2.950        3.189        2.960        0.468        1.000        0.000        0.000        0.000        2.000        0.000        0.000        1.000        0.000        0.000        0.000        0.000        0.000        0.000        1.000        3.000        0.000        0.000        0.000        0.000        0.000        0.000        0.000        0.000        0.000        0.000        2.000        1.000        0.000        0.000        0.000        1.000        0.000        4.494        0.000       95.506        0.000        0.000        1.767        1.792        3.523
     870.000  -258347.056    26547.600    15150.162    37741.910      116.027  -383586.979    45684.224       25.934       25.935        3.096        3.127        3.155        3.179        3.195        3.112        2.697        2.470        2.677        2.653        2.518        2.552        3.052        2.977        3.201        3.020        0.489        1.000        0.000        0.000        0.000        2.000        0.000        0.000        1.000        0.000        0.000        1.000        0.000        0.000        0.000        1.000        3.000        0.000        0.000        0.000        0.000        0.000        0.000        0.000        0.000        0.000        0.000        1.000        1.000        0.000        0.000        1.000        1.000        0.000        0.000        0.000      100.000        0.000        0.000        1.729        1.771        3.454
     880.000  -258539.489    25488.570    15035.817    37883.799      119.092  -383965.865    46899.097       25.712       25.941        2.988        3.146        3.103        3.232        3.209        3.101        2.675        2.465        2.697        2.652        2.482        2.538        3.065        2.983        3.233        2.994        0.479        1.000        0.000        0.000        0.000        2.000        0.000        0.000        1.000        0.000        0.000        0.000        0.000        0.000        0.000        2.000        1.000        0.000        0.000        0.000        0.000        0.000        0.000        0.000        0.000        1.000        0.000        0.000        0.000        0.000        0.000        1.000        0.000        0.000        0.000        0.000      100.000        0.000        0.000        1.601        1.628        3.552
     890.000  -258402.205    25281.163    15511.733    38059.208      128.277  -384676.021    47293.435       25.860       25.843        3.038        3.123        3.112        3.134        3.139        3.060        2.679        2.448        2.684        2.665        2.514        2.527        3.092        2.962        3.191        2.895        0.495        1.000        0.000        0.000        1.000        2.000        0.000        0.000        1.000        0.000        0.000        0.000        0.000        0.000        0.000        2.000        3.000        0.000        0.000        0.000        1.000        0.000        0.000        0.000        0.000        1.000        0.000        0.000        1.000        0.000        0.000        0.000        2.000        0.000        0.000        0.000      100.000        0.000        0.000        1.618        1.659        3.448
     900.000  -257956.361    25076.246    15292.739    37936.796      128.518  -383718.789    47328.130       26.073       25.912        3.035        3.143        3.154        3.104        3.185        3.123        2.701        2.421        2.704        2.679        2.474        2.514        3.107        2.967        3.159        3.021        0.492        1.000        0.000        0.000        1.000        2.000        0.000        0.000        1.000        0.000        0.000        0.000        0.000        0.000        0.000        0.000        1.000        0.000        0.000        0.000        1.000        0.000        0.000        0.000        0.000        1.000        0.000        1.000        2.000        0.000        0.000        0.000        0.000        0.000        0.000        0.000      100.000        0.000        0.000        1.791        1.835        3.744
     910.000  -259029.871    24863.220    15362.275    37932.477      104.145  -384648.662    47356.675       25.956       25.671        3.078        3.100        3.140        3.094        3.211        3.127        2.676        2.452        2.710        2.698        2.516        2.515        3.078        2.941        3.140        2.908        0.477        1.000        0.000        0.000        0.000        2.000        0.000        0.000        1.000        0.000        0.000        0.000        0.000        0.000        0.000        2.000        0.000        0.000        0.000        0.000        0.000        0.000        0.000        0.000        0.000        2.000        0.000        1.000        1.000        0.000        0.000        1.000        2.000        0.000        0.000        0.000      100.000        0.000        0.000        1.636        1.693        3.942
     920.000  -258427.468    25310.344    15369.165    37935.532      114.776  -384638.484    47481.199       25.896       25.705        3.022       15.111        3.135        3.155        3.216        3.082        2.643        2.463        2.709        2.629        2.564        2.505        3.034        3.023        3.257        2.990        0.494        1.000        0.000        0.000        1.000        2.000        0.000        0.000        1.000        0.000        0.000        1.000        0.000        0.000        0.000        0.000        0.000        0.000        0.000        0.000        0.000        0.000        0.000        0.000        0.000        1.000        0.000        1.000        1.000        0.000        1.000        1.000        1.000        0.000        0.000        0.000      100.000        0.000        0.000        1.575        1.601        4.123
     930.000  -257521.440    25513.131    15267.229    37952.606      148.989  -383665.545    47262.149       25.731       25.786        3.093        3.198        3.190        3.090        3.185        3.114        2.612        2.439        2.687        2.690        2.464        2.542        3.053        2.933        3.202        2.887        0.474        1.000        0.000        0.000        1.000        2.000        0.000        0.000        1.000        0.000        0.000        0.000        0.000        0.000        0.000        0.000        3.000        0.000        0.000        0.000        1.000        0.000        0.000        0.000        0.000        1.000        0.000        0.000        1.000        0.000        0.000        1.000        1.000        0.000        0.000        0.000      100.000        0.000        0.000        1.575        1.621        4.019
     940.000  -258264.876    25373.790    15563.978    37869.190       95.853  -384461.239    47293.553       25.890       26.033        3.006        3.162        3.144        3.136        3.250        3.024        2.761        2.449        2.732        2.682        2.488        2.552        3.093        2.931        3.179        2.975        0.491        1.000        0.000        0.000        1.000        2.000        0.000        0.000        1.000        0.000        0.000        0.000        0.000        0.000        0.000        1.000        3.000        0.000        0.000        0.000        1.000        0.000        0.000        0.000        0.000        0.000        0.000        0.000        1.000        0.000        2.000        0.000        1.000        0.000        0.000        0.000      100.000        0.000        0.000        1.691        1.767        3.938
     950.000  -258383.770    26142.806    15256.363    37792.701      133.748  -384250.627    46541.240       25.962       26.145        3.009       14.666        3.126        3.169        3.198        2.998        2.617        2.456        2.711        2.605        2.504        2.565        3.108        3.001        3.204        2.939        0.463        1.000        0.000        0.000        1.000        2.000        0.000        0.000        1.000        0.000        0.000        0.000        0.000        1.000        0.000        0.000        3.000        0.000        0.000        0.000        1.000        0.000        0.000        0.000        0.000        0.000        0.000        0.000        1.000        0.000        0.000        0.000        2.000        0.000        0.000        0.000      100.000        0.000        0.000        1.856        1.925        4.079
     960.000  -258894.792    25567.169    15262.428    37987.049      119.597  -384739.257    46908.223       25.455       25.743        3.017        3.118        3.127        3.187        3.237        3.092        2.655        2.470        2.671        2.674        2.522        2.516        3.079        3.040        3.194        3.010        0.495        1.000        0.000        0.000        0.000        2.000        0.000        0.000        1.000        0.000        0.000        0.000        0.000        0.000        0.000        1.000        2.000        0.000        0.000        0.000        0.000        0.000        0.000        0.000        0.000        1.000        0.000        0.000        1.000        0.000        0.000        1.000        0.000        0.000        0.000        0.000      100.000        0.000        0.000        1.621        1.673        3.938
     970.000  -258560.614    25261.349    15349.767    37867.050       98.799  -384689.099    47551.520       25.766       25.826        3.035        3.134        3.128        3.126        3.197        3.030        2.665        2.451        2.681        2.678        2.467        2.538        3.152        3.000        3.149        2.913        0.477        1.000        0.000        0.000        0.000        2.000        0.000        0.000        1.000        0.000        0.000        0.000        0.000        0.000        0.000        0.000        0.000        0.000        0.000        0.000        0.000        0.000        0.000        0.000        0.000        0.000        0.000        0.000        1.000        0.000        1.000        1.000        3.000        0.000        0.000        0.000      100.000        0.000        0.000        1.734        1.789        3.820
     980.000  -259050.844    25513.854    15098.117    37616.511      106.417  -385640.198    48254.454       25.811       25.787        3.096        3.116        3.176        3.182        3.217        3.036        2.695        2.432        2.684        2.673        2.529        2.520        3.106        2.943        3.164        2.983        0.461        1.000        0.000        0.000        0.000        2.000        0.000        0.000        1.000        0.000        0.000        0.000        0.000        0.000        0.000        1.000        0.000        0.000        0.000        0.000        0.000        0.000        0.000        0.000        0.000        1.000        0.000        0.000        0.000        0.000        0.000        0.000        3.000        0.000        0.000        0.000      100.000        0.000        0.000        1.709        1.727        3.826
     990.000  -259212.505    25115.391    15237.284    38001.073      125.074  -384864.588    47173.260       25.497       25.509        3.116        3.226        3.140        3.153        3.156        3.078        2.661        2.483        2.674        2.617        2.487        2.551        3.021        3.020        3.105        2.914        0.486        1.000        0.000        0.000        0.000        2.000        0.000        0.000        1.000        0.000        0.000        0.000        0.000        0.000        0.000        0.000        0.000        0.000        0.000        0.000        0.000        0.000        0.000        0.000        0.000        0.000        0.000        0.000        2.000        0.000        0.000        0.000        1.000        0.000        0.000        0.000      100.000        0.000        0.000        1.888        1.938        4.039
    1000.000  -257962.041    25498.708    15217.729    37801.109      114.606  -383725.442    47131.248       25.978       26.078        3.181        3.220        3.132        3.089        3.197        3.030        2.657        2.462        2.703        2.640        2.491        2.569        3.052        2.972        3.204        2.968        0.492        1.000        0.000        0.000        0.000        2.000        0.000        0.000        1.000        0.000        0.000        0.000        0.000        1.000        0.000        3.000        0.000        0.000        0.000        0.000        0.000        0.000        0.000        0.000        0.000        2.000        1.000        0.000        1.000        0.000        1.000        0.000        0.000        0.000        0.000        0.000      100.000        0.000        0.000        1.841        1.886        3.957
     Average  -260522.125    26085.031    15386.088    37767.520      116.533  -387829.315    47952.018       25.839       25.789        3.024        3.375        3.162        3.156        3.214        3.063        2.680        2.464        2.692        2.659        2.491        2.538        3.079        3.007        3.188        2.973        0.486        0.901        0.089        0.139        0.416        1.980        0.000        0.208        0.990        0.218        0.030        0.119        0.040        0.257        0.069        0.782        1.129        0.000        0.000        0.000        0.267        0.000        0.000        0.000        0.000        0.673        0.446        0.832        0.733        0.079        0.545        0.812        1.168        0.000        0.267        0.000       99.733        0.000        0.000        1.775        1.801        3.330

