____Time[ps] Energy[ kJ/mol ]_____Bond _______Angle ____Dihedral ___Planarity _____Coulomb _________VdW _Your result _Your result _Your result _Your result _Your result _Your result _Your result _Your result _Your result _Your result _Your result _Your result _Your result _Your result _Your result _Your result _Your result _Your result _Your result _Your result _Your result _Your result _Your result _Your result _Your result _Your result _Your result _Your result _Your result _Your result _Your result _Your result _Your result _Your result _Your result _Your result _Your result _Your result _Your result _Your result _Your result _Your result _Your result _Your result _Your result _Your result _Your result _Your result _Your result _Your result _Your result _Your result _Your result _Your result _Your result _Your result _Your result _RMSDs[A]:CA ____Backbone __HeavyAtoms
       0.000  -319667.440    10113.901     4552.184    38051.415       17.267  -433724.398    61322.191       25.272       25.331        2.566        2.919        2.511        2.617        2.705        2.899        2.704        2.536        3.240        2.656        3.133        2.643        2.891        2.926        2.611        2.619        0.488        1.000        0.000        0.000        1.000        0.000        2.000        0.000        0.000        0.000        0.000        0.000        0.000        0.000        0.000        0.000        0.000        0.000        0.000        0.000        0.000        0.000        0.000        0.000        0.000        0.000        0.000        0.000        1.000        2.000        3.000        2.000        3.000        0.000        0.000        0.000      100.000        0.000        0.000        0.508        0.533        0.650
      10.000  -239271.223    28476.283    14607.752    37844.649      110.122  -364417.222    44107.193       25.699       25.590        2.550        2.898        2.526        2.623        2.685        3.033        2.698        2.575        3.205        2.631        3.080        2.660        3.010        2.905        2.657        2.563        0.527        1.000        0.000        0.000        0.000        0.000        2.000        0.000        1.000        0.000        0.000        0.000        0.000        0.000        0.000        0.000        1.000        0.000        0.000        0.000        0.000        0.000        0.000        0.000        0.000        0.000        3.000        0.000        4.000        0.000        2.000        0.000        3.000        0.000        0.000        0.000      100.000        0.000        0.000        1.225        1.242        1.465
      20.000  -239133.800    27356.091    14961.433    37973.806      105.555  -364998.835    45468.150       25.745       25.602        2.553        2.927        2.526        2.712        2.675        3.016        2.697        2.513        3.284        2.660        3.117        2.643        2.956        2.955        2.605        2.598        0.473        1.000        0.000        0.000        0.000        0.000        2.000        0.000        2.000        0.000        0.000        0.000        0.000        0.000        0.000        0.000        1.000        0.000        0.000        0.000        0.000        0.000        0.000        0.000        0.000        1.000        5.000        0.000        3.000        2.000        3.000        2.000        4.000        0.000        7.865        0.000       92.135        0.000        0.000        1.362        1.386        1.696
      30.000  -238691.499    27282.317    14685.756    37740.818      113.984  -363136.803    44622.429       25.866       25.555        2.558        2.909        2.520        2.703        2.659        2.991        2.710        2.489        3.243        2.661        3.086        2.634        2.984        2.908        2.585        2.583        0.485        1.000        1.000        0.000        1.000        0.000        2.000        0.000        0.000        0.000        0.000        0.000        0.000        0.000        0.000        0.000        0.000        0.000        0.000        0.000        0.000        0.000        0.000        0.000        0.000        1.000        3.000        0.000        2.000        2.000        4.000        2.000        3.000        0.000        4.494        0.000       95.506        0.000        0.000        1.406        1.447        1.775
      40.000  -239107.378    25669.356    14828.518    37977.056      105.439  -362452.967    44765.221       25.908       25.815        2.606        3.054        2.506        2.602        2.731        2.970        2.627        2.528        3.258        2.690        3.139        2.580        3.042        2.856        2.617        2.586        0.488        1.000        0.000        0.000        1.000        0.000        2.000        0.000        1.000        0.000        0.000        0.000        2.000        0.000        0.000        0.000        0.000        0.000        0.000        0.000        0.000        0.000        0.000        0.000        0.000        0.000        1.000        0.000        2.000        1.000        2.000        1.000        2.000        0.000        0.000        0.000      100.000        0.000        0.000        1.561        1.589        1.980
      50.000  -238363.246    25207.549    15064.748    37911.636      119.463  -363054.267    46387.624       26.160       25.839        2.570        2.999        2.659        2.663        2.715        2.892        2.665        2.436        3.252        2.692        3.115        2.579        2.852        2.861        2.678        2.624        0.498        1.000        0.000        0.000        1.000        0.000        1.000        0.000        0.000        0.000        0.000        0.000        0.000        0.000        0.000        0.000        1.000        0.000        0.000        0.000        0.000        0.000        0.000        0.000        0.000        0.000        0.000        0.000        3.000        1.000        7.000        2.000        4.000        0.000        4.494        0.000       95.506        0.000        0.000        1.733        1.765        2.116
      60.000  -237545.967    26038.692    14906.172    37707.729       93.714  -361163.941    44871.667       26.388       26.129        2.585        2.982        2.587        2.680        2.671        2.952        2.668        2.514        3.240        2.607        3.072        2.511        2.939        2.954        2.611        2.561        0.481        1.000        0.000        0.000        1.000        1.000        1.000        0.000        1.000        0.000        0.000        0.000        0.000        0.000        2.000        0.000        1.000        0.000        0.000        0.000        0.000        0.000        0.000        0.000        0.000        1.000        0.000        0.000        1.000        4.000        2.000        2.000        1.000        0.000        0.000        0.000      100.000        0.000        0.000        1.742        1.751        2.034
      70.000  -238085.441    24509.451    15492.479    37724.683      108.021  -361160.561    45240.487       26.337       25.989        2.646        3.109        2.624        2.677        2.711        2.956        2.730        2.445        3.238        2.623        3.101        2.538        2.954        2.898        2.662        2.574        0.483        1.000        0.000        0.000        0.000        0.000        1.000        0.000        2.000        0.000        0.000        0.000        0.000        0.000        0.000        0.000        0.000        0.000        0.000        0.000        0.000        0.000        0.000        0.000        0.000        1.000        0.000        0.000        0.000        2.000        3.000        2.000        1.000        0.000        0.000        0.000      100.000        0.000        0.000        1.614        1.637        1.954
      80.000  -237389.425    24669.076    15299.649    37820.607      123.261  -360285.187    44983.169       26.136       25.759        2.656        3.137        2.646        2.657        2.713        2.964        2.714        2.456        3.258        2.643        3.120        2.533        2.964        2.937        2.639        2.575        0.488        1.000        0.000        0.000        0.000        1.000        2.000        0.000        1.000        0.000        0.000        0.000        3.000        0.000        0.000        0.000        0.000        0.000        0.000        0.000        0.000        0.000        0.000        0.000        0.000        1.000        2.000        0.000        2.000        3.000        5.000        0.000        2.000        0.000        0.000        0.000      100.000        0.000        0.000        1.592        1.633        2.065
      90.000  -237308.536    25942.167    15108.278    37642.081      100.937  -359663.095    43561.097       26.123       25.697        2.597        3.092        2.625        2.672        2.727        2.978        2.702        2.526        3.268        2.645        3.127        2.484        2.975        2.980        2.672        2.594        0.504        1.000        0.000        0.000        1.000        0.000        3.000        0.000        1.000        0.000        0.000        0.000        2.000        0.000        1.000        0.000        1.000        0.000        0.000        0.000        0.000        0.000        0.000        0.000        0.000        1.000        1.000        0.000        2.000        4.000        8.000        1.000        2.000        0.000        0.000        0.000      100.000        0.000        0.000        1.579        1.606        2.078
     100.000  -237117.973    24880.553    15220.875    37794.697      130.760  -359631.312    44486.454       26.002       25.745        2.578        3.102        2.613        2.663        2.682        2.992        2.677        2.520        3.223        2.601        3.153        2.494        3.006        2.916        2.671        2.568        0.475        0.000        0.000        0.000        1.000        0.000        0.000        0.000        1.000        0.000        1.000        0.000        1.000        0.000        0.000        0.000        0.000        0.000        0.000        0.000        0.000        0.000        0.000        0.000        0.000        2.000        3.000        0.000        1.000        2.000        3.000        1.000        1.000        0.000        4.494        0.000       95.506        0.000        0.000        1.539        1.559        2.090
     110.000  -236658.915    25190.104    14925.439    37916.737       91.496  -358081.521    43298.830       25.927       25.436        2.614        3.085        2.655        2.625        2.699        3.011        2.697        2.519        3.258        2.707        3.189        2.538        2.967        2.970        2.592        2.578        0.490        1.000        0.000        0.000        1.000        0.000        1.000        0.000        1.000        0.000        0.000        0.000        0.000        0.000        0.000        0.000        0.000        0.000        0.000        0.000        0.000        0.000        0.000        0.000        0.000        1.000        3.000        0.000        2.000        5.000        4.000        1.000        0.000        0.000        0.000        0.000      100.000        0.000        0.000        1.569        1.599        2.107
     120.000  -237186.167    24329.940    14817.547    37936.690      118.027  -357894.189    43505.819       26.017       25.937        2.494        3.027        2.571        2.660        2.699        2.966        2.645        2.568        3.232        2.656        3.168        2.509        2.956        2.922        2.611        2.648        0.495        1.000        0.000        0.000        1.000        1.000        1.000        0.000        1.000        0.000        0.000        0.000        1.000        0.000        0.000        0.000        1.000        0.000        0.000        0.000        0.000        0.000        0.000        0.000        0.000        0.000        0.000        0.000        4.000        1.000        8.000        1.000        0.000        0.000        4.494        0.000       95.506        0.000        0.000        2.045        2.093        2.488
     130.000  -236874.594    24942.768    14404.444    37957.698      108.451  -358629.714    44341.759       25.952       25.703        2.670        2.977        2.623        2.692        2.702        2.951        2.620        2.511        3.263        2.671        3.183        2.533        2.931        2.910        2.599        2.627        0.491        1.000        0.000        0.000        1.000        1.000        1.000        0.000        1.000        0.000        0.000        0.000        1.000        0.000        0.000        0.000        0.000        0.000        0.000        0.000        0.000        0.000        0.000        0.000        0.000        1.000        2.000        0.000        1.000        2.000        4.000        4.000        1.000        0.000        0.000        0.000      100.000        0.000        0.000        1.904        1.976        2.355
     140.000  -236690.645    25845.807    14557.386    37706.274       98.953  -357060.896    42161.830       25.915       25.700        2.568        3.069        2.582        2.621        2.681        3.064        2.609        2.502        3.212        2.686        3.209        2.476        3.020        2.963        2.632        2.594        0.497        1.000        0.000        0.000        1.000        0.000        2.000        0.000        2.000        0.000        1.000        0.000        0.000        0.000        0.000        0.000        0.000        0.000        0.000        0.000        0.000        0.000        0.000        0.000        0.000        0.000        2.000        0.000        1.000        2.000        3.000        0.000        3.000        0.000        0.000        0.000      100.000        0.000        0.000        2.045        2.130        2.507
     150.000  -236185.928    23817.715    14246.972    38244.304       93.690  -357430.353    44841.743       25.649       25.669        2.636        2.986        2.554        2.630        2.705        2.888        2.628        2.517        3.223        2.681        3.175        2.459        2.986        2.967        2.599        2.624        0.471        1.000        0.000        0.000        0.000        1.000        1.000        0.000        1.000        0.000        0.000        0.000        1.000        0.000        1.000        0.000        2.000        0.000        0.000        0.000        0.000        0.000        0.000        0.000        0.000        1.000        0.000        0.000        1.000        1.000        4.000        1.000        1.000        0.000        4.494        0.000       95.506        0.000        0.000        2.505        2.557        2.863
     160.000  -236411.810    24141.015    14400.581    37847.791      132.529  -356639.702    43705.975       25.618       25.803        2.561        3.031        2.555        2.656        2.668        3.002        2.647        2.498        3.264        2.656        3.160        2.460        2.996        2.980        2.555        2.577        0.495        1.000        0.000        0.000        0.000        0.000        1.000        0.000        2.000        0.000        1.000        0.000        1.000        0.000        0.000        0.000        0.000        0.000        0.000        0.000        0.000        0.000        0.000        0.000        0.000        1.000        0.000        0.000        0.000        3.000        5.000        2.000        2.000        0.000        0.000        0.000      100.000        0.000        0.000        2.486        2.531        2.759
     170.000  -236092.946    23736.529    14743.630    38061.130       96.796  -355470.367    42739.336       25.665       25.752        2.554        2.936        2.592        2.610        2.747        2.925        2.624        2.502        3.283        2.622        3.130        2.480        2.991        2.990        2.610        2.598        0.482        1.000        0.000        0.000        0.000        0.000        1.000        0.000        1.000        0.000        0.000        0.000        1.000        0.000        0.000        0.000        1.000        0.000        0.000        0.000        0.000        0.000        0.000        0.000        0.000        1.000        2.000        0.000        3.000        2.000        5.000        1.000        2.000        0.000        4.494        0.000       95.506        0.000        0.000        2.289        2.365        2.693
     180.000  -235372.375    25162.626    14480.880    37959.361      128.872  -355006.811    41902.698       25.700       25.918        2.557        2.922        2.602        2.650        2.701        2.877        2.679        2.476        3.272        2.697        3.154        2.504        3.077        2.913        2.647        2.650        0.479        1.000        0.000        0.000        0.000        0.000        2.000        0.000        2.000        0.000        0.000        0.000        1.000        0.000        0.000        0.000        1.000        0.000        0.000        0.000        0.000        0.000        0.000        0.000        0.000        2.000        1.000        0.000        1.000        1.000        5.000        1.000        2.000        0.000        0.000        0.000      100.000        0.000        0.000        2.170        2.243        2.504
     190.000  -235352.465    24754.802    14741.015    37959.102       91.748  -354662.379    41763.248       25.980       26.048        2.576        3.096        2.614        2.702        2.684        2.950        2.599        2.515        3.310        2.702        3.173        2.536        2.940        2.927        2.617        2.588        0.482        1.000        0.000        0.000        0.000        0.000        1.000        0.000        1.000        0.000        0.000        0.000        2.000        0.000        0.000        0.000        2.000        0.000        0.000        0.000        0.000        0.000        0.000        0.000        0.000        1.000        1.000        0.000        3.000        2.000        3.000        1.000        3.000        0.000        0.000        0.000      100.000        0.000        0.000        2.164        2.217        2.584
     200.000  -235720.184    22965.961    14756.138    37947.322      105.727  -355316.910    43821.577       26.032       25.934        2.580        3.088        2.581        2.679        2.698        2.953        2.621        2.585        3.259        2.694        3.165        2.603        2.917        2.910        2.662        2.532        0.500        0.000        0.000        0.000        0.000        1.000        1.000        0.000        1.000        0.000        0.000        0.000        0.000        0.000        0.000        0.000        2.000        0.000        0.000        0.000        0.000        0.000        0.000        0.000        0.000        1.000        0.000        0.000        2.000        0.000        3.000        2.000        0.000        0.000        0.000        0.000      100.000        0.000        0.000        2.267        2.308        2.707
     210.000  -234945.652    23694.352    14563.007    37962.783      131.622  -354119.117    42821.701       25.850       25.782        2.543        3.062        2.610        2.664        2.759        2.964        2.627        2.565        3.263        2.633        3.171        2.511        2.930        2.921        2.646        2.595        0.484        0.000        0.000        0.000        0.000        0.000        1.000        0.000        1.000        0.000        1.000        0.000        2.000        0.000        0.000        0.000        1.000        0.000        0.000        0.000        0.000        0.000        0.000        0.000        0.000        1.000        0.000        0.000        1.000        2.000        2.000        1.000        0.000        0.000        0.000        0.000      100.000        0.000        0.000        1.822        1.885        2.462
     220.000  -236007.323    23471.420    14429.894    38082.051      105.325  -356321.666    44225.654       26.048       25.813        2.539        3.071        2.610        2.707        2.676        2.955        2.617        2.545        3.259        2.691        3.155        2.560        2.951        2.948        2.619        2.516        0.485        0.000        0.000        0.000        0.000        0.000        1.000        0.000        1.000        0.000        0.000        0.000        0.000        0.000        0.000        0.000        0.000        0.000        0.000        0.000        0.000        0.000        0.000        0.000        0.000        1.000        1.000        0.000        3.000        2.000        5.000        1.000        3.000        0.000        0.000        0.000      100.000        0.000        0.000        1.549        1.595        2.187
     230.000  -235500.026    24083.603    14735.250    37975.611      110.297  -353455.692    41050.905       25.896       25.633        2.571        2.967        2.561        2.667        2.697        2.986        2.621        2.517        3.259        2.688        3.168        2.529        2.976        2.930        2.625        2.545        0.470        0.000        0.000        0.000        0.000        1.000        1.000        0.000        1.000        0.000        0.000        0.000        2.000        0.000        1.000        0.000        0.000        0.000        0.000        0.000        0.000        0.000        0.000        0.000        0.000        0.000        2.000        0.000        4.000        1.000        3.000        0.000        5.000        0.000        0.000        0.000      100.000        0.000        0.000        1.715        1.747        2.421
     240.000  -234475.138    23296.622    14493.945    38088.773       91.446  -353419.872    42973.947       26.154       25.609        2.557        3.014        2.540        2.676        2.686        2.891        2.630        2.499        3.252        2.603        3.195        2.524        3.048        2.963        2.658        2.500        0.484        1.000        0.000        0.000        1.000        0.000        1.000        0.000        1.000        0.000        1.000        0.000        0.000        0.000        0.000        0.000        1.000        0.000        0.000        0.000        0.000        0.000        0.000        0.000        0.000        0.000        0.000        0.000        3.000        1.000        2.000        1.000        1.000        0.000        0.000        0.000      100.000        0.000        0.000        1.597        1.668        2.288
     250.000  -235028.260    23829.398    14677.796    37864.196       98.169  -354602.988    43105.169       26.191       25.733        2.561        3.030        2.623        2.632        2.708        2.932        2.686        2.522        3.249        2.694        3.196        2.511        2.942        2.929        2.628        2.555        0.500        1.000        0.000        0.000        1.000        1.000        0.000        0.000        0.000        0.000        0.000        0.000        1.000        0.000        0.000        0.000        0.000        0.000        0.000        0.000        0.000        0.000        0.000        0.000        0.000        1.000        1.000        0.000        1.000        0.000        4.000        0.000        1.000        0.000        4.494        0.000       95.506        0.000        0.000        1.545        1.618        2.231
     260.000  -234866.505    23942.985    14313.062    37893.421      112.649  -352936.298    41807.676       26.130       25.837        2.595        3.045        2.612        2.616        2.701        2.966        2.681        2.528        3.259        2.665        3.187        2.485        3.005        2.980        2.602        2.543        0.483        1.000        0.000        0.000        1.000        1.000        1.000        0.000        1.000        0.000        0.000        0.000        0.000        0.000        0.000        0.000        1.000        0.000        0.000        0.000        0.000        0.000        0.000        0.000        0.000        1.000        0.000        0.000        2.000        0.000        4.000        2.000        3.000        0.000        4.494        0.000       95.506        0.000        0.000        1.704        1.776        2.312
     270.000  -235996.483    23951.447    14376.664    37843.181      114.740  -354780.956    42498.440       26.082       26.214        2.580        3.076        2.507        2.647        2.721        3.023        2.692        2.568        3.246        2.672        3.223        2.517        3.037        3.027        2.598        2.543        0.496        1.000        0.000        0.000        1.000        0.000        2.000        0.000        1.000        0.000        0.000        0.000        1.000        0.000        0.000        0.000        1.000        0.000        0.000        0.000        0.000        0.000        0.000        0.000        0.000        1.000        0.000        0.000        2.000        0.000        5.000        1.000        1.000        0.000        4.494        0.000       95.506        0.000        0.000        1.731        1.798        2.338
     280.000  -235520.948    24251.080    14388.621    37723.042       84.312  -353513.332    41545.328       25.979       25.974        2.556        3.035        2.540        2.647        2.712        2.998        2.688        2.533        3.269        2.623        3.184        2.535        2.974        2.993        2.628        2.537        0.470        1.000        0.000        0.000        1.000        0.000        2.000        0.000        0.000        0.000        0.000        0.000        0.000        0.000        1.000        0.000        1.000        0.000        0.000        0.000        0.000        0.000        0.000        0.000        0.000        0.000        0.000        0.000        2.000        1.000        3.000        2.000        2.000        0.000        4.494        0.000       95.506        0.000        0.000        1.635        1.731        2.301
     290.000  -235165.743    23336.034    14486.748    38029.856      117.953  -353031.209    41894.875       25.797       25.931        2.501        2.977        2.603        2.683        2.714        2.972        2.651        2.576        3.289        2.616        3.186        2.503        2.979        2.875        2.650        2.500        0.494        1.000        0.000        0.000        1.000        1.000        1.000        0.000        1.000        0.000        0.000        0.000        1.000        0.000        0.000        0.000        1.000        0.000        0.000        0.000        0.000        0.000        0.000        0.000        0.000        0.000        1.000        0.000        2.000        2.000        4.000        2.000        1.000        0.000        4.494        0.000       95.506        0.000        0.000        1.884        1.981        2.487
     300.000  -234941.140    24445.945    14387.153    37825.262       95.129  -353772.950    42078.322       25.957       25.899        2.585        2.997        2.577        2.642        2.710        2.937        2.655        2.538        3.192        2.592        3.158        2.523        2.956        2.972        2.628        2.483        0.485        1.000        0.000        0.000        1.000        0.000        2.000        0.000        0.000        0.000        0.000        0.000        3.000        0.000        0.000        0.000        0.000        0.000        0.000        0.000        0.000        0.000        0.000        0.000        0.000        2.000        1.000        0.000        1.000        1.000        3.000        2.000        0.000        0.000        4.494        0.000       95.506        0.000        0.000        2.254        2.323        2.719
     310.000  -234679.644    24413.512    14518.551    37922.624      132.036  -354298.613    42632.246       25.936       25.652        2.562        3.130        2.557        2.668        2.691        3.009        2.705        2.548        3.233        2.600        3.202        2.505        3.027        2.917        2.654        2.511        0.496        1.000        0.000        0.000        1.000        0.000        1.000        0.000        1.000        0.000        0.000        0.000        1.000        0.000        0.000        0.000        1.000        0.000        0.000        0.000        0.000        0.000        0.000        0.000        0.000        1.000        0.000        0.000        3.000        2.000        7.000        1.000        1.000        0.000        4.494        0.000       95.506        0.000        0.000        2.045        2.145        2.556
     320.000  -235163.116    24309.479    14354.874    37809.507      121.378  -353815.453    42057.098       26.128       25.853        2.588        3.043        2.580        2.656        2.725        3.005        2.688        2.499        3.220        2.661        3.233        2.551        2.995        2.963        2.610        2.541        0.499        1.000        0.000        0.000        1.000        1.000        2.000        0.000        1.000        0.000        0.000        0.000        0.000        0.000        0.000        0.000        1.000        0.000        0.000        0.000        0.000        0.000        0.000        0.000        0.000        1.000        1.000        0.000        1.000        3.000        3.000        2.000        0.000        0.000        0.000        0.000      100.000        0.000        0.000        1.778        1.831        2.304
     330.000  -234701.344    23644.038    14541.443    37879.996      108.502  -353768.910    42893.587       26.168       25.883        2.563        2.985        2.622        2.609        2.734        2.927        2.672        2.556        3.217        2.654        3.219        2.524        2.993        2.953        2.663        2.595        0.488        1.000        0.000        0.000        1.000        0.000        1.000        0.000        1.000        0.000        0.000        0.000        0.000        0.000        0.000        0.000        2.000        0.000        0.000        0.000        0.000        0.000        0.000        0.000        0.000        1.000        0.000        0.000        1.000        1.000        4.000        0.000        0.000        0.000        0.000        0.000      100.000        0.000        0.000        2.033        2.108        2.452
     340.000  -235242.570    24441.682    14663.334    37921.921      106.002  -354680.393    42304.884       26.156       25.978        2.570        2.985        2.635        2.667        2.711        2.929        2.658        2.567        3.224        2.670        3.160        2.567        3.028        3.023        2.648        2.561        0.481        1.000        0.000        0.000        1.000        0.000        1.000        0.000        1.000        0.000        0.000        0.000        1.000        0.000        0.000        0.000        1.000        0.000        0.000        0.000        0.000        0.000        0.000        0.000        0.000        1.000        2.000        0.000        1.000        1.000        5.000        2.000        0.000        0.000        4.494        0.000       95.506        0.000        0.000        1.924        1.986        2.459
     350.000  -234517.154    24605.314    14177.258    37782.023      150.978  -353616.614    42383.885       25.992       25.840        2.565        2.940        2.628        2.711        2.744        2.944        2.677        2.511        3.231        2.644        3.240        2.549        2.970        3.025        2.652        2.503        0.492        1.000        0.000        0.000        0.000        0.000        0.000        0.000        1.000        0.000        0.000        0.000        1.000        0.000        0.000        0.000        1.000        0.000        0.000        0.000        0.000        0.000        0.000        0.000        0.000        0.000        0.000        0.000        0.000        1.000        4.000        2.000        2.000        0.000        4.494        0.000       95.506        0.000        0.000        1.914        1.981        2.523
     360.000  -235033.529    23084.456    14077.299    37882.384       94.572  -352664.116    42491.877       26.479       25.918        2.611        2.945        2.611        2.648        2.663        3.004        2.714        2.490        3.283        2.608        3.253        2.539        3.006        2.978        2.640        2.454        0.484        1.000        0.000        0.000        0.000        0.000        1.000        0.000        1.000        0.000        0.000        0.000        1.000        0.000        0.000        0.000        2.000        0.000        0.000        0.000        0.000        0.000        0.000        0.000        0.000        0.000        2.000        0.000        4.000        1.000        5.000        1.000        2.000        0.000        0.000        0.000      100.000        0.000        0.000        2.328        2.360        2.764
     370.000  -234382.920    24971.951    14361.420    37845.767       92.370  -352974.889    41320.461       26.392       25.937        2.594        2.973        2.617        2.688        2.700        3.020        2.705        2.597        3.223        2.636        3.211        2.495        2.994        2.968        2.695        2.493        0.482        1.000        0.000        0.000        0.000        1.000        1.000        0.000        1.000        0.000        0.000        0.000        0.000        0.000        0.000        0.000        0.000        0.000        0.000        0.000        0.000        0.000        0.000        0.000        0.000        0.000        1.000        0.000        0.000        1.000        4.000        2.000        0.000        0.000        0.000        0.000      100.000        0.000        0.000        2.123        2.175        2.619
     380.000  -234562.838    24107.492    14150.143    37883.677       94.222  -352865.679    42067.307       26.433       25.821        2.561        3.041        2.632        2.672        2.651        3.033        2.702        2.581        3.248        2.663        3.221        2.481        3.064        2.932        2.651        2.533        0.482        0.000        0.000        0.000        1.000        1.000        1.000        0.000        2.000        0.000        0.000        0.000        1.000        0.000        0.000        0.000        5.000        0.000        0.000        0.000        0.000        0.000        0.000        0.000        0.000        0.000        3.000        0.000        3.000        3.000        2.000        2.000        1.000        0.000        0.000        0.000      100.000        0.000        0.000        2.212        2.258        2.743
     390.000  -234281.896    23713.465    13832.338    37858.198      120.559  -352259.356    42452.899       26.269       26.177        2.591        3.108        2.592        2.653        2.728        3.007        2.663        2.563        3.247        2.662        3.211        2.512        2.990        2.966        2.662        2.508        0.480        1.000        0.000        0.000        1.000        0.000        0.000        0.000        2.000        0.000        0.000        0.000        1.000        0.000        0.000        0.000        2.000        0.000        0.000        0.000        0.000        0.000        0.000        0.000        0.000        1.000        2.000        0.000        2.000        1.000        8.000        0.000        1.000        0.000        4.494        0.000       95.506        0.000        0.000        1.783        1.837        2.598
     400.000  -234750.816    24401.203    13854.007    37731.932       91.548  -352956.336    42126.830       26.214       26.099        2.569        3.095        2.650        2.638        2.698        2.998        2.690        2.558        3.232        2.617        3.155        2.546        3.016        2.933        2.573        2.505        0.463        1.000        0.000        0.000        1.000        0.000        0.000        0.000        2.000        0.000        0.000        0.000        1.000        0.000        0.000        0.000        2.000        0.000        0.000        0.000        0.000        0.000        0.000        0.000        0.000        0.000        0.000        0.000        2.000        2.000        6.000        0.000        2.000        0.000        0.000        0.000      100.000        0.000        0.000        1.631        1.698        2.477
     410.000  -234925.097    23615.933    14216.016    37663.156      105.389  -352341.980    41816.390       26.610       26.069        2.609        2.995        2.629        2.604        2.714        3.018        2.692        2.537        3.271        2.661        3.180        2.497        2.997        3.082        2.681        2.486        0.480        1.000        0.000        0.000        0.000        0.000        1.000        0.000        1.000        0.000        0.000        0.000        1.000        0.000        0.000        0.000        1.000        0.000        0.000        0.000        0.000        0.000        0.000        0.000        0.000        1.000        2.000        0.000        4.000        1.000        3.000        1.000        1.000        0.000        0.000        0.000      100.000        0.000        0.000        2.128        2.153        2.712
     420.000  -234760.713    23825.001    14115.460    37753.612      109.503  -352571.888    42007.597       26.661       26.190        2.576        3.069        2.600        2.635        2.730        2.955        2.700        2.537        3.298        2.589        3.133        2.546        3.024        3.010        2.646        2.543        0.502        1.000        0.000        0.000        0.000        1.000        1.000        0.000        1.000        0.000        0.000        0.000        1.000        0.000        1.000        0.000        2.000        0.000        0.000        0.000        0.000        0.000        0.000        0.000        0.000        1.000        2.000        0.000        3.000        0.000        3.000        1.000        1.000        0.000        4.494        0.000       95.506        0.000        0.000        2.005        2.031        2.688
     430.000  -234412.422    24146.527    14240.221    37635.425      120.252  -351994.629    41439.781       26.560       26.324        2.593        3.075        2.587        2.698        2.736        2.991        2.692        2.566        3.226        2.633        3.242        2.548        3.020        3.023        2.649        2.560        0.497        1.000        0.000        0.000        0.000        0.000        0.000        0.000        2.000        0.000        1.000        0.000        0.000        0.000        0.000        0.000        3.000        0.000        0.000        0.000        0.000        0.000        0.000        0.000        0.000        1.000        1.000        0.000        3.000        2.000        4.000        2.000        2.000        0.000        4.494        0.000       95.506        0.000        0.000        2.129        2.156        2.678
     440.000  -234589.879    24006.871    14213.861    37736.160      111.646  -352552.140    41893.723       26.582       26.330        2.616        2.946        2.620        2.709        2.708        2.921        2.659        2.610        3.260        2.600        3.193        2.495        2.921        2.951        2.603        2.554        0.476        0.000        0.000        0.000        0.000        1.000        0.000        0.000        1.000        0.000        0.000        0.000        2.000        0.000        1.000        0.000        0.000        0.000        0.000        0.000        0.000        0.000        0.000        0.000        0.000        0.000        1.000        0.000        2.000        0.000        3.000        1.000        1.000        0.000        0.000        0.000      100.000        0.000        0.000        2.107        2.117        2.732
     450.000  -235120.117    22249.128    14121.718    38144.482      111.626  -352926.695    43179.624       26.228       26.043        2.546        3.086        2.541        2.670        2.700        3.054        2.698        2.569        3.214        2.578        3.179        2.475        2.937        2.973        2.634        2.537        0.505        0.000        0.000        0.000        0.000        1.000        1.000        0.000        0.000        0.000        0.000        0.000        1.000        0.000        1.000        0.000        3.000        0.000        0.000        0.000        0.000        0.000        0.000        0.000        0.000        1.000        2.000        0.000        3.000        3.000        1.000        3.000        3.000        0.000        0.000        0.000      100.000        0.000        0.000        2.039        2.028        2.658
     460.000  -234651.932    22985.416    13911.788    37897.066      118.377  -352680.033    43115.454       26.326       26.144        2.632        3.051        2.670        2.644        2.721        3.022        2.692        2.538        3.261        2.632        3.178        2.534        2.931        2.955        2.676        2.515        0.498        0.000        1.000        0.000        0.000        1.000        0.000        0.000        1.000        0.000        0.000        0.000        0.000        0.000        0.000        0.000        2.000        0.000        0.000        0.000        0.000        0.000        0.000        0.000        0.000        0.000        1.000        0.000        3.000        3.000        5.000        1.000        2.000        0.000        0.000        0.000      100.000        0.000        0.000        2.010        2.000        2.764
     470.000  -234646.517    23569.171    14371.208    37994.043      115.565  -352910.851    42214.347       26.476       26.212        2.595        3.040        2.607        2.628        2.717        3.003        2.705        2.514        3.255        2.614        3.183        2.506        2.990        3.009        2.613        2.556        0.502        0.000        0.000        0.000        0.000        1.000        0.000        0.000        1.000        0.000        0.000        0.000        1.000        0.000        1.000        0.000        1.000        0.000        0.000        0.000        0.000        0.000        0.000        0.000        0.000        0.000        2.000        0.000        6.000        2.000        5.000        2.000        1.000        0.000        4.494        0.000       95.506        0.000        0.000        1.863        1.873        2.769
     480.000  -234557.191    23238.722    14643.929    37796.031      122.620  -352953.789    42595.297       26.122       26.156        2.597        3.122        2.615        2.696        2.671        3.012        2.683        2.510        3.315        2.602        3.210        2.531        2.942        3.116        2.568        2.551        0.486        0.000        1.000        0.000        0.000        1.000        0.000        0.000        0.000        0.000        0.000        0.000        2.000        0.000        1.000        0.000        2.000        0.000        0.000        0.000        0.000        0.000        0.000        0.000        0.000        0.000        0.000        0.000        0.000        2.000        2.000        2.000        2.000        0.000        0.000        0.000      100.000        0.000        0.000        1.982        2.030        2.678
     490.000  -234843.692    23337.644    14253.722    37839.804       91.568  -352207.098    41840.669       26.299       26.312        2.608        3.057        2.608        2.652        2.721        2.965        2.688        2.579        3.262        2.593        3.169        2.502        3.043        2.962        2.592        2.556        0.515        0.000        1.000        0.000        0.000        2.000        0.000        0.000        1.000        0.000        0.000        0.000        1.000        0.000        2.000        0.000        0.000        0.000        0.000        0.000        0.000        0.000        0.000        0.000        0.000        1.000        2.000        0.000        3.000        3.000        1.000        2.000        2.000        0.000        0.000        0.000      100.000        0.000        0.000        1.993        2.042        2.630
     500.000  -234555.912    23031.373    14209.345    37930.186      113.651  -352228.161    42387.692       25.974       25.891        2.589        2.996        2.618        2.590        2.722        3.061        2.727        2.551        3.261        2.698        3.205        2.501        2.934        2.951        2.596        2.485        0.500        0.000        1.000        0.000        0.000        1.000        0.000        0.000        2.000        0.000        0.000        0.000        0.000        0.000        1.000        0.000        1.000        0.000        0.000        0.000        0.000        0.000        0.000        0.000        0.000        1.000        1.000        0.000        2.000        0.000        6.000        1.000        4.000        0.000        0.000        0.000      100.000        0.000        0.000        1.614        1.669        2.570
     510.000  -234711.222    23290.680    14131.779    37786.261      118.338  -352915.684    42877.404       26.088       25.811        2.575        3.014        2.562        2.648        2.714        2.950        2.723        2.556        3.313        2.651        3.261        2.546        2.950        2.978        2.621        2.506        0.484        1.000        0.000        0.000        0.000        1.000        0.000        0.000        1.000        0.000        0.000        0.000        1.000        0.000        0.000        0.000        2.000        0.000        0.000        0.000        0.000        0.000        0.000        0.000        0.000        1.000        1.000        0.000        1.000        2.000        4.000        1.000        3.000        0.000        0.000        0.000      100.000        0.000        0.000        1.511        1.532        2.490
     520.000  -234214.665    23759.526    14072.895    37753.260      135.240  -351616.263    41680.678       26.479       26.361        2.592        2.968        2.621        2.682        2.674        3.003        2.687        2.507        3.186        2.684        3.188        2.521        2.951        2.968        2.625        2.503        0.499        0.000        1.000        0.000        0.000        1.000        0.000        0.000        1.000        0.000        0.000        0.000        1.000        0.000        0.000        0.000        4.000        0.000        0.000        0.000        0.000        0.000        0.000        0.000        0.000        0.000        0.000        0.000        2.000        0.000        7.000        0.000        4.000        0.000        0.000        0.000      100.000        0.000        0.000        1.791        1.820        2.725
     530.000  -234074.740    22832.371    13822.423    37859.467      120.811  -351145.586    42435.774       26.308       26.303        2.611        2.955        2.623        2.683        2.683        3.008        2.719        2.518        3.209        2.686        3.197        2.500        2.978        2.945        2.625        2.462        0.500        1.000        1.000        0.000        0.000        0.000        0.000        0.000        1.000        0.000        0.000        0.000        0.000        0.000        1.000        0.000        1.000        0.000        0.000        0.000        0.000        0.000        0.000        0.000        0.000        1.000        0.000        0.000        1.000        2.000        3.000        2.000        4.000        0.000        0.000        0.000      100.000        0.000        0.000        1.755        1.759        2.712
     540.000  -234126.756    22763.308    13731.204    37880.411      134.688  -351689.295    43052.928       26.392       26.179        2.583        3.015        2.572        2.649        2.750        3.004        2.665        2.588        3.166        2.700        3.130        2.519        2.992        2.934        2.605        2.510        0.483        0.000        1.000        0.000        0.000        1.000        0.000        0.000        0.000        0.000        0.000        0.000        1.000        0.000        0.000        0.000        2.000        0.000        0.000        0.000        0.000        0.000        0.000        0.000        0.000        0.000        1.000        0.000        3.000        1.000        0.000        1.000        3.000        0.000        0.000        0.000      100.000        0.000        0.000        2.160        2.208        3.021
     550.000  -233641.133    23453.216    13978.310    37791.009       96.205  -350322.129    41362.257       26.518       26.275        2.590        2.946        2.620        2.663        2.722        3.026        2.679        2.527        3.250        2.601        3.146        2.475        2.936        2.953        2.610        2.541        0.513        0.000        1.000        0.000        0.000        2.000        1.000        0.000        1.000        0.000        0.000        0.000        1.000        0.000        1.000        0.000        2.000        0.000        0.000        0.000        0.000        0.000        0.000        0.000        0.000        0.000        2.000        0.000        0.000        2.000        0.000        3.000        1.000        0.000        0.000        0.000      100.000        0.000        0.000        1.905        1.937        2.868
     560.000  -234154.660    22066.733    13992.696    38019.727      144.265  -351882.967    43504.885       26.330       26.292        2.552        3.006        2.626        2.652        2.694        3.076        2.718        2.475        3.278        2.658        3.181        2.524        2.969        3.000        2.634        2.537        0.472        0.000        1.000        0.000        0.000        0.000        0.000        0.000        1.000        0.000        0.000        0.000        1.000        0.000        0.000        0.000        0.000        0.000        0.000        0.000        0.000        0.000        0.000        0.000        0.000        1.000        4.000        0.000        1.000        2.000        3.000        0.000        2.000        0.000        0.000        0.000      100.000        0.000        0.000        2.025        2.043        2.932
     570.000  -233609.542    23616.432    14001.126    37823.108       91.664  -350753.453    41611.581       26.236       26.115        2.580        2.876        2.581        2.651        2.718        3.024        2.669        2.572        3.269        2.588        3.239        2.490        2.901        3.008        2.613        2.558        0.492        0.000        0.000        0.000        0.000        1.000        1.000        0.000        1.000        0.000        0.000        0.000        2.000        0.000        1.000        0.000        1.000        0.000        0.000        0.000        0.000        0.000        0.000        0.000        0.000        2.000        3.000        0.000        1.000        0.000        2.000        1.000        1.000        0.000        0.000        0.000      100.000        0.000        0.000        2.233        2.226        2.971
     580.000  -234174.980    22800.475    13840.642    38115.723      122.217  -352095.622    43041.584       26.125       25.800        2.570        3.006        2.513        2.681        2.671        2.988        2.669        2.556        3.265        2.704        3.166        2.432        2.948        3.001        2.610        2.562        0.478        0.000        1.000        0.000        0.000        1.000        0.000        0.000        1.000        0.000        0.000        0.000        1.000        0.000        0.000        0.000        2.000        0.000        0.000        0.000        0.000        0.000        0.000        0.000        0.000        1.000        2.000        0.000        1.000        0.000        0.000        2.000        1.000        0.000        0.000        0.000      100.000        0.000        0.000        2.195        2.219        3.048
     590.000  -234316.998    22364.930    14148.415    38124.776      120.725  -351470.337    42394.492       26.162       25.752        2.603        2.998        2.610        2.626        2.701        2.927        2.654        2.602        3.301        2.652        3.126        2.562        2.934        2.960        2.660        2.567        0.475        0.000        1.000        0.000        0.000        0.000        0.000        0.000        2.000        0.000        0.000        0.000        1.000        0.000        0.000        0.000        0.000        0.000        0.000        0.000        0.000        0.000        0.000        0.000        0.000        1.000        4.000        0.000        1.000        1.000        0.000        1.000        1.000        0.000        0.000        0.000      100.000        0.000        0.000        1.803        1.839        2.813
     600.000  -233852.577    23891.650    14021.774    37884.431      124.861  -351833.912    42058.619       26.420       26.052        2.558        3.095        2.657        2.673        2.701        2.989        2.659        2.606        3.199        2.640        3.224        2.508        3.044        2.922        2.599        2.575        0.481        0.000        0.000        0.000        0.000        1.000        1.000        0.000        2.000        0.000        0.000        0.000        2.000        0.000        0.000        0.000        3.000        0.000        0.000        0.000        0.000        0.000        0.000        0.000        0.000        2.000        4.000        0.000        3.000        0.000        3.000        0.000        3.000        0.000        0.000        0.000      100.000        0.000        0.000        1.916        1.976        2.770
     610.000  -234022.548    22978.313    14405.171    37851.034      115.707  -350926.607    41553.835       26.277       25.916        2.619        3.062        2.660        2.651        2.676        3.007        2.698        2.539        3.315        2.675        3.203        2.467        2.976        2.965        2.638        2.582        0.479        0.000        1.000        0.000        0.000        1.000        0.000        0.000        1.000        0.000        0.000        0.000        0.000        0.000        0.000        0.000        2.000        0.000        0.000        0.000        0.000        0.000        0.000        0.000        0.000        0.000        0.000        0.000        1.000        1.000        1.000        2.000        0.000        0.000        0.000        0.000      100.000        0.000        0.000        2.127        2.184        2.949
     620.000  -233925.540    23662.858    14117.283    37945.037      132.974  -351345.815    41562.122       26.173       25.881        2.532        3.066        2.626        2.698        2.731        2.994        2.677        2.591        3.230        2.693        3.147        2.506        2.965        2.964        2.588        2.596        0.487        0.000        1.000        0.000        0.000        0.000        0.000        0.000        2.000        0.000        0.000        0.000        0.000        0.000        0.000        0.000        2.000        0.000        0.000        0.000        0.000        0.000        0.000        0.000        0.000        3.000        2.000        0.000        2.000        2.000        5.000        1.000        2.000        0.000        0.000        0.000      100.000        0.000        0.000        2.110        2.133        2.852
     630.000  -234512.808    23562.184    13986.806    38097.584      106.630  -352574.982    42308.970       26.188       26.061        2.590        3.019        2.621        2.675        2.688        2.986        2.719        2.548        3.206        2.680        3.154        2.509        2.921        3.020        2.609        2.540        0.501        0.000        1.000        0.000        0.000        0.000        2.000        0.000        1.000        0.000        0.000        0.000        1.000        0.000        0.000        0.000        1.000        0.000        0.000        0.000        0.000        0.000        0.000        0.000        0.000        4.000        5.000        0.000        4.000        0.000        2.000        2.000        3.000        0.000        0.000        0.000      100.000        0.000        0.000        1.808        1.852        2.583
     640.000  -233630.542    23124.177    14290.959    37951.407      122.487  -351090.906    41971.333       26.439       26.043        2.562        2.942        2.622        2.711        2.683        3.035        2.689        2.528        3.268        2.655        3.217        2.508        2.990        2.958        2.650        2.545        0.499        0.000        1.000        0.000        0.000        0.000        0.000        0.000        2.000        0.000        0.000        0.000        0.000        0.000        0.000        0.000        2.000        0.000        0.000        0.000        0.000        0.000        0.000        0.000        0.000        2.000        0.000        0.000        2.000        0.000        2.000        0.000        2.000        0.000        0.000        0.000      100.000        0.000        0.000        1.837        1.858        2.822
     650.000  -233639.586    22327.329    14193.841    38075.456      125.093  -352586.546    44225.241       26.090       25.721        2.559        2.976        2.615        2.605        2.674        2.951        2.678        2.559        3.247        2.662        3.210        2.546        3.039        2.911        2.588        2.550        0.495        0.000        0.000        0.000        0.000        2.000        0.000        0.000        1.000        0.000        0.000        0.000        0.000        0.000        0.000        0.000        3.000        0.000        0.000        0.000        0.000        0.000        0.000        0.000        0.000        2.000        1.000        0.000        3.000        3.000        7.000        1.000        3.000        0.000        0.000        0.000      100.000        0.000        0.000        1.932        1.955        3.013
     660.000  -234298.008    24252.540    13912.856    37783.702      102.866  -351736.666    41386.695       26.527       26.069        2.600        2.960        2.657        2.572        2.702        3.034        2.689        2.515        3.251        2.688        3.148        2.507        2.993        2.975        2.666        2.570        0.502        1.000        0.000        0.000        0.000        1.000        1.000        0.000        1.000        0.000        0.000        0.000        0.000        0.000        0.000        0.000        3.000        0.000        0.000        0.000        0.000        0.000        0.000        0.000        0.000        0.000        3.000        0.000        4.000        4.000        3.000        2.000        1.000        0.000        0.000        0.000      100.000        0.000        0.000        2.078        2.086        3.179
     670.000  -233775.717    23628.139    14224.748    37889.951      124.397  -350766.856    41123.903       26.754       26.616        2.573        2.986        2.652        2.634        2.661        3.088        2.655        2.552        3.223        2.634        3.179        2.514        2.917        2.964        2.638        2.497        0.480        0.000        1.000        0.000        0.000        1.000        1.000        0.000        0.000        0.000        0.000        0.000        1.000        0.000        0.000        0.000        1.000        0.000        0.000        0.000        0.000        0.000        0.000        0.000        0.000        1.000        2.000        0.000        5.000        1.000        5.000        0.000        2.000        0.000        0.000        0.000      100.000        0.000        0.000        2.317        2.308        3.358
     680.000  -233918.395    23542.325    13871.896    38068.131      106.500  -350557.892    41050.646       26.093       25.962        2.608        3.051        2.662        2.632        2.703        3.000        2.653        2.540        3.230        2.698        3.175        2.410        3.041        2.910        2.595        2.526        0.488        0.000        0.000        0.000        0.000        2.000        1.000        0.000        0.000        0.000        0.000        0.000        1.000        0.000        0.000        0.000        1.000        0.000        0.000        0.000        0.000        0.000        0.000        0.000        0.000        1.000        2.000        0.000        4.000        3.000        3.000        1.000        3.000        0.000        0.000        0.000      100.000        0.000        0.000        1.948        1.936        3.367
     690.000  -234616.117    22367.805    13866.620    38150.502      112.727  -352383.963    43270.192       26.385       26.039        2.560        3.073        2.596        2.600        2.695        2.990        2.616        2.525        3.185        2.675        3.200        2.400        2.960        3.024        2.622        2.582        0.475        0.000        1.000        0.000        0.000        0.000        1.000        0.000        0.000        0.000        0.000        0.000        0.000        0.000        0.000        0.000        1.000        0.000        0.000        0.000        0.000        0.000        0.000        0.000        0.000        1.000        2.000        0.000        4.000        2.000        3.000        0.000        3.000        0.000        0.000        0.000      100.000        0.000        0.000        2.033        2.021        3.312
     700.000  -234095.668    22546.326    13879.507    37952.759       99.242  -351588.699    43015.196       26.454       26.221        2.573        3.033        2.609        2.629        2.711        2.983        2.678        2.488        3.224        2.648        3.253        2.516        2.961        2.974        2.604        2.497        0.483        0.000        1.000        0.000        0.000        1.000        0.000        0.000        0.000        0.000        0.000        0.000        0.000        0.000        0.000        0.000        0.000        0.000        0.000        0.000        0.000        0.000        0.000        0.000        0.000        2.000        2.000        0.000        4.000        1.000        2.000        0.000        2.000        0.000        0.000        0.000      100.000        0.000        0.000        2.515        2.522        3.601
     710.000  -233389.640    23111.944    14086.055    37793.300      117.075  -351049.815    42551.800       26.626       26.195        2.597        3.049        2.597        2.657        2.718        3.083        2.634        2.610        3.290        2.611        3.180        2.576        2.990        2.959        2.605        2.523        0.497        1.000        0.000        0.000        0.000        1.000        1.000        0.000        1.000        0.000        0.000        0.000        1.000        0.000        0.000        0.000        0.000        0.000        0.000        0.000        0.000        0.000        0.000        0.000        0.000        2.000        4.000        0.000        2.000        2.000        1.000        1.000        0.000        0.000        0.000        0.000      100.000        0.000        0.000        2.522        2.558        3.831
     720.000  -234147.795    22987.744    14027.370    37953.798      113.002  -351183.722    41954.014       26.444       26.236        2.588        3.062        2.587        2.622        2.670        3.042        2.676        2.521        3.238        2.618        3.193        2.504        2.909        2.953        2.621        2.455        0.478        1.000        1.000        0.000        0.000        1.000        1.000        0.000        0.000        0.000        0.000        0.000        0.000        0.000        1.000        0.000        1.000        0.000        0.000        0.000        0.000        0.000        0.000        0.000        0.000        1.000        1.000        0.000        3.000        2.000        1.000        1.000        2.000        0.000        0.000        0.000      100.000        0.000        0.000        2.575        2.607        3.702
     730.000  -234221.388    23003.847    14130.287    37818.096       99.142  -350952.485    41679.724       26.546       26.422        2.578        3.098        2.598        2.695        2.689        3.014        2.642        2.515        3.193        2.656        3.146        2.523        3.005        2.916        2.621        2.457        0.485        1.000        0.000        0.000        0.000        1.000        1.000        0.000        1.000        0.000        0.000        0.000        1.000        0.000        0.000        0.000        0.000        0.000        0.000        0.000        0.000        0.000        0.000        0.000        0.000        1.000        1.000        0.000        2.000        1.000        3.000        0.000        4.000        0.000        0.000        0.000      100.000        0.000        0.000        2.819        2.814        4.001
     740.000  -234307.644    22923.840    13646.372    38101.537      129.029  -351755.081    42646.660       26.324       26.094        2.596        3.066        2.645        2.648        2.722        3.067        2.661        2.482        3.228        2.649        3.160        2.464        3.034        2.943        2.603        2.484        0.521        0.000        0.000        0.000        0.000        2.000        1.000        0.000        1.000        0.000        0.000        0.000        1.000        0.000        1.000        0.000        2.000        0.000        0.000        0.000        0.000        0.000        0.000        0.000        0.000        2.000        2.000        1.000        3.000        1.000        3.000        1.000        2.000        0.000        0.000        0.000      100.000        0.000        0.000        2.790        2.777        4.200
     750.000  -233119.157    22170.299    13826.727    38007.233      121.978  -348420.821    41175.427       26.679       26.457        2.579        3.062        2.607        2.596        2.698        3.050        2.714        2.497        3.189        2.663        3.142        2.544        3.001        2.950        2.641        2.550        0.488        0.000        0.000        0.000        0.000        2.000        1.000        0.000        1.000        0.000        0.000        0.000        0.000        0.000        0.000        0.000        1.000        0.000        0.000        0.000        0.000        0.000        0.000        0.000        0.000        1.000        1.000        0.000        1.000        2.000        3.000        0.000        4.000        0.000        0.000        0.000      100.000        0.000        0.000        2.736        2.723        4.030
     760.000  -234570.225    22781.045    13946.465    38149.659      111.710  -351215.644    41656.540       26.572       26.628        2.602        3.022        2.645        2.612        2.668        3.075        2.712        2.605        3.198        2.680        3.197        2.558        2.964        2.950        2.613        2.598        0.487        0.000        0.000        0.000        0.000        1.000        1.000        0.000        1.000        0.000        0.000        0.000        1.000        0.000        0.000        0.000        3.000        0.000        0.000        0.000        0.000        0.000        0.000        0.000        0.000        0.000        2.000        0.000        1.000        3.000        3.000        0.000        1.000        0.000        0.000        0.000      100.000        0.000        0.000        2.803        2.788        4.007
     770.000  -234334.902    24282.798    14350.460    37895.489       91.983  -353668.395    42712.763       26.536       26.452        2.591        3.108        2.663        2.603        2.700        2.999        2.678        2.540        3.243        2.616        3.250        2.581        3.060        2.986        2.656        2.583        0.467        0.000        0.000        0.000        0.000        1.000        1.000        0.000        1.000        0.000        0.000        0.000        0.000        0.000        2.000        0.000        0.000        0.000        0.000        0.000        0.000        0.000        0.000        0.000        0.000        1.000        2.000        0.000        0.000        0.000        2.000        1.000        2.000        0.000        0.000        0.000      100.000        0.000        0.000        2.812        2.800        4.015
     780.000  -234868.351    23643.223    13786.619    37892.854      125.257  -351685.790    41369.486       26.541       26.586        2.600        3.088        2.609        2.633        2.740        3.044        2.669        2.552        3.230        2.608        3.153        2.538        2.930        3.005        2.639        2.527        0.486        0.000        0.000        0.000        0.000        2.000        0.000        0.000        1.000        0.000        0.000        0.000        0.000        0.000        0.000        0.000        1.000        0.000        0.000        0.000        0.000        0.000        0.000        0.000        0.000        0.000        2.000        0.000        0.000        0.000        5.000        0.000        1.000        0.000        0.000        0.000      100.000        0.000        0.000        3.010        3.008        4.104
     790.000  -234524.574    22391.425    14111.241    38087.806      118.976  -352941.585    43707.563       26.542       26.524        2.584        3.057        2.642        2.658        2.682        2.977        2.655        2.502        3.311        2.600        3.201        2.505        2.914        2.880        2.626        2.478        0.495        0.000        0.000        0.000        0.000        2.000        0.000        0.000        1.000        0.000        0.000        0.000        0.000        0.000        0.000        0.000        1.000        0.000        0.000        0.000        0.000        0.000        0.000        0.000        0.000        1.000        1.000        0.000        2.000        1.000        4.000        1.000        3.000        0.000        0.000        0.000      100.000        0.000        0.000        2.620        2.624        3.678
     800.000  -234241.102    23633.936    14055.629    37852.799      126.931  -351973.979    42063.581       26.764       26.371        2.592        3.133        2.629        2.595        2.744        3.049        2.726        2.534        3.170        2.575        3.176        2.564        2.981        2.989        2.656        2.594        0.481        0.000        0.000        0.000        0.000        2.000        1.000        0.000        1.000        0.000        0.000        0.000        0.000        0.000        1.000        0.000        2.000        0.000        0.000        0.000        0.000        0.000        0.000        0.000        0.000        2.000        1.000        0.000        3.000        2.000        4.000        0.000        3.000        0.000        0.000        0.000      100.000        0.000        0.000        3.056        3.052        3.912
     810.000  -234707.772    24249.960    14072.319    37855.664       94.188  -351899.867    40919.964       26.590       26.318        2.601        3.111        2.637        2.617        2.704        3.085        2.668        2.525        3.247        2.601        3.205        2.503        2.980        3.018        2.628        2.558        0.478        0.000        0.000        0.000        0.000        2.000        1.000        0.000        1.000        0.000        0.000        0.000        0.000        0.000        0.000        0.000        1.000        0.000        0.000        0.000        0.000        0.000        0.000        0.000        0.000        1.000        1.000        0.000        0.000        0.000        3.000        1.000        0.000        0.000        0.000        0.000      100.000        0.000        0.000        2.888        2.880        3.811
     820.000  -233399.272    22338.584    14280.216    38076.590      120.614  -350441.669    42226.392       26.257       25.891        2.652        3.086        2.636        2.614        2.717        2.920        2.646        2.527        3.229        2.640        3.185        2.471        2.977        2.936        2.596        2.536        0.470        0.000        0.000        0.000        0.000        2.000        1.000        0.000        0.000        0.000        0.000        0.000        0.000        1.000        0.000        0.000        3.000        0.000        0.000        0.000        0.000        0.000        0.000        0.000        0.000        2.000        0.000        0.000        3.000        1.000        3.000        1.000        2.000        0.000        0.000        0.000      100.000        0.000        0.000        2.787        2.796        3.813
     830.000  -233949.210    23814.471    14507.668    37576.862      111.631  -351227.260    41267.419       26.352       26.048        2.626        3.122        2.674        2.666        2.733        3.044        2.677        2.526        3.285        2.649        3.196        2.558        2.906        2.968        2.585        2.466        0.499        0.000        0.000        0.000        1.000        1.000        1.000        0.000        1.000        0.000        0.000        0.000        1.000        0.000        0.000        0.000        1.000        0.000        0.000        0.000        0.000        0.000        0.000        0.000        0.000        2.000        0.000        0.000        2.000        2.000        4.000        1.000        1.000        0.000        0.000        0.000      100.000        0.000        0.000        2.701        2.704        3.713
     840.000  -234143.761    23324.821    13930.211    37844.700      130.020  -351086.024    41712.511       26.621       26.005        2.537        3.125        2.636        2.669        2.700        3.019        2.683        2.474        3.250        2.600        3.205        2.506        2.945        2.946        2.641        2.613        0.499        0.000        0.000        0.000        1.000        2.000        1.000        0.000        1.000        0.000        0.000        0.000        2.000        1.000        1.000        0.000        0.000        0.000        0.000        0.000        0.000        0.000        0.000        0.000        0.000        0.000        1.000        0.000        3.000        3.000        3.000        0.000        2.000        0.000        0.000        0.000      100.000        0.000        0.000        2.962        2.957        3.761
     850.000  -234325.424    23105.235    14087.727    38032.602      118.625  -353401.171    43731.559       26.514       26.153        2.530        3.040        2.565        2.659        2.690        3.023        2.681        2.543        3.234        2.643        3.184        2.421        2.992        2.950        2.638        2.598        0.502        0.000        0.000        0.000        1.000        0.000        1.000        0.000        1.000        0.000        0.000        0.000        1.000        0.000        0.000        0.000        2.000        0.000        0.000        0.000        0.000        0.000        0.000        0.000        0.000        1.000        2.000        0.000        3.000        2.000        2.000        1.000        2.000        0.000        0.000        0.000      100.000        0.000        0.000        2.981        2.945        3.817
     860.000  -234501.099    24120.098    14053.171    37739.112      122.629  -352058.580    41522.470       26.868       26.297        2.634        3.089        2.631        2.613        2.744        3.057        2.733        2.525        3.267        2.671        3.185        2.537        2.980        3.003        2.636        2.576        0.515        1.000        0.000        0.000        1.000        1.000        1.000        0.000        1.000        0.000        0.000        0.000        0.000        0.000        0.000        0.000        1.000        0.000        0.000        0.000        0.000        0.000        0.000        0.000        0.000        1.000        3.000        0.000        3.000        0.000        9.000        0.000        4.000        0.000        0.000        0.000      100.000        0.000        0.000        3.070        3.051        3.721
     870.000  -233921.396    23945.602    13967.368    37932.982      109.554  -351679.416    41802.514       26.403       25.995        2.578        3.132        2.629        2.626        2.715        2.971        2.653        2.503        3.282        2.674        3.230        2.503        3.062        2.984        2.609        2.580        0.478        1.000        0.000        0.000        0.000        1.000        0.000        0.000        1.000        0.000        0.000        0.000        0.000        1.000        1.000        0.000        1.000        0.000        0.000        0.000        0.000        0.000        0.000        0.000        0.000        1.000        2.000        0.000        1.000        0.000        6.000        1.000        4.000        0.000        0.000        0.000      100.000        0.000        0.000        2.854        2.867        3.534
     880.000  -234047.509    22513.869    14173.796    38036.873      125.837  -351492.685    42594.801       26.452       26.081        2.578        3.012        2.600        2.603        2.689        2.972        2.670        2.547        3.199        2.630        3.225        2.501        3.012        2.989        2.619        2.550        0.501        0.000        0.000        0.000        1.000        2.000        0.000        0.000        1.000        1.000        0.000        0.000        1.000        0.000        1.000        0.000        0.000        0.000        0.000        0.000        0.000        0.000        0.000        0.000        0.000        0.000        0.000        0.000        6.000        4.000        2.000        0.000        4.000        0.000        0.000        0.000      100.000        0.000        0.000        2.480        2.506        3.276
     890.000  -234263.369    23109.471    14015.111    37926.690      105.663  -351246.340    41826.035       26.547       26.422        2.614        3.104        2.635        2.582        2.706        3.045        2.670        2.540        3.213        2.676        3.156        2.537        2.986        2.961        2.614        2.596        0.500        0.000        0.000        0.000        1.000        2.000        0.000        0.000        1.000        0.000        0.000        0.000        1.000        0.000        2.000        0.000        1.000        0.000        0.000        0.000        0.000        0.000        0.000        0.000        0.000        2.000        2.000        0.000        5.000        4.000        2.000        1.000        0.000        0.000        0.000        0.000      100.000        0.000        0.000        2.428        2.418        3.221
     900.000  -234677.754    22501.704    14422.381    38214.180      114.087  -353467.559    43537.453       26.436       25.993        2.605        2.998        2.646        2.612        2.676        2.982        2.657        2.538        3.266        2.614        3.178        2.536        2.938        3.002        2.611        2.597        0.480        0.000        0.000        0.000        1.000        1.000        1.000        0.000        0.000        0.000        0.000        0.000        1.000        0.000        0.000        0.000        2.000        0.000        0.000        0.000        0.000        0.000        0.000        0.000        0.000        1.000        1.000        0.000        3.000        1.000        3.000        0.000        2.000        0.000        0.000        0.000      100.000        0.000        0.000        2.296        2.265        3.113
     910.000  -233870.980    22686.431    14372.062    37823.671       90.804  -352425.762    43581.814       26.387       26.287        2.632        3.011        2.534        2.612        2.693        3.003        2.642        2.590        3.245        2.699        3.173        2.526        2.975        3.014        2.610        2.632        0.517        0.000        0.000        0.000        1.000        0.000        0.000        0.000        0.000        0.000        0.000        0.000        1.000        0.000        1.000        0.000        0.000        0.000        0.000        0.000        0.000        0.000        0.000        0.000        0.000        2.000        3.000        0.000        5.000        3.000        2.000        2.000        3.000        0.000        0.000        0.000      100.000        0.000        0.000        2.297        2.269        3.193
     920.000  -234618.459    23784.913    14349.443    38033.936      118.110  -352873.214    41968.353       26.295       26.388        2.585        3.038        2.647        2.704        2.720        3.012        2.692        2.562        3.260        2.664        3.122        2.558        2.980        2.989        2.661        2.631        0.508        1.000        0.000        0.000        1.000        0.000        0.000        0.000        0.000        0.000        0.000        0.000        1.000        0.000        1.000        0.000        1.000        0.000        0.000        0.000        0.000        0.000        0.000        0.000        0.000        3.000        2.000        0.000        2.000        3.000        2.000        3.000        3.000        0.000        0.000        0.000      100.000        0.000        0.000        2.206        2.179        3.197
     930.000  -234298.769    23505.747    13857.633    38195.380      102.440  -352837.882    42877.913       26.223       26.527        2.592        3.045        2.528        2.602        2.656        3.037        2.639        2.482        3.218        2.661        3.184        2.531        2.920        2.968        2.660        2.605        0.498        0.000        0.000        0.000        0.000        0.000        0.000        0.000        0.000        0.000        0.000        0.000        0.000        0.000        0.000        0.000        0.000        0.000        0.000        0.000        0.000        0.000        0.000        0.000        0.000        2.000        1.000        0.000        2.000        2.000        2.000        0.000        1.000        0.000        0.000        0.000      100.000        0.000        0.000        2.472        2.453        3.151
     940.000  -233859.719    22328.200    14207.655    37933.490      112.739  -352295.166    43853.363       26.193       26.222        2.585        3.112        2.574        2.580        2.702        2.988        2.729        2.524        3.257        2.599        3.125        2.487        2.939        3.033        2.611        2.579        0.506        0.000        0.000        0.000        1.000        1.000        0.000        0.000        0.000        0.000        0.000        0.000        0.000        0.000        0.000        0.000        0.000        0.000        0.000        0.000        0.000        0.000        0.000        0.000        0.000        0.000        2.000        0.000        6.000        1.000        1.000        0.000        3.000        0.000        0.000        0.000      100.000        0.000        0.000        2.268        2.237        3.236
     950.000  -233893.751    23264.424    14382.629    37910.347      104.905  -351151.081    41595.024       26.031       26.156        2.545        3.085        2.563        2.631        2.716        3.061        2.679        2.554        3.229        2.667        3.154        2.506        2.942        3.058        2.677        2.629        0.469        0.000        0.000        0.000        1.000        1.000        0.000        0.000        0.000        0.000        0.000        0.000        0.000        0.000        0.000        0.000        1.000        0.000        0.000        0.000        0.000        0.000        0.000        0.000        0.000        1.000        2.000        0.000        2.000        1.000        2.000        0.000        2.000        0.000        0.000        0.000      100.000        0.000        0.000        2.244        2.227        3.194
     960.000  -234424.294    22875.737    14398.452    37920.031      103.220  -352285.290    42563.555       26.159       26.465        2.598        3.037        2.574        2.640        2.689        3.101        2.690        2.559        3.206        2.663        3.173        2.517        2.938        2.918        2.643        2.583        0.480        0.000        0.000        0.000        1.000        0.000        0.000        0.000        0.000        0.000        0.000        0.000        0.000        0.000        1.000        0.000        0.000        0.000        0.000        0.000        0.000        0.000        0.000        0.000        0.000        2.000        4.000        0.000        3.000        3.000        1.000        0.000        3.000        0.000        0.000        0.000      100.000        0.000        0.000        2.134        2.107        3.203
     970.000  -233557.528    22580.117    13953.832    38087.386      102.802  -351567.261    43285.596       26.027       26.186        2.603        3.011        2.578        2.632        2.704        3.037        2.659        2.464        3.174        2.639        3.139        2.535        2.996        2.974        2.648        2.572        0.494        0.000        0.000        0.000        1.000        0.000        0.000        0.000        0.000        0.000        0.000        0.000        0.000        0.000        1.000        0.000        3.000        0.000        0.000        0.000        0.000        0.000        0.000        0.000        0.000        2.000        3.000        0.000        5.000        1.000        2.000        1.000        3.000        0.000        0.000        0.000      100.000        0.000        0.000        2.008        1.972        3.090
     980.000  -234279.038    22867.698    13595.432    37904.601      112.926  -351040.260    42280.564       26.209       26.298        2.617        3.023        2.593        2.600        2.726        3.043        2.691        2.518        3.177        2.656        3.197        2.440        2.967        2.990        2.597        2.591        0.471        1.000        0.000        0.000        0.000        1.000        0.000        0.000        0.000        0.000        0.000        0.000        0.000        0.000        0.000        0.000        0.000        0.000        0.000        0.000        0.000        0.000        0.000        0.000        0.000        2.000        1.000        0.000        1.000        0.000        4.000        1.000        1.000        0.000        0.000        0.000      100.000        0.000        0.000        2.165        2.124        3.176
     990.000  -234983.038    23853.124    13940.698    37918.498      129.793  -353054.673    42229.522       26.488       26.339        2.573        3.001        2.594        2.633        2.697        3.055        2.668        2.545        3.218        2.681        3.234        2.530        3.043        2.994        2.603        2.572        0.474        0.000        0.000        0.000        0.000        1.000        0.000        0.000        0.000        0.000        0.000        0.000        0.000        0.000        0.000        0.000        0.000        0.000        0.000        0.000        0.000        0.000        0.000        0.000        0.000        0.000        1.000        0.000        3.000        2.000        3.000        0.000        3.000        0.000        0.000        0.000      100.000        0.000        0.000        2.297        2.282        3.223
    1000.000  -234478.463    24018.972    14045.453    37924.617      115.623  -351953.923    41370.796       26.275       26.244        2.586        3.039        2.598        2.600        2.697        3.016        2.678        2.498        3.266        2.649        3.185        2.539        2.952        3.061        2.562        2.642        0.504        0.000        0.000        0.000        0.000        1.000        0.000        0.000        0.000        0.000        0.000        0.000        0.000        0.000        0.000        0.000        0.000        0.000        0.000        0.000        0.000        0.000        0.000        0.000        0.000        0.000        0.000        0.000        1.000        0.000        1.000        0.000        3.000        0.000        0.000        0.000      100.000        0.000        0.000        2.288        2.249        3.555
     Average  -235824.674    23639.451    14193.598    37912.537      111.364  -354502.175    42820.551       26.233       26.039        2.584        3.033        2.603        2.647        2.703        2.997        2.675        2.534        3.244        2.649        3.177        2.520        2.976        2.964        2.626        2.555        0.489        0.475        0.198        0.000        0.376        0.713        0.762        0.000        0.881        0.010        0.059        0.000        0.683        0.030        0.307        0.000        1.119        0.000        0.000        0.000        0.000        0.000        0.000        0.000        0.000        0.950        1.465        0.010        2.267        1.564        3.396        1.059        1.950        0.000        0.923        0.000       99.077        0.000        0.000        2.099        2.123        2.856

