____Time[ps] Energy[ kJ/mol ]_____Bond _______Angle ____Dihedral ___Planarity _____Coulomb _________VdW _Your result _Your result _Your result _Your result _Your result _Your result _Your result _Your result _Your result _Your result _Your result _Your result _Your result _Your result _Your result _Your result _Your result _Your result _Your result _Your result _Your result _Your result _Your result _Your result _Your result _Your result _Your result _Your result _Your result _Your result _Your result _Your result _Your result _Your result _Your result _Your result _Your result _Your result _Your result _Your result _Your result _Your result _Your result _Your result _Your result _Your result _Your result _Your result _Your result _Your result _Your result _Your result _Your result _Your result _Your result _Your result _Your result _RMSDs[A]:CA ____Backbone __HeavyAtoms
       0.000  -349148.310     7709.078     5111.809    39090.942       18.447  -468981.110    67902.524       25.311       25.398        2.490        2.501        2.557        2.692        2.700        3.064        2.539        2.571        3.261        2.698        2.606        2.532        3.106        2.922        2.547        2.478        0.487        0.000        1.000        0.000        1.000        1.000        2.000        0.000        0.000        0.000        1.000        0.000        0.000        0.000        0.000        0.000        1.000        0.000        0.000        0.000        0.000        0.000        0.000        0.000        0.000        3.000        4.000        0.000        2.000        0.000        1.000        0.000        1.000        0.000        0.000        0.000      100.000        0.000        0.000        0.440        0.484        0.651
      10.000  -263203.140    29374.964    16006.540    38933.814      100.517  -399964.450    52345.476       26.090       25.993        2.546        2.571        2.602        2.643        2.560        2.993        2.570        2.528        3.270        2.640        2.605        2.463        3.114        2.948        2.638        2.485        0.495        1.000        2.000        0.000        1.000        0.000        2.000        0.000        0.000        0.000        0.000        0.000        0.000        0.000        1.000        0.000        0.000        0.000        0.000        0.000        1.000        0.000        0.000        0.000        0.000        1.000        4.000        0.000        2.000        0.000        0.000        0.000        0.000        0.000        0.000        0.000      100.000        0.000        0.000        1.430        1.451        1.612
      20.000  -262524.115    28693.816    16182.827    38689.357       91.052  -397360.479    51179.312       26.218       26.108        2.561        2.581        2.658        2.704        2.632        2.964        2.532        2.525        3.262        2.660        2.612        2.511        3.113        2.971        2.665        2.546        0.466        1.000        2.000        0.000        1.000        1.000        2.000        0.000        0.000        0.000        0.000        0.000        0.000        0.000        0.000        0.000        0.000        0.000        0.000        0.000        1.000        0.000        0.000        0.000        0.000        0.000        4.000        0.000        4.000        0.000        0.000        0.000        1.000        0.000        0.000        0.000      100.000        0.000        0.000        1.453        1.453        1.614
      30.000  -262322.494    29377.142    16393.605    38721.588       96.786  -397042.970    50131.355       26.009       25.922        2.599        2.581        2.699        2.715        2.589        3.053        2.554        2.536        3.261        2.694        2.582        2.519        3.057        2.923        2.655        2.606        0.502        1.000        1.000        0.000        0.000        1.000        2.000        0.000        0.000        0.000        0.000        0.000        0.000        0.000        1.000        0.000        0.000        0.000        0.000        0.000        1.000        0.000        0.000        0.000        0.000        2.000        7.000        0.000        2.000        1.000        3.000        0.000        2.000        0.000        0.000        0.000      100.000        0.000        0.000        1.413        1.431        1.656
      40.000  -262266.638    29302.156    16015.330    38624.864      119.183  -394003.598    47675.428       25.842       25.921        2.579        2.587        2.718        2.660        2.574        2.911        2.555        2.549        3.236        2.669        2.527        2.502        2.950        2.970        2.679        2.630        0.495        1.000        1.000        0.000        2.000        0.000        2.000        0.000        0.000        1.000        0.000        0.000        0.000        0.000        1.000        0.000        0.000        0.000        0.000        0.000        1.000        0.000        0.000        0.000        0.000        4.000        4.000        0.000        4.000        4.000        2.000        0.000        2.000        0.000        0.000        0.000      100.000        0.000        0.000        1.667        1.675        1.877
      50.000  -262223.379    28568.695    15987.604    38788.793      105.067  -395292.052    49618.514       25.696       25.751        2.610        2.603        2.727        2.671        2.615        2.977        2.537        2.555        3.211        2.622        2.581        2.502        3.109        2.923        2.662        2.564        0.475        1.000        1.000        0.000        1.000        0.000        3.000        0.000        0.000        0.000        0.000        0.000        0.000        0.000        0.000        0.000        0.000        0.000        0.000        0.000        1.000        0.000        0.000        0.000        0.000        2.000        4.000        0.000        3.000        3.000        5.000        0.000        4.000        0.000        0.000        0.000      100.000        0.000        0.000        1.723        1.739        2.013
      60.000  -262254.310    29129.141    16089.228    38627.582      111.595  -394572.336    48360.479       25.982       25.983        2.617        2.574        2.696        2.698        2.569        2.962        2.625        2.539        3.230        2.694        2.555        2.417        3.067        2.942        2.677        2.612        0.514        1.000        1.000        0.000        0.000        1.000        3.000        0.000        0.000        0.000        0.000        0.000        0.000        0.000        0.000        0.000        0.000        0.000        0.000        0.000        0.000        0.000        0.000        0.000        0.000        0.000        9.000        0.000        1.000        4.000        5.000        0.000        2.000        0.000        0.000        0.000      100.000        0.000        0.000        1.730        1.751        2.022
      70.000  -260988.261    28312.859    16269.501    38558.776      111.455  -393763.101    49522.249       26.024       26.044        2.579        2.552        2.693        2.678        2.590        3.013        2.545        2.597        3.255        2.670        2.586        2.460        3.043        2.865        2.648        2.652        0.472        1.000        1.000        0.000        1.000        0.000        2.000        0.000        0.000        0.000        0.000        0.000        0.000        0.000        0.000        0.000        0.000        0.000        0.000        0.000        0.000        0.000        0.000        0.000        0.000        2.000        5.000        0.000        2.000        0.000        3.000        0.000        1.000        0.000        0.000        0.000      100.000        0.000        0.000        1.877        1.910        2.178
      80.000  -260357.140    27914.300    15700.698    38815.295      102.038  -392275.783    49386.312       26.096       26.076        2.617        2.566        2.711        2.724        2.404        3.025        2.595        2.567        3.217        2.650        2.588        2.513        3.096        2.924        2.631        2.606        0.511        1.000        1.000        0.000        1.000        1.000        2.000        0.000        0.000        0.000        0.000        0.000        0.000        0.000        0.000        0.000        0.000        0.000        0.000        0.000        0.000        0.000        0.000        0.000        0.000        0.000        5.000        0.000        2.000        0.000        2.000        0.000        2.000        0.000        0.000        0.000      100.000        0.000        0.000        1.624        1.623        1.984
      90.000  -260087.218    28502.327    16405.959    38720.776      104.087  -393202.120    49381.753       26.262       26.359        2.620        2.580        2.691        2.728        2.438        3.063        2.602        2.574        3.218        2.694        2.578        2.493        3.095        2.941        2.646        2.550        0.481        1.000        1.000        0.000        1.000        0.000        2.000        0.000        0.000        0.000        1.000        0.000        0.000        0.000        0.000        0.000        0.000        0.000        0.000        0.000        0.000        0.000        0.000        0.000        0.000        1.000        4.000        0.000        3.000        1.000        2.000        0.000        2.000        0.000        0.000        0.000      100.000        0.000        0.000        1.798        1.835        2.085
     100.000  -259918.142    27404.725    16108.768    38692.549       97.094  -390825.098    48603.819       26.490       26.456        2.640        2.513        2.710        2.672        2.384        2.973        2.593        2.592        3.223        2.687        2.583        2.505        3.072        2.898        2.632        2.538        0.502        1.000        1.000        0.000        2.000        1.000        3.000        0.000        0.000        0.000        0.000        0.000        0.000        0.000        1.000        0.000        0.000        0.000        0.000        0.000        1.000        0.000        0.000        0.000        0.000        0.000        5.000        0.000        3.000        0.000        1.000        0.000        2.000        0.000        0.000        0.000      100.000        0.000        0.000        2.037        2.068        2.209
     110.000  -258979.889    27818.335    15770.053    38678.321      110.298  -389780.041    48423.145       26.055       25.925        2.616        2.521        2.734        2.681        2.409        2.910        2.551        2.552        3.254        2.654        2.583        2.523        3.070        2.905        2.684        2.563        0.472        1.000        1.000        0.000        1.000        0.000        3.000        0.000        0.000        0.000        0.000        0.000        0.000        0.000        0.000        0.000        0.000        0.000        0.000        0.000        0.000        0.000        0.000        0.000        0.000        0.000        3.000        0.000        2.000        1.000        1.000        0.000        2.000        0.000        0.000        0.000      100.000        0.000        0.000        1.833        1.878        2.054
     120.000  -259819.439    26476.622    15541.388    38940.959       85.321  -391468.083    50604.353       25.916       25.837        2.612        2.658        2.719        2.685        2.432        2.926        2.591        2.567        3.267        2.687        2.604        2.456        3.066        2.979        2.706        2.505        0.478        1.000        1.000        0.000        1.000        0.000        3.000        0.000        0.000        0.000        0.000        0.000        0.000        0.000        0.000        0.000        0.000        0.000        0.000        0.000        0.000        0.000        0.000        0.000        0.000        0.000        5.000        0.000        2.000        1.000        1.000        0.000        4.000        0.000        0.000        0.000      100.000        0.000        0.000        1.755        1.820        2.028
     130.000  -259778.634    27509.475    15709.968    38520.128       96.747  -390163.384    48548.432       25.954       26.037        2.623        2.671        2.699        2.691        2.394        3.022        2.616        2.601        3.252        2.689        2.604        2.483        3.035        2.910        2.662        2.595        0.481        1.000        1.000        0.000        2.000        0.000        3.000        0.000        0.000        0.000        0.000        0.000        0.000        0.000        1.000        0.000        0.000        0.000        0.000        0.000        1.000        0.000        0.000        0.000        0.000        2.000        7.000        0.000        2.000        1.000        1.000        0.000        1.000        0.000        0.000        0.000      100.000        0.000        0.000        1.667        1.725        1.893
     140.000  -259771.896    25861.518    15853.922    38618.052      112.939  -390620.953    50402.626       26.095       26.127        2.595        2.673        2.695        2.668        2.446        2.940        2.570        2.585        3.250        2.627        2.567        2.496        3.082        2.982        2.702        2.575        0.510        1.000        1.000        0.000        2.000        0.000        3.000        0.000        0.000        0.000        0.000        0.000        0.000        0.000        0.000        0.000        0.000        0.000        0.000        0.000        1.000        0.000        0.000        0.000        0.000        0.000        5.000        0.000        3.000        0.000        2.000        0.000        0.000        0.000        0.000        0.000      100.000        0.000        0.000        1.923        1.946        2.077
     150.000  -259316.084    27343.591    15493.993    38706.076      137.377  -388634.952    47637.831       26.063       25.686        2.603        2.710        2.701        2.672        2.398        2.928        2.560        2.535        3.227        2.670        2.513        2.498        3.148        2.928        2.642        2.594        0.487        1.000        1.000        0.000        2.000        0.000        3.000        0.000        0.000        0.000        0.000        0.000        0.000        0.000        0.000        0.000        0.000        0.000        0.000        0.000        1.000        0.000        0.000        0.000        0.000        0.000        5.000        0.000        6.000        1.000        3.000        0.000        1.000        0.000        0.000        0.000      100.000        0.000        0.000        1.662        1.694        2.056
     160.000  -259784.566    26560.718    15660.781    38659.335       97.624  -389768.792    49005.770       25.686       25.692        2.583        2.668        2.687        2.694        2.390        2.950        2.578        2.591        3.232        2.679        2.599        2.538        3.103        2.965        2.687        2.568        0.482        1.000        1.000        0.000        2.000        1.000        3.000        0.000        0.000        0.000        1.000        0.000        0.000        0.000        0.000        0.000        0.000        0.000        0.000        0.000        1.000        0.000        0.000        0.000        0.000        0.000        2.000        0.000        3.000        0.000        0.000        0.000        3.000        0.000        0.000        0.000      100.000        0.000        0.000        2.061        2.094        2.256
     170.000  -258734.926    27460.625    15823.272    38749.248       82.990  -387543.177    46692.117       25.954       25.948        2.514        2.654        2.686        2.698        2.407        2.997        2.570        2.576        3.211        2.716        2.542        2.530        3.088        2.987        2.695        2.552        0.507        1.000        1.000        0.000        2.000        0.000        3.000        0.000        0.000        0.000        0.000        0.000        0.000        0.000        1.000        0.000        0.000        0.000        0.000        0.000        1.000        0.000        0.000        0.000        0.000        0.000        2.000        0.000        2.000        0.000        2.000        0.000        1.000        0.000        0.000        0.000      100.000        0.000        0.000        1.966        1.988        2.270
     180.000  -258164.352    26141.146    15396.838    38589.781       95.818  -387359.627    48971.693       26.168       26.042        2.578        2.687        2.718        2.673        2.406        3.015        2.610        2.562        3.219        2.697        2.531        2.487        3.070        2.907        2.676        2.536        0.497        1.000        1.000        0.000        1.000        0.000        3.000        0.000        0.000        0.000        0.000        0.000        0.000        0.000        1.000        0.000        0.000        0.000        0.000        0.000        1.000        0.000        0.000        0.000        0.000        2.000        3.000        0.000        5.000        1.000        4.000        0.000        0.000        0.000        0.000        0.000      100.000        0.000        0.000        1.714        1.735        2.166
     190.000  -258898.925    26220.684    15841.991    38753.544      115.877  -388429.564    48598.543       26.010       25.934        2.581        2.667        2.728        2.693        2.426        2.991        2.576        2.532        3.254        2.704        2.584        2.535        2.939        2.937        2.703        2.575        0.465        1.000        1.000        0.000        2.000        0.000        3.000        0.000        0.000        0.000        0.000        0.000        0.000        0.000        1.000        0.000        0.000        0.000        0.000        0.000        1.000        0.000        0.000        0.000        0.000        0.000        2.000        0.000        3.000        0.000        3.000        0.000        1.000        0.000        0.000        0.000      100.000        0.000        0.000        1.518        1.534        2.018
     200.000  -259065.965    25609.834    15549.785    38741.794       99.407  -388338.983    49272.198       26.023       25.873        2.575        2.650        2.705        2.696        2.392        3.042        2.564        2.559        3.230        2.696        2.564        2.459        3.024        2.951        2.700        2.584        0.495        1.000        1.000        0.000        1.000        0.000        3.000        0.000        0.000        0.000        0.000        0.000        0.000        0.000        1.000        0.000        0.000        0.000        0.000        0.000        1.000        0.000        0.000        0.000        0.000        0.000        5.000        0.000        1.000        0.000        3.000        0.000        3.000        0.000        0.000        0.000      100.000        0.000        0.000        1.612        1.642        2.041
     210.000  -258891.264    26605.199    15651.338    38680.973      111.433  -387974.432    48034.225       25.821       26.025        2.560        2.645        2.717        2.698        2.429        3.026        2.574        2.585        3.237        2.701        2.551        2.485        3.079        3.003        2.684        2.584        0.485        1.000        1.000        0.000        2.000        0.000        3.000        0.000        0.000        0.000        0.000        0.000        0.000        0.000        0.000        0.000        0.000        0.000        0.000        0.000        1.000        0.000        0.000        0.000        0.000        0.000        2.000        0.000        4.000        0.000        3.000        0.000        2.000        0.000        0.000        0.000      100.000        0.000        0.000        1.648        1.682        2.141
     220.000  -258627.144    26425.607    15542.400    38497.369      105.551  -387332.251    48134.181       25.728       26.059        2.555        2.688        2.712        2.697        2.412        3.028        2.552        2.540        3.274        2.675        2.560        2.555        3.095        2.922        2.709        2.570        0.491        1.000        1.000        0.000        1.000        0.000        2.000        0.000        0.000        0.000        0.000        0.000        0.000        0.000        1.000        0.000        0.000        0.000        0.000        0.000        1.000        0.000        0.000        0.000        0.000        0.000        2.000        0.000        2.000        0.000        4.000        0.000        1.000        0.000        0.000        0.000      100.000        0.000        0.000        1.734        1.756        2.258
     230.000  -258618.989    26932.112    15664.650    38539.536      108.967  -387369.476    47505.222       25.937       26.302        2.555        2.671        2.722        2.676        2.394        3.038        2.566        2.534        3.327        2.626        2.564        2.528        3.101        2.997        2.711        2.548        0.489        1.000        1.000        0.000        1.000        0.000        2.000        0.000        0.000        0.000        0.000        0.000        0.000        0.000        0.000        0.000        0.000        0.000        0.000        0.000        1.000        0.000        0.000        0.000        0.000        0.000        2.000        0.000        3.000        1.000        4.000        0.000        1.000        0.000        0.000        0.000      100.000        0.000        0.000        1.737        1.752        2.189
     240.000  -258567.667    25302.172    15664.302    38548.376      104.229  -386662.922    48476.176       25.927       26.059        2.526        2.638        2.685        2.682        2.428        3.067        2.589        2.614        3.220        2.686        2.559        2.555        3.141        2.974        2.708        2.599        0.484        1.000        1.000        0.000        2.000        0.000        2.000        0.000        0.000        0.000        0.000        0.000        0.000        0.000        1.000        0.000        0.000        0.000        0.000        0.000        1.000        0.000        0.000        0.000        0.000        0.000        1.000        0.000        2.000        1.000        2.000        0.000        2.000        0.000        0.000        0.000      100.000        0.000        0.000        1.730        1.762        2.167
     250.000  -258229.183    27011.321    15375.338    38657.693       85.783  -386635.878    47276.560       26.252       26.313        2.541        2.670        2.700        2.690        2.416        3.036        2.591        2.583        3.180        2.661        2.581        2.542        3.057        2.943        2.701        2.548        0.476        1.000        1.000        0.000        1.000        0.000        2.000        0.000        0.000        0.000        0.000        0.000        0.000        0.000        0.000        0.000        0.000        0.000        0.000        0.000        0.000        0.000        0.000        0.000        0.000        0.000        2.000        0.000        1.000        1.000        1.000        0.000        3.000        0.000        0.000        0.000      100.000        0.000        0.000        1.911        1.915        2.324
     260.000  -258160.969    26010.213    15377.168    38620.448       92.562  -386318.312    48056.953       25.581       25.997        2.648        2.662        2.719        2.707        2.421        3.025        2.609        2.600        3.196        2.686        2.555        2.497        3.080        2.973        2.701        2.544        0.467        1.000        1.000        0.000        2.000        0.000        3.000        0.000        0.000        0.000        0.000        0.000        0.000        0.000        0.000        0.000        0.000        0.000        0.000        0.000        1.000        0.000        0.000        0.000        0.000        0.000        2.000        0.000        2.000        0.000        1.000        0.000        1.000        0.000        0.000        0.000      100.000        0.000        0.000        1.857        1.918        2.230
     270.000  -258429.382    26173.585    15520.804    38728.892      110.045  -386195.819    47233.111       25.657       25.899        2.627        2.609        2.710        2.673        2.382        3.066        2.595        2.573        3.198        2.716        2.590        2.465        3.076        2.948        2.675        2.522        0.500        1.000        1.000        0.000        2.000        0.000        3.000        0.000        0.000        0.000        0.000        0.000        0.000        0.000        0.000        0.000        0.000        0.000        0.000        0.000        1.000        0.000        0.000        0.000        0.000        0.000        1.000        0.000        2.000        1.000        2.000        0.000        0.000        0.000        0.000        0.000      100.000        0.000        0.000        1.778        1.826        2.227
     280.000  -258295.480    26073.572    15285.558    38530.166       79.433  -385508.829    47244.620       25.833       26.310        2.566        2.640        2.695        2.683        2.403        2.989        2.571        2.549        3.281        2.653        2.580        2.526        3.100        2.986        2.674        2.532        0.486        1.000        1.000        0.000        2.000        0.000        3.000        0.000        0.000        0.000        0.000        0.000        0.000        0.000        1.000        0.000        0.000        0.000        0.000        0.000        1.000        0.000        0.000        0.000        0.000        0.000        3.000        0.000        7.000        3.000        0.000        0.000        3.000        0.000        0.000        0.000      100.000        0.000        0.000        2.153        2.206        2.515
     290.000  -257375.389    25564.254    15686.993    38761.929      108.162  -384667.769    47171.043       25.620       25.945        2.625        2.684        2.700        2.697        2.425        2.988        2.526        2.515        3.230        2.668        2.599        2.505        3.095        2.957        2.691        2.598        0.484        1.000        1.000        0.000        1.000        0.000        3.000        0.000        0.000        0.000        0.000        0.000        0.000        0.000        1.000        0.000        0.000        0.000        0.000        0.000        0.000        0.000        0.000        0.000        0.000        0.000        2.000        0.000        2.000        0.000        3.000        0.000        1.000        0.000        0.000        0.000      100.000        0.000        0.000        2.070        2.106        2.569
     300.000  -257799.852    27136.814    15070.663    38598.696      124.663  -384846.742    46116.055       25.634       26.049        2.656        2.715        2.726        2.688        2.450        2.971        2.598        2.548        3.241        2.678        2.578        2.488        2.980        2.957        2.732        2.553        0.501        1.000        1.000        0.000        0.000        0.000        3.000        0.000        0.000        0.000        1.000        0.000        0.000        0.000        0.000        0.000        0.000        0.000        0.000        0.000        0.000        0.000        0.000        0.000        0.000        1.000        5.000        0.000        4.000        1.000        0.000        0.000        2.000        0.000        0.000        0.000      100.000        0.000        0.000        1.879        1.912        2.513
     310.000  -256575.235    25746.110    15176.712    38581.488      110.139  -383196.927    47007.243       25.774       26.203        2.637        2.686        2.703        2.693        2.408        3.022        2.548        2.578        3.252        2.696        2.560        2.506        3.042        2.955        2.714        2.596        0.490        1.000        1.000        0.000        0.000        0.000        3.000        0.000        0.000        0.000        0.000        0.000        0.000        0.000        0.000        0.000        0.000        0.000        0.000        0.000        0.000        0.000        0.000        0.000        0.000        0.000        2.000        0.000        3.000        1.000        0.000        0.000        0.000        0.000        0.000        0.000      100.000        0.000        0.000        2.005        2.027        2.725
     320.000  -257872.496    26004.518    15169.160    38701.274      109.558  -383774.781    45917.775       25.553       25.846        2.557        2.676        2.714        2.718        2.368        3.044        2.560        2.579        3.265        2.638        2.569        2.454        3.030        2.974        2.718        2.543        0.499        1.000        1.000        0.000        0.000        1.000        3.000        0.000        0.000        0.000        1.000        0.000        0.000        0.000        1.000        0.000        0.000        0.000        0.000        0.000        0.000        0.000        0.000        0.000        0.000        1.000        3.000        0.000        5.000        2.000        4.000        0.000        0.000        0.000        4.494        0.000       95.506        0.000        0.000        1.790        1.806        2.425
     330.000  -258045.473    25451.673    15431.071    38497.529      115.761  -385925.816    48384.309       25.606       25.697        2.629        2.687        2.717        2.712        2.422        3.035        2.592        2.538        3.299        2.639        2.525        2.470        3.099        2.999        2.654        2.538        0.473        1.000        1.000        0.000        1.000        0.000        3.000        0.000        0.000        0.000        0.000        0.000        0.000        0.000        0.000        0.000        0.000        0.000        0.000        0.000        0.000        0.000        0.000        0.000        0.000        2.000        0.000        0.000        3.000        1.000        1.000        0.000        0.000        0.000        0.000        0.000      100.000        0.000        0.000        2.084        2.102        2.892
     340.000  -257981.053    26044.728    15261.389    38528.485      100.971  -384272.598    46355.973       25.862       26.051        2.602        2.664        2.704        2.682        2.417        2.933        2.577        2.566        3.194        2.675        2.462        2.472        3.068        2.978        2.701        2.548        0.478        1.000        1.000        0.000        0.000        1.000        3.000        0.000        0.000        0.000        0.000        0.000        0.000        0.000        0.000        0.000        0.000        0.000        0.000        0.000        0.000        0.000        0.000        0.000        0.000        0.000        1.000        0.000        1.000        0.000        1.000        0.000        1.000        0.000        0.000        0.000      100.000        0.000        0.000        2.188        2.190        2.976
     350.000  -256901.324    25327.942    15362.038    38727.835      112.205  -382762.700    46331.355       25.749       26.020        2.633        2.640        2.727        2.674        2.401        2.991        2.549        2.568        3.223        2.634        2.479        2.487        3.005        3.036        2.674        2.638        0.502        1.000        1.000        0.000        0.000        1.000        3.000        0.000        0.000        0.000        0.000        0.000        0.000        0.000        1.000        0.000        0.000        0.000        0.000        0.000        1.000        0.000        0.000        0.000        0.000        3.000        3.000        0.000        3.000        1.000        1.000        0.000        0.000        0.000        0.000        0.000      100.000        0.000        0.000        2.064        2.079        2.851
     360.000  -257150.116    25530.627    15694.328    38340.418      102.964  -385205.133    48386.681       25.944       25.934        2.626        2.678        2.685        2.640        2.383        2.961        2.580        2.504        3.272        2.657        2.510        2.515        3.084        2.991        2.665        2.696        0.455        1.000        1.000        0.000        0.000        0.000        3.000        0.000        0.000        0.000        0.000        0.000        0.000        0.000        0.000        0.000        0.000        0.000        0.000        0.000        0.000        0.000        0.000        0.000        0.000        2.000        3.000        0.000        4.000        1.000        1.000        0.000        1.000        0.000        0.000        0.000      100.000        0.000        0.000        2.190        2.174        2.999
     370.000  -256899.105    25704.860    15459.409    38523.420       97.998  -383963.389    47278.598       25.895       25.910        2.606        2.685        2.696        2.650        2.391        2.978        2.557        2.534        3.233        2.690        2.538        2.447        3.021        3.076        2.703        2.619        0.494        1.000        1.000        0.000        1.000        0.000        3.000        0.000        0.000        0.000        0.000        0.000        0.000        0.000        1.000        0.000        0.000        0.000        0.000        0.000        0.000        0.000        0.000        0.000        0.000        2.000        2.000        0.000        2.000        1.000        2.000        0.000        0.000        0.000        0.000        0.000      100.000        0.000        0.000        2.092        2.107        2.918
     380.000  -257240.674    25027.239    15401.490    38628.424       96.721  -383487.995    47093.447       25.841       25.732        2.571        2.711        2.711        2.675        2.400        2.936        2.537        2.514        3.239        2.708        2.495        2.479        3.158        3.011        2.694        2.530        0.467        1.000        1.000        0.000        1.000        0.000        3.000        0.000        0.000        0.000        0.000        0.000        0.000        0.000        1.000        0.000        0.000        0.000        0.000        0.000        0.000        0.000        0.000        0.000        0.000        1.000        3.000        0.000        3.000        0.000        1.000        0.000        0.000        0.000        0.000        0.000      100.000        0.000        0.000        1.938        1.995        3.009
     390.000  -257131.434    25834.518    15398.859    38650.757      120.669  -384187.294    47051.057       25.860       25.935        2.633        2.677        2.679        2.664        2.398        2.970        2.567        2.558        3.194        2.696        2.508        2.501        3.113        3.003        2.694        2.619        0.474        1.000        1.000        0.000        0.000        1.000        3.000        0.000        0.000        0.000        0.000        0.000        0.000        0.000        2.000        0.000        0.000        0.000        0.000        0.000        0.000        0.000        0.000        0.000        0.000        0.000        1.000        0.000        2.000        1.000        1.000        0.000        0.000        0.000        0.000        0.000      100.000        0.000        0.000        2.004        2.040        2.958
     400.000  -257125.653    24419.526    15310.391    38660.435       95.494  -382610.509    46999.011       25.773       26.022        2.618        2.712        2.686        2.640        2.417        2.989        2.529        2.570        3.206        2.629        2.526        2.500        3.018        2.983        2.673        2.551        0.479        1.000        1.000        0.000        1.000        0.000        3.000        0.000        0.000        0.000        1.000        0.000        0.000        0.000        0.000        0.000        0.000        0.000        0.000        0.000        0.000        0.000        0.000        0.000        0.000        1.000        2.000        0.000        3.000        0.000        1.000        0.000        0.000        0.000        0.000        0.000      100.000        0.000        0.000        2.270        2.295        3.113
     410.000  -256528.652    26114.879    15264.217    38695.027      106.687  -382663.440    45953.978       25.923       26.134        2.615        2.679        2.717        2.680        2.417        2.964        2.600        2.585        3.204        2.634        2.519        2.510        3.024        3.039        2.684        2.555        0.488        1.000        1.000        0.000        0.000        1.000        3.000        0.000        0.000        0.000        1.000        0.000        0.000        0.000        0.000        0.000        0.000        0.000        0.000        0.000        0.000        0.000        0.000        0.000        0.000        1.000        0.000        0.000        4.000        1.000        1.000        0.000        1.000        0.000        0.000        0.000      100.000        0.000        0.000        1.919        1.929        2.901
     420.000  -257529.521    25680.908    15459.942    38781.312       95.439  -383588.873    46041.749       25.785       25.764        2.638        2.698        2.685        2.626        2.436        2.991        2.584        2.563        3.238        2.712        2.510        2.461        3.033        3.054        2.685        2.598        0.502        1.000        1.000        0.000        1.000        1.000        3.000        0.000        0.000        0.000        1.000        0.000        0.000        0.000        1.000        0.000        0.000        0.000        0.000        0.000        0.000        0.000        0.000        0.000        0.000        1.000        5.000        0.000        1.000        0.000        2.000        0.000        1.000        0.000        0.000        0.000      100.000        0.000        0.000        2.023        2.026        3.043
     430.000  -257379.518    25548.513    15233.081    38390.841      104.127  -382809.878    46153.799       25.981       25.933        2.628        2.669        2.686        2.680        2.392        2.989        2.599        2.549        3.203        2.679        2.500        2.500        2.969        3.013        2.692        2.652        0.508        1.000        1.000        0.000        1.000        0.000        3.000        0.000        0.000        0.000        0.000        0.000        0.000        0.000        0.000        0.000        0.000        0.000        0.000        0.000        0.000        0.000        0.000        0.000        0.000        3.000        2.000        0.000        3.000        0.000        1.000        0.000        2.000        0.000        0.000        0.000      100.000        0.000        0.000        2.369        2.383        3.212
     440.000  -257106.880    25937.007    15243.219    38662.685      117.430  -383894.006    46826.785       25.782       25.896        2.579        2.659        2.710        2.731        2.421        2.996        2.602        2.585        3.246        2.716        2.553        2.474        3.140        2.970        2.688        2.545        0.499        1.000        1.000        0.000        0.000        0.000        3.000        0.000        0.000        0.000        0.000        0.000        0.000        0.000        0.000        0.000        0.000        0.000        0.000        0.000        0.000        0.000        0.000        0.000        0.000        0.000        1.000        0.000        3.000        1.000        5.000        0.000        0.000        0.000        4.494        0.000       95.506        0.000        0.000        2.087        2.103        2.998
     450.000  -257254.308    26653.264    15303.043    38672.878      100.926  -384487.463    46503.043       25.764       25.821        2.614        2.672        2.727        2.677        2.418        2.903        2.601        2.552        3.209        2.594        2.524        2.495        3.063        3.020        2.726        2.555        0.488        1.000        1.000        0.000        1.000        0.000        2.000        0.000        0.000        0.000        0.000        0.000        0.000        0.000        0.000        0.000        0.000        0.000        0.000        0.000        1.000        0.000        0.000        0.000        0.000        1.000        0.000        0.000        1.000        0.000        0.000        0.000        1.000        0.000        0.000        0.000      100.000        0.000        0.000        2.243        2.272        2.982
     460.000  -257228.247    25779.333    15418.311    38463.874      101.863  -383096.310    46104.682       25.468       25.820        2.598        2.691        2.715        2.675        2.391        2.990        2.628        2.568        3.222        2.654        2.515        2.495        3.116        2.987        2.697        2.565        0.461        1.000        1.000        0.000        1.000        0.000        3.000        0.000        0.000        0.000        0.000        0.000        0.000        0.000        0.000        0.000        0.000        0.000        0.000        0.000        1.000        0.000        0.000        0.000        0.000        0.000        0.000        0.000        2.000        1.000        2.000        0.000        0.000        0.000        0.000        0.000      100.000        0.000        0.000        2.153        2.178        3.071
     470.000  -257334.482    26189.438    15308.071    38427.691      110.075  -384324.317    46954.560       25.609       25.827        2.620        2.675        2.722        2.645        2.432        2.942        2.633        2.590        3.239        2.648        2.533        2.490        3.077        3.011        2.669        2.586        0.505        1.000        1.000        0.000        1.000        1.000        2.000        0.000        0.000        0.000        0.000        0.000        0.000        0.000        0.000        0.000        0.000        0.000        0.000        0.000        1.000        0.000        0.000        0.000        0.000        0.000        1.000        0.000        4.000        1.000        0.000        0.000        1.000        0.000        0.000        0.000      100.000        0.000        0.000        1.622        1.642        2.910
     480.000  -256245.152    25941.718    15225.590    38498.344      127.091  -382692.591    46654.696       25.845       26.148        2.636        2.708        2.688        2.647        2.432        2.975        2.579        2.565        3.190        2.670        2.505        2.476        3.168        2.970        2.677        2.592        0.490        1.000        1.000        0.000        0.000        1.000        3.000        0.000        0.000        0.000        1.000        0.000        0.000        0.000        0.000        0.000        0.000        0.000        0.000        0.000        0.000        0.000        0.000        0.000        0.000        0.000        0.000        0.000        3.000        2.000        0.000        0.000        1.000        0.000        0.000        0.000      100.000        0.000        0.000        2.002        2.012        3.131
     490.000  -257041.146    26462.103    15609.700    38371.707      102.557  -383274.732    45687.519       25.768       25.670        2.603        2.698        2.683        2.702        2.435        3.028        2.641        2.557        3.228        2.666        2.535        2.497        3.104        3.006        2.664        2.639        0.507        1.000        1.000        0.000        0.000        0.000        3.000        0.000        0.000        0.000        0.000        0.000        0.000        0.000        0.000        0.000        0.000        0.000        0.000        0.000        0.000        0.000        0.000        0.000        0.000        0.000        3.000        0.000        1.000        1.000        2.000        0.000        0.000        0.000        0.000        0.000      100.000        0.000        0.000        1.858        1.866        3.113
     500.000  -256871.048    24875.087    15273.856    38754.241      119.714  -383815.227    47921.281       25.870       25.469        2.602        2.705        2.694        2.716        2.451        3.017        2.577        2.527        3.208        2.623        2.516        2.548        3.047        3.004        2.673        2.595        0.491        1.000        1.000        0.000        1.000        0.000        3.000        0.000        0.000        0.000        0.000        0.000        0.000        0.000        1.000        0.000        0.000        0.000        0.000        0.000        0.000        0.000        0.000        0.000        0.000        1.000        1.000        0.000        4.000        1.000        0.000        0.000        2.000        0.000        0.000        0.000      100.000        0.000        0.000        1.947        1.951        3.241
     510.000  -257531.021    26342.828    15260.595    38642.561       99.407  -383612.131    45735.719       26.105       25.636        2.537        2.633        2.677        2.732        2.427        2.957        2.587        2.533        3.230        2.694        2.525        2.482        3.121        3.013        2.660        2.592        0.506        1.000        1.000        0.000        0.000        1.000        3.000        0.000        0.000        0.000        0.000        0.000        0.000        0.000        0.000        0.000        0.000        0.000        0.000        0.000        0.000        0.000        0.000        0.000        0.000        2.000        1.000        0.000        2.000        0.000        0.000        0.000        0.000        0.000        0.000        0.000      100.000        0.000        0.000        1.854        1.857        3.177
     520.000  -257067.026    24683.940    15375.012    38558.549      101.304  -382383.714    46597.884       26.043       25.602        2.522        2.689        2.666        2.712        2.376        2.923        2.589        2.566        3.246        2.662        2.479        2.518        3.070        3.032        2.695        2.616        0.484        1.000        1.000        0.000        0.000        0.000        3.000        0.000        0.000        0.000        1.000        0.000        0.000        0.000        0.000        0.000        0.000        0.000        0.000        0.000        0.000        0.000        0.000        0.000        0.000        1.000        0.000        0.000        1.000        0.000        0.000        0.000        3.000        0.000        0.000        0.000      100.000        0.000        0.000        1.926        1.943        3.350
     530.000  -257275.010    26179.625    15290.851    38503.851      119.155  -382648.904    45280.411       26.048       25.853        2.560        2.677        2.684        2.690        2.402        2.985        2.714        2.579        3.235        2.678        2.566        2.492        3.118        2.957        2.640        2.606        0.483        1.000        1.000        0.000        0.000        0.000        3.000        0.000        0.000        0.000        0.000        0.000        0.000        0.000        0.000        0.000        0.000        0.000        0.000        0.000        0.000        0.000        0.000        0.000        0.000        0.000        0.000        0.000        4.000        1.000        0.000        0.000        0.000        0.000        0.000        0.000      100.000        0.000        0.000        1.713        1.703        3.110
     540.000  -257203.400    25845.216    15472.983    38439.551      122.338  -383503.205    46419.718       26.123       25.927        2.601        2.649        2.713        2.692        2.390        2.981        2.630        2.542        3.229        2.586        2.480        2.502        3.085        2.994        2.729        2.589        0.513        1.000        1.000        0.000        0.000        0.000        3.000        0.000        0.000        0.000        0.000        0.000        0.000        0.000        0.000        0.000        0.000        0.000        0.000        0.000        0.000        0.000        0.000        0.000        0.000        0.000        1.000        0.000        2.000        0.000        0.000        0.000        0.000        0.000        0.000        0.000      100.000        0.000        0.000        1.733        1.725        3.065
     550.000  -257213.905    25958.196    14950.744    38701.167       99.613  -382640.686    45717.061       25.929       25.847        2.580        2.700        2.711        2.716        2.396        2.985        2.642        2.545        3.265        2.598        2.501        2.464        3.152        3.039        2.647        2.610        0.481        1.000        1.000        0.000        0.000        0.000        3.000        0.000        0.000        0.000        1.000        0.000        0.000        0.000        0.000        0.000        0.000        0.000        0.000        0.000        0.000        0.000        0.000        0.000        0.000        1.000        1.000        0.000        3.000        1.000        1.000        0.000        0.000        0.000        0.000        0.000      100.000        0.000        0.000        1.769        1.775        3.236
     560.000  -256934.552    25143.134    15234.869    38750.774      102.549  -383065.241    46899.364       26.258       26.263        2.541        2.675        2.739        2.676        2.405        3.048        2.609        2.570        3.224        2.586        2.549        2.514        3.065        2.995        2.646        2.641        0.500        1.000        1.000        0.000        0.000        1.000        2.000        0.000        0.000        0.000        1.000        0.000        0.000        0.000        0.000        0.000        0.000        0.000        0.000        0.000        0.000        0.000        0.000        0.000        0.000        0.000        1.000        0.000        0.000        0.000        0.000        0.000        0.000        0.000        0.000        0.000      100.000        0.000        0.000        1.844        1.848        3.193
     570.000  -256809.609    26448.309    15481.404    38458.120      106.000  -383645.185    46341.743       26.073       25.967        2.583        2.694        2.715        2.682        2.448        3.124        2.584        2.581        3.212        2.705        2.542        2.522        3.118        2.967        2.661        2.610        0.472        1.000        1.000        0.000        0.000        0.000        3.000        0.000        0.000        0.000        1.000        0.000        0.000        0.000        1.000        0.000        0.000        0.000        0.000        0.000        0.000        0.000        0.000        0.000        0.000        1.000        1.000        0.000        2.000        0.000        1.000        0.000        0.000        0.000        0.000        0.000      100.000        0.000        0.000        1.788        1.781        3.272
     580.000  -256664.657    25044.586    15195.430    38822.040      141.943  -383269.042    47400.386       26.183       26.194        2.596        2.655        2.711        2.668        2.402        3.056        2.574        2.549        3.254        2.651        2.501        2.560        3.203        2.964        2.641        2.572        0.476        1.000        1.000        0.000        0.000        1.000        3.000        0.000        0.000        0.000        0.000        0.000        0.000        0.000        1.000        0.000        0.000        0.000        0.000        0.000        0.000        0.000        0.000        0.000        0.000        0.000        2.000        0.000        1.000        0.000        0.000        0.000        2.000        0.000        0.000        0.000      100.000        0.000        0.000        2.165        2.197        3.474
     590.000  -256542.477    24612.617    15412.916    38751.804      100.249  -384398.173    48978.111       26.280       26.104        2.550        2.681        2.682        2.670        2.406        3.021        2.611        2.510        3.239        2.679        2.514        2.510        3.056        2.932        2.650        2.596        0.511        1.000        1.000        0.000        1.000        0.000        2.000        0.000        0.000        0.000        0.000        0.000        1.000        0.000        0.000        0.000        0.000        0.000        0.000        0.000        0.000        0.000        0.000        0.000        0.000        1.000        2.000        0.000        0.000        0.000        1.000        0.000        1.000        0.000        0.000        0.000      100.000        0.000        0.000        2.696        2.709        3.828
     600.000  -257207.744    24505.867    15005.412    38733.414      108.896  -382600.217    47038.884       26.061       25.887        2.617        2.706        2.725        2.643        2.410        2.968        2.603        2.535        3.243        2.664        2.490        2.547        3.068        2.986        2.643        2.601        0.487        1.000        1.000        0.000        0.000        0.000        3.000        0.000        0.000        0.000        0.000        0.000        0.000        0.000        0.000        0.000        0.000        0.000        0.000        0.000        0.000        0.000        0.000        0.000        0.000        0.000        3.000        0.000        2.000        1.000        0.000        0.000        1.000        0.000        0.000        0.000      100.000        0.000        0.000        2.525        2.543        3.647
     610.000  -256384.260    25015.385    15547.748    38466.057      129.063  -382217.092    46674.578       26.354       25.976        2.572        2.679        2.682        2.678        2.463        3.025        2.552        2.548        3.280        2.690        2.550        2.571        3.092        2.924        2.646        2.570        0.505        1.000        1.000        0.000        0.000        1.000        3.000        0.000        0.000        0.000        0.000        0.000        0.000        0.000        0.000        0.000        0.000        0.000        0.000        0.000        0.000        0.000        0.000        0.000        0.000        0.000        1.000        0.000        4.000        0.000        1.000        0.000        0.000        0.000        0.000        0.000      100.000        0.000        0.000        2.844        2.872        3.864
     620.000  -256350.723    24976.223    15023.612    38624.594      106.987  -381444.007    46361.868       26.200       25.774        2.623        2.698        2.680        2.692        2.440        2.999        2.574        2.588        3.280        2.700        2.526        2.489        3.106        2.990        2.632        2.547        0.486        1.000        1.000        0.000        0.000        1.000        3.000        0.000        0.000        0.000        0.000        0.000        0.000        0.000        1.000        0.000        0.000        0.000        0.000        0.000        0.000        0.000        0.000        0.000        0.000        0.000        5.000        0.000        4.000        1.000        2.000        0.000        1.000        0.000        0.000        0.000      100.000        0.000        0.000        3.254        3.295        4.138
     630.000  -256901.628    24880.932    15180.712    38599.286      113.274  -383490.663    47814.831       26.128       26.027        2.622        2.696        2.664        2.686        2.426        3.022        2.603        2.594        3.245        2.688        2.520        2.506        3.159        2.983        2.692        2.603        0.473        1.000        1.000        0.000        0.000        1.000        3.000        0.000        0.000        1.000        0.000        0.000        0.000        0.000        0.000        0.000        1.000        0.000        0.000        0.000        0.000        0.000        0.000        0.000        0.000        2.000        4.000        0.000        3.000        0.000        0.000        0.000        0.000        0.000        0.000        0.000      100.000        0.000        0.000        3.238        3.297        4.057
     640.000  -256928.964    25642.518    15020.439    38643.583      107.938  -382151.230    45807.789       25.760       25.712        2.631        2.695        2.691        2.728        2.424        2.977        2.674        2.561        3.230        2.675        2.495        2.480        3.121        3.003        2.672        2.524        0.507        1.000        1.000        0.000        0.000        1.000        3.000        0.000        0.000        0.000        0.000        0.000        0.000        0.000        0.000        0.000        0.000        0.000        0.000        0.000        0.000        0.000        0.000        0.000        0.000        1.000        3.000        0.000        2.000        1.000        0.000        0.000        2.000        0.000        0.000        0.000      100.000        0.000        0.000        3.060        3.127        3.996
     650.000  -256698.313    24967.715    15192.538    38585.503      124.558  -381652.601    46083.973       25.874       25.915        2.643        2.663        2.694        2.649        2.479        2.855        2.616        2.556        3.214        2.664        2.499        2.489        3.057        2.970        2.670        2.513        0.484        1.000        1.000        0.000        0.000        0.000        3.000        0.000        0.000        0.000        0.000        0.000        0.000        0.000        1.000        0.000        0.000        0.000        0.000        0.000        0.000        0.000        0.000        0.000        0.000        0.000        4.000        0.000        1.000        0.000        1.000        0.000        1.000        0.000        0.000        0.000      100.000        0.000        0.000        3.142        3.220        3.977
     660.000  -256007.380    25151.534    15219.985    38688.272      133.142  -381126.348    45926.036       26.138       26.087        2.633        2.621        2.708        2.643        2.401        3.016        2.591        2.578        3.225        2.712        2.492        2.492        3.132        2.986        2.685        2.596        0.480        1.000        1.000        0.000        0.000        0.000        2.000        0.000        0.000        0.000        0.000        0.000        0.000        0.000        0.000        0.000        0.000        0.000        0.000        0.000        0.000        0.000        0.000        0.000        0.000        1.000        4.000        0.000        3.000        2.000        3.000        0.000        0.000        0.000        0.000        0.000      100.000        0.000        0.000        3.027        3.086        4.069
     670.000  -256436.506    24381.065    15267.232    38632.614      109.228  -381765.998    46939.353       26.076       25.959        2.601        2.646        2.708        2.691        2.443        2.999        2.637        2.574        3.214        2.679        2.493        2.496        3.118        3.022        2.652        2.575        0.495        1.000        1.000        0.000        0.000        1.000        2.000        0.000        0.000        0.000        0.000        0.000        0.000        0.000        1.000        0.000        0.000        0.000        0.000        0.000        0.000        0.000        0.000        0.000        0.000        2.000        8.000        0.000        0.000        0.000        1.000        0.000        0.000        0.000        0.000        0.000      100.000        0.000        0.000        3.196        3.237        4.207
     680.000  -255507.254    24773.133    15172.252    38586.954      114.074  -379730.046    45576.380       26.411       26.123        2.599        2.669        2.725        2.650        2.405        2.977        2.703        2.620        3.243        2.668        2.542        2.480        3.118        2.997        2.666        2.641        0.491        1.000        1.000        0.000        0.000        1.000        3.000        0.000        0.000        0.000        0.000        0.000        0.000        0.000        0.000        0.000        0.000        0.000        0.000        0.000        0.000        0.000        0.000        0.000        0.000        2.000        5.000        0.000        2.000        0.000        1.000        0.000        1.000        0.000        0.000        0.000      100.000        0.000        0.000        3.256        3.284        4.140
     690.000  -256099.257    24839.410    15128.591    38592.159      135.909  -381712.479    46917.153       26.207       26.113        2.634        2.649        2.684        2.646        2.411        3.030        2.602        2.572        3.243        2.664        2.541        2.522        3.101        2.951        2.626        2.651        0.478        1.000        1.000        0.000        0.000        0.000        3.000        0.000        0.000        0.000        0.000        0.000        1.000        0.000        1.000        0.000        1.000        0.000        0.000        0.000        0.000        0.000        0.000        0.000        0.000        1.000        5.000        0.000        1.000        0.000        3.000        0.000        0.000        0.000        0.000        0.000      100.000        0.000        0.000        3.104        3.158        4.027
     700.000  -256985.983    25916.855    15155.479    38912.397      111.856  -382436.124    45353.554       25.969       26.030        2.573        2.665        2.663        2.670        2.381        2.968        2.683        2.601        3.218        2.636        2.542        2.532        3.143        3.011        2.627        2.592        0.509        1.000        1.000        0.000        0.000        1.000        3.000        0.000        0.000        0.000        0.000        0.000        0.000        0.000        1.000        0.000        0.000        0.000        0.000        0.000        0.000        0.000        0.000        0.000        0.000        2.000        5.000        0.000        2.000        0.000        1.000        0.000        1.000        0.000        4.494        0.000       95.506        0.000        0.000        2.901        2.971        3.731
     710.000  -256358.879    24560.785    15393.849    38605.787      116.913  -383441.577    48405.365       26.089       26.076        2.623        2.631        2.653        2.687        2.396        2.964        2.630        2.584        3.216        2.690        2.497        2.516        3.228        2.908        2.682        2.530        0.487        1.000        1.000        0.000        0.000        0.000        2.000        0.000        0.000        0.000        0.000        0.000        0.000        0.000        0.000        0.000        0.000        0.000        0.000        0.000        0.000        0.000        0.000        0.000        0.000        0.000        4.000        0.000        1.000        0.000        0.000        0.000        0.000        0.000        0.000        0.000      100.000        0.000        0.000        3.259        3.328        4.062
     720.000  -256674.170    26550.352    15399.581    38484.479       95.813  -382010.319    44805.925       25.854       25.680        2.622        2.683        2.683        2.724        2.408        2.942        2.573        2.593        3.277        2.625        2.560        2.516        3.078        2.965        2.626        2.584        0.477        1.000        1.000        0.000        0.000        1.000        3.000        0.000        0.000        0.000        0.000        0.000        0.000        0.000        0.000        0.000        0.000        0.000        0.000        0.000        0.000        0.000        0.000        0.000        0.000        0.000        5.000        0.000        1.000        2.000        1.000        0.000        0.000        0.000        0.000        0.000      100.000        0.000        0.000        3.094        3.153        4.048
     730.000  -257075.278    26261.529    15197.838    38559.090      118.532  -381917.272    44705.007       26.081       25.349        2.578        2.705        2.660        2.706        2.409        2.932        2.588        2.616        3.257        2.700        2.533        2.439        3.009        2.982        2.627        2.587        0.492        1.000        1.000        0.000        0.000        1.000        3.000        0.000        0.000        0.000        0.000        0.000        0.000        0.000        0.000        0.000        0.000        0.000        0.000        0.000        0.000        0.000        0.000        0.000        0.000        0.000        4.000        0.000        4.000        2.000        2.000        0.000        0.000        0.000        0.000        0.000      100.000        0.000        0.000        3.468        3.508        4.324
     740.000  -256782.645    25282.892    15172.096    38772.907      134.553  -383794.414    47649.322       26.207       25.762        2.600        2.654        2.692        2.665        2.386        3.022        2.641        2.564        3.274        2.700        2.514        2.463        3.123        2.987        2.648        2.609        0.472        1.000        1.000        0.000        0.000        1.000        3.000        0.000        0.000        0.000        0.000        0.000        0.000        0.000        0.000        0.000        0.000        0.000        0.000        0.000        0.000        0.000        0.000        0.000        0.000        1.000        3.000        0.000        3.000        0.000        3.000        0.000        0.000        0.000        0.000        0.000      100.000        0.000        0.000        3.366        3.407        4.227
     750.000  -256497.084    25755.887    15181.980    38591.718       97.631  -381012.545    44888.244       26.405       25.813        2.505        2.615        2.701        2.683        2.418        2.946        2.611        2.578        3.232        2.690        2.515        2.517        3.130        2.964        2.629        2.619        0.494        1.000        1.000        0.000        0.000        1.000        2.000        0.000        0.000        0.000        0.000        0.000        0.000        0.000        0.000        0.000        1.000        0.000        0.000        0.000        0.000        0.000        0.000        0.000        0.000        0.000        0.000        0.000        3.000        1.000        1.000        0.000        1.000        0.000        0.000        0.000      100.000        0.000        0.000        3.269        3.324        4.207
     760.000  -256806.660    25551.131    15033.572    38636.496       95.985  -381959.877    45836.032       26.577       26.031        2.478        2.580        2.639        2.643        2.383        3.070        2.604        2.594        3.246        2.714        2.496        2.490        3.065        2.970        2.655        2.608        0.491        1.000        1.000        0.000        0.000        1.000        2.000        0.000        0.000        0.000        0.000        0.000        0.000        0.000        1.000        0.000        0.000        0.000        0.000        0.000        0.000        0.000        0.000        0.000        0.000        0.000        2.000        0.000        2.000        0.000        2.000        0.000        1.000        0.000        0.000        0.000      100.000        0.000        0.000        3.251        3.281        4.114
     770.000  -257360.456    26091.162    15171.772    38596.295      101.995  -382444.838    45123.158       26.583       25.756        2.645        2.654        2.696        2.674        2.435        2.958        2.613        2.551        3.258        2.624        2.522        2.512        3.073        2.982        2.666        2.603        0.465        1.000        1.000        0.000        0.000        1.000        2.000        0.000        0.000        0.000        0.000        0.000        0.000        0.000        0.000        0.000        1.000        0.000        0.000        0.000        0.000        0.000        0.000        0.000        0.000        1.000        3.000        0.000        1.000        1.000        1.000        0.000        1.000        0.000        0.000        0.000      100.000        0.000        0.000        2.861        2.909        3.991
     780.000  -256200.694    25555.405    15148.447    38558.153       98.479  -381524.848    45963.671       26.490       25.805        2.522        2.624        2.741        2.673        2.397        2.962        2.641        2.596        3.221        2.705        2.499        2.567        3.042        3.028        2.614        2.585        0.487        1.000        1.000        0.000        0.000        1.000        2.000        0.000        0.000        0.000        0.000        0.000        0.000        0.000        0.000        0.000        0.000        0.000        0.000        0.000        0.000        0.000        0.000        0.000        0.000        0.000        1.000        0.000        2.000        0.000        4.000        0.000        0.000        0.000        0.000        0.000      100.000        0.000        0.000        2.514        2.535        3.804
     790.000  -256677.692    24927.872    14965.172    38604.452       89.682  -382483.719    47218.849       26.389       26.041        2.507        2.607        2.664        2.678        2.384        2.970        2.659        2.568        3.172        2.690        2.533        2.538        2.992        3.002        2.650        2.540        0.505        1.000        1.000        0.000        0.000        1.000        2.000        0.000        0.000        0.000        0.000        0.000        0.000        0.000        0.000        0.000        0.000        0.000        0.000        0.000        0.000        0.000        0.000        0.000        0.000        0.000        5.000        0.000        1.000        0.000        3.000        0.000        1.000        0.000        0.000        0.000      100.000        0.000        0.000        2.198        2.194        3.633
     800.000  -256680.157    25930.406    14850.198    38620.500      104.946  -383053.734    46867.527       26.280       26.139        2.621        2.633        2.697        2.696        2.446        3.044        2.604        2.566        3.228        2.619        2.537        2.498        3.037        2.964        2.641        2.561        0.517        1.000        0.000        0.000        0.000        1.000        2.000        0.000        0.000        0.000        0.000        0.000        0.000        0.000        0.000        0.000        0.000        0.000        0.000        0.000        0.000        0.000        0.000        0.000        0.000        0.000        5.000        0.000        3.000        0.000        1.000        0.000        0.000        0.000        0.000        0.000      100.000        0.000        0.000        2.148        2.138        3.443
     810.000  -255848.559    24408.607    15484.191    38764.873      101.046  -381414.140    46806.865       26.296       25.931        2.630        2.638        2.696        2.658        2.422        2.980        2.565        2.576        3.224        2.596        2.526        2.532        2.986        3.021        2.635        2.610        0.488        1.000        1.000        0.000        1.000        0.000        2.000        0.000        0.000        0.000        0.000        0.000        0.000        0.000        1.000        0.000        0.000        0.000        0.000        0.000        0.000        0.000        0.000        0.000        0.000        1.000        3.000        0.000        2.000        0.000        2.000        0.000        1.000        0.000        0.000        0.000      100.000        0.000        0.000        2.209        2.193        3.534
     820.000  -256530.411    25851.413    14987.400    38713.349      130.737  -381563.353    45350.043       26.089       26.078        2.620        2.665        2.701        2.663        2.423        2.901        2.580        2.573        3.210        2.641        2.538        2.553        3.060        3.009        2.658        2.558        0.495        1.000        1.000        0.000        2.000        0.000        2.000        0.000        0.000        0.000        0.000        0.000        0.000        0.000        1.000        0.000        0.000        0.000        0.000        0.000        1.000        0.000        0.000        0.000        0.000        0.000        6.000        0.000        3.000        0.000        2.000        0.000        1.000        0.000        0.000        0.000      100.000        0.000        0.000        2.205        2.206        3.416
     830.000  -256662.018    25373.670    15229.997    38583.599      102.650  -382987.565    47035.631       26.104       26.102        2.545        2.640        2.702        2.684        2.412        3.019        2.634        2.549        3.167        2.657        2.529        2.505        3.122        2.955        2.620        2.560        0.500        1.000        1.000        0.000        1.000        0.000        1.000        0.000        0.000        0.000        0.000        0.000        0.000        0.000        0.000        0.000        0.000        0.000        0.000        0.000        1.000        0.000        0.000        0.000        0.000        0.000        3.000        0.000        5.000        1.000        1.000        0.000        1.000        0.000        0.000        0.000      100.000        0.000        0.000        2.803        2.805        3.781
     840.000  -256228.304    24973.884    15002.518    38759.765      146.128  -383195.522    48084.924       25.926       26.116        2.579        2.642        2.657        2.667        2.397        3.001        2.636        2.529        3.171        2.650        2.520        2.462        3.122        3.038        2.677        2.539        0.487        1.000        1.000        0.000        1.000        1.000        2.000        0.000        0.000        1.000        0.000        0.000        0.000        0.000        0.000        0.000        0.000        0.000        0.000        0.000        0.000        0.000        0.000        0.000        0.000        2.000        3.000        0.000        2.000        2.000        1.000        0.000        0.000        0.000        0.000        0.000      100.000        0.000        0.000        2.564        2.569        3.757
     850.000  -257005.540    24486.547    15354.653    38648.749      126.111  -383745.944    48124.343       25.745       26.131        2.579        2.618        2.705        2.623        2.399        2.979        2.615        2.604        3.157        2.688        2.514        2.479        3.078        2.986        2.677        2.616        0.489        1.000        1.000        0.000        0.000        1.000        2.000        0.000        0.000        0.000        0.000        0.000        0.000        0.000        0.000        0.000        0.000        0.000        0.000        0.000        0.000        0.000        0.000        0.000        0.000        2.000        4.000        0.000        0.000        0.000        1.000        0.000        2.000        0.000        0.000        0.000      100.000        0.000        0.000        2.045        2.020        3.418
     860.000  -256681.473    24871.482    14779.502    38889.468      117.301  -382920.669    47581.443       25.828       25.785        2.551        2.689        2.706        2.605        2.394        2.955        2.638        2.583        3.188        2.666        2.522        2.514        3.075        2.988        2.661        2.583        0.475        1.000        1.000        0.000        1.000        1.000        2.000        0.000        0.000        0.000        0.000        0.000        0.000        0.000        0.000        0.000        0.000        0.000        0.000        0.000        1.000        0.000        0.000        0.000        0.000        3.000        4.000        0.000        5.000        0.000        3.000        0.000        0.000        0.000        0.000        0.000      100.000        0.000        0.000        1.970        1.966        3.320
     870.000  -257130.534    26046.593    15015.896    38732.565      112.360  -382040.374    45002.427       25.938       26.025        2.569        2.602        2.698        2.629        2.451        3.030        2.613        2.545        3.199        2.681        2.516        2.523        3.100        3.008        2.641        2.592        0.505        1.000        1.000        0.000        0.000        0.000        2.000        0.000        0.000        0.000        0.000        0.000        0.000        0.000        0.000        0.000        0.000        0.000        0.000        0.000        0.000        0.000        0.000        0.000        0.000        0.000        1.000        0.000        2.000        1.000        0.000        0.000        1.000        0.000        4.494        0.000       95.506        0.000        0.000        2.250        2.247        3.441
     880.000  -257052.196    24618.915    15487.840    38736.746      117.552  -383107.954    47094.705       26.169       25.989        2.585        2.687        2.701        2.606        2.405        3.043        2.580        2.520        3.193        2.663        2.505        2.521        3.144        3.013        2.646        2.578        0.506        1.000        1.000        0.000        1.000        1.000        1.000        0.000        0.000        0.000        0.000        0.000        0.000        0.000        0.000        0.000        0.000        0.000        0.000        0.000        1.000        0.000        0.000        0.000        0.000        1.000        6.000        0.000        3.000        1.000        3.000        0.000        2.000        0.000        0.000        0.000      100.000        0.000        0.000        2.045        2.017        3.358
     890.000  -257607.578    26018.061    15040.639    38745.268      136.409  -383770.415    46222.459       26.168       26.062        2.564        2.676        2.681        2.641        2.405        2.991        2.610        2.543        3.229        2.710        2.539        2.524        3.130        2.927        2.660        2.549        0.501        1.000        1.000        0.000        0.000        0.000        1.000        0.000        0.000        0.000        0.000        0.000        0.000        0.000        0.000        0.000        0.000        0.000        0.000        0.000        0.000        0.000        0.000        0.000        0.000        0.000        4.000        0.000        1.000        1.000        1.000        0.000        1.000        0.000        4.494        0.000       95.506        0.000        0.000        1.958        1.953        3.261
     900.000  -256625.463    25373.394    15138.687    38619.707      104.078  -382651.660    46790.331       26.470       26.109        2.568        2.705        2.707        2.674        2.408        2.925        2.608        2.590        3.226        2.630        2.464        2.527        3.109        2.990        2.629        2.537        0.486        1.000        1.000        0.000        0.000        0.000        1.000        0.000        0.000        0.000        0.000        0.000        0.000        0.000        0.000        0.000        1.000        0.000        0.000        0.000        0.000        0.000        0.000        0.000        0.000        0.000        3.000        0.000        0.000        0.000        1.000        0.000        1.000        0.000        0.000        0.000      100.000        0.000        0.000        2.090        2.091        3.422
     910.000  -256944.700    25919.883    14930.626    38300.668      105.835  -381855.244    45653.532       26.241       25.962        2.578        2.683        2.705        2.701        2.447        3.047        2.662        2.550        3.183        2.657        2.506        2.494        3.042        3.036        2.656        2.577        0.522        1.000        1.000        0.000        0.000        0.000        1.000        0.000        0.000        0.000        0.000        0.000        0.000        0.000        1.000        0.000        0.000        0.000        0.000        0.000        0.000        0.000        0.000        0.000        0.000        1.000        1.000        0.000        2.000        0.000        0.000        0.000        0.000        0.000        0.000        0.000      100.000        0.000        0.000        2.365        2.401        3.496
     920.000  -257027.372    24828.509    15246.660    38947.970      132.825  -385173.378    48990.043       25.922       25.810        2.533        2.657        2.674        2.634        2.490        3.021        2.601        2.566        3.188        2.649        2.491        2.497        3.085        3.057        2.620        2.535        0.485        1.000        1.000        0.000        1.000        1.000        1.000        0.000        0.000        0.000        0.000        0.000        0.000        0.000        0.000        0.000        0.000        0.000        0.000        0.000        0.000        0.000        0.000        0.000        0.000        0.000        2.000        0.000        1.000        0.000        1.000        0.000        1.000        0.000        0.000        0.000      100.000        0.000        0.000        2.750        2.793        3.750
     930.000  -257231.241    24801.279    15040.173    38966.611      127.581  -383871.226    47704.340       26.155       25.684        2.539        2.686        2.701        2.586        2.383        3.007        2.615        2.569        3.234        2.717        2.507        2.447        3.043        2.943        2.647        2.509        0.475        1.000        1.000        0.000        1.000        1.000        1.000        0.000        0.000        0.000        0.000        0.000        0.000        1.000        0.000        0.000        0.000        0.000        0.000        0.000        0.000        0.000        0.000        0.000        0.000        1.000        3.000        0.000        1.000        0.000        0.000        0.000        1.000        0.000        0.000        0.000      100.000        0.000        0.000        2.933        2.949        3.873
     940.000  -257134.907    25892.967    15049.951    38642.789      100.092  -384291.151    47470.444       26.310       26.044        2.560        2.673        2.705        2.648        2.397        2.984        2.597        2.568        3.180        2.752        2.502        2.511        3.114        2.970        2.671        2.583        0.500        1.000        1.000        0.000        0.000        1.000        1.000        0.000        0.000        0.000        0.000        0.000        0.000        0.000        1.000        0.000        0.000        0.000        0.000        0.000        0.000        0.000        0.000        0.000        0.000        1.000        0.000        0.000        0.000        0.000        1.000        0.000        0.000        0.000        0.000        0.000      100.000        0.000        0.000        2.755        2.760        3.727
     950.000  -256217.189    25229.421    15018.007    38691.274      110.858  -382206.907    46940.157       26.013       25.859        2.513        2.663        2.720        2.634        2.442        3.023        2.596        2.556        3.284        2.670        2.475        2.555        3.085        2.961        2.609        2.595        0.497        1.000        1.000        0.000        0.000        1.000        1.000        0.000        0.000        0.000        0.000        0.000        0.000        0.000        0.000        0.000        0.000        0.000        0.000        0.000        0.000        0.000        0.000        0.000        0.000        0.000        1.000        0.000        0.000        1.000        0.000        0.000        2.000        0.000        4.494        0.000       95.506        0.000        0.000        2.789        2.789        3.770
     960.000  -256544.226    25907.576    15281.234    38594.785       89.653  -382331.238    45913.765       26.430       26.069        2.557        2.690        2.675        2.591        2.429        2.936        2.694        2.602        3.321        2.671        2.539        2.574        3.057        2.956        2.652        2.481        0.486        1.000        1.000        0.000        0.000        1.000        1.000        0.000        0.000        0.000        0.000        0.000        0.000        0.000        1.000        0.000        0.000        0.000        0.000        0.000        0.000        0.000        0.000        0.000        0.000        0.000        2.000        0.000        3.000        0.000        1.000        0.000        3.000        0.000        4.494        0.000       95.506        0.000        0.000        2.988        2.984        3.895
     970.000  -256052.491    24675.401    15179.921    38567.175       92.195  -382488.405    47921.223       26.352       25.939        2.590        2.685        2.719        2.651        2.521        2.984        2.573        2.572        3.256        2.699        2.465        2.488        3.090        2.964        2.672        2.488        0.493        0.000        1.000        0.000        1.000        1.000        1.000        0.000        0.000        0.000        0.000        0.000        0.000        0.000        0.000        0.000        0.000        0.000        0.000        0.000        0.000        0.000        0.000        0.000        0.000        1.000        4.000        0.000        2.000        0.000        0.000        0.000        1.000        0.000        0.000        0.000      100.000        0.000        0.000        3.443        3.416        4.244
     980.000  -256544.615    25850.952    14951.001    38336.745       97.973  -380793.420    45012.134       26.187       25.851        2.570        2.673        2.693        2.618        2.430        3.037        2.626        2.594        3.259        2.669        2.499        2.507        3.081        2.997        2.681        2.534        0.483        1.000        1.000        0.000        1.000        1.000        1.000        0.000        0.000        0.000        0.000        0.000        0.000        0.000        0.000        0.000        0.000        0.000        0.000        0.000        0.000        0.000        0.000        0.000        0.000        1.000        0.000        0.000        1.000        0.000        0.000        0.000        0.000        0.000        0.000        0.000      100.000        0.000        0.000        3.669        3.673        4.459
     990.000  -256624.322    25727.442    15402.636    38417.261      111.622  -382487.694    46204.412       25.976       25.733        2.505        2.715        2.690        2.606        2.420        2.971        2.647        2.539        3.259        2.657        2.476        2.501        3.110        3.030        2.652        2.572        0.470        1.000        1.000        0.000        0.000        1.000        1.000        0.000        0.000        0.000        0.000        0.000        0.000        0.000        0.000        0.000        0.000        0.000        0.000        0.000        0.000        0.000        0.000        0.000        0.000        0.000        0.000        0.000        3.000        0.000        0.000        0.000        1.000        0.000        0.000        0.000      100.000        0.000        0.000        3.712        3.703        4.518
    1000.000  -256040.222    24814.365    14850.999    38758.771      104.058  -381799.136    47230.721       26.066       25.772        2.480        2.663        2.674        2.623        2.392        2.974        2.591        2.572        3.236        2.661        2.539        2.492        3.109        2.937        2.656        2.572        0.485        1.000        1.000        0.000        0.000        1.000        1.000        0.000        0.000        0.000        0.000        0.000        0.000        0.000        0.000        0.000        0.000        0.000        0.000        0.000        0.000        0.000        0.000        0.000        0.000        1.000        1.000        0.000        2.000        0.000        3.000        0.000        2.000        0.000        4.494        0.000       95.506        0.000        0.000        3.421        3.398        4.228
     Average  -258610.311    25804.430    15280.523    38644.412      107.723  -385888.799    47441.401       26.011       25.945        2.586        2.656        2.696        2.674        2.430        2.991        2.597        2.564        3.233        2.670        2.534        2.503        3.083        2.977        2.666        2.575        0.489        0.980        1.010        0.000        0.624        0.465        2.416        0.000        0.000        0.030        0.129        0.000        0.020        0.010        0.337        0.000        0.059        0.000        0.000        0.000        0.287        0.000        0.000        0.000        0.000        0.723        2.851        0.000        2.366        0.614        1.436        0.000        0.990        0.000        0.356        0.000       99.644        0.000        0.000        2.254        2.276        3.084

