____Time[ps] Energy[ kJ/mol ]_____Bond _______Angle ____Dihedral ___Planarity _____Coulomb _________VdW _Your result _Your result _Your result _Your result _Your result _Your result _Your result _Your result _Your result _Your result _Your result _Your result _Your result _Your result _Your result _Your result _Your result _Your result _Your result _Your result _Your result _Your result _Your result _Your result _Your result _Your result _Your result _Your result _Your result _Your result _Your result _Your result _Your result _Your result _Your result _Your result _Your result _Your result _Your result _Your result _Your result _Your result _Your result _Your result _Your result _Your result _Your result _Your result _Your result _Your result _Your result _Your result _Your result _Your result _Your result _Your result _Your result _RMSDs[A]:CA ____Backbone __HeavyAtoms
       0.000  -333410.447     8204.655     5164.332    39821.414       14.436  -451143.803    64528.519       25.388       25.468        2.488        2.560        2.573        2.700        2.633        2.591        2.626        2.608        2.612        2.636        2.603        2.616        3.087        3.003        2.540        2.578        0.492        0.000        1.000        0.000        0.000        1.000        4.000        0.000        0.000        0.000        0.000        0.000        0.000        0.000        0.000        0.000        0.000        0.000        0.000        0.000        0.000        0.000        0.000        0.000        0.000        0.000        1.000        0.000        0.000        0.000        5.000        0.000        1.000        0.000        0.000        0.000      100.000        0.000        0.000        0.501        0.541        0.639
      10.000  -251558.992    28734.822    15485.621    39619.275       91.234  -383796.010    48306.067       25.977       25.796        2.495        2.527        2.551        2.702        2.521        2.533        2.609        2.571        2.648        2.634        2.550        2.481        3.099        3.100        2.682        2.492        0.480        0.000        1.000        0.000        0.000        1.000        3.000        0.000        0.000        0.000        0.000        0.000        0.000        0.000        0.000        0.000        0.000        0.000        0.000        0.000        0.000        0.000        0.000        0.000        0.000        0.000        2.000        0.000        0.000        0.000        3.000        0.000        2.000        0.000        0.000        0.000      100.000        0.000        0.000        0.987        1.001        1.238
      20.000  -250952.603    28876.578    15745.656    39296.681       80.036  -381933.681    46982.127       26.254       26.078        2.521        2.509        2.558        2.663        2.497        2.522        2.607        2.555        2.677        2.627        2.531        2.502        3.190        3.049        2.665        2.547        0.503        0.000        1.000        0.000        0.000        1.000        4.000        0.000        0.000        0.000        0.000        0.000        0.000        0.000        0.000        0.000        2.000        0.000        0.000        0.000        0.000        0.000        0.000        0.000        0.000        0.000        1.000        0.000        0.000        0.000        1.000        0.000        3.000        0.000        0.000        0.000      100.000        0.000        0.000        1.264        1.270        1.478
      30.000  -250735.473    27808.643    15136.704    39408.693       75.442  -379748.827    46583.872       26.151       26.224        2.536        2.495        2.621        2.682        2.568        2.550        2.583        2.541        2.721        2.644        2.715        2.457        3.088        3.090        2.638        2.532        0.476        0.000        0.000        0.000        0.000        0.000        5.000        0.000        0.000        0.000        0.000        0.000        0.000        0.000        0.000        0.000        4.000        0.000        0.000        0.000        0.000        0.000        0.000        0.000        0.000        0.000        3.000        0.000        0.000        1.000        2.000        0.000        1.000        0.000        0.000        0.000      100.000        0.000        0.000        1.350        1.353        1.659
      40.000  -249691.993    27244.082    15559.807    39225.110      121.069  -378364.479    46522.417       26.101       26.188        2.480        2.523        2.587        2.698        2.559        2.512        2.583        2.562        2.713        2.648        2.704        2.540        3.128        3.034        2.679        2.543        0.495        0.000        0.000        0.000        0.000        0.000        3.000        0.000        0.000        0.000        0.000        0.000        0.000        0.000        1.000        0.000        2.000        0.000        0.000        0.000        0.000        0.000        0.000        0.000        0.000        0.000        2.000        0.000        0.000        0.000        3.000        0.000        1.000        0.000        0.000        0.000      100.000        0.000        0.000        1.336        1.353        1.696
      50.000  -249351.119    27198.605    15692.035    39316.177      110.201  -379182.907    47514.770       26.103       26.077        2.538        2.465        2.703        2.696        2.644        2.503        2.591        2.500        2.709        2.613        2.668        2.533        3.066        3.034        2.660        2.626        0.480        0.000        0.000        0.000        0.000        1.000        4.000        0.000        0.000        0.000        0.000        0.000        0.000        0.000        1.000        0.000        3.000        0.000        0.000        0.000        0.000        0.000        0.000        0.000        0.000        0.000        2.000        0.000        0.000        2.000        6.000        0.000        1.000        0.000        0.000        0.000      100.000        0.000        0.000        1.335        1.363        1.733
      60.000  -249883.236    27019.678    16094.781    39255.726       98.333  -379476.936    47125.182       26.174       25.872        2.543        2.550        2.704        2.682        2.665        2.525        2.671        2.531        2.640        2.661        2.691        2.562        3.084        3.028        2.659        2.533        0.499        0.000        0.000        0.000        0.000        0.000        4.000        0.000        0.000        0.000        0.000        0.000        0.000        0.000        0.000        0.000        7.000        0.000        0.000        0.000        0.000        0.000        0.000        0.000        0.000        0.000        4.000        0.000        0.000        1.000        7.000        0.000        0.000        0.000        0.000        0.000      100.000        0.000        0.000        1.474        1.483        1.885
      70.000  -249557.282    26777.397    15517.464    39235.196      115.278  -378024.950    46822.334       26.238       26.208        2.528        2.496        2.720        2.694        2.603        2.545        2.644        2.537        2.633        2.595        2.705        2.482        3.044        3.043        2.639        2.560        0.487        0.000        0.000        0.000        0.000        1.000        4.000        0.000        0.000        0.000        0.000        0.000        0.000        0.000        2.000        0.000        4.000        0.000        0.000        0.000        0.000        0.000        0.000        0.000        0.000        0.000        5.000        0.000        0.000        0.000        6.000        0.000        1.000        0.000        0.000        0.000      100.000        0.000        0.000        1.353        1.366        1.763
      80.000  -249253.220    26884.716    15803.669    39318.510      106.940  -378878.881    47511.826       26.056       25.929        2.512        2.487        2.714        2.719        2.612        2.492        2.600        2.543        2.620        2.557        2.713        2.459        3.095        2.983        2.607        2.536        0.490        0.000        0.000        0.000        0.000        1.000        5.000        0.000        0.000        0.000        0.000        0.000        0.000        0.000        1.000        0.000        2.000        0.000        0.000        0.000        0.000        0.000        0.000        0.000        0.000        0.000        1.000        0.000        0.000        2.000        3.000        0.000        3.000        0.000        0.000        0.000      100.000        0.000        0.000        1.354        1.346        1.962
      90.000  -248608.240    25821.716    15657.978    39477.367      125.102  -377287.637    47597.232       25.824       25.798        2.562        2.481        2.700        2.697        2.651        2.512        2.623        2.510        2.670        2.608        2.669        2.435        3.028        3.045        2.638        2.560        0.483        0.000        0.000        0.000        0.000        0.000        4.000        0.000        0.000        0.000        0.000        0.000        0.000        0.000        1.000        0.000        3.000        0.000        0.000        0.000        0.000        0.000        0.000        0.000        0.000        0.000        0.000        0.000        0.000        1.000        4.000        0.000        2.000        0.000        0.000        0.000      100.000        0.000        0.000        1.383        1.385        1.932
     100.000  -248335.212    27814.383    15639.015    39331.731       88.187  -376059.587    44851.060       26.198       25.955        2.543        2.509        2.728        2.704        2.616        2.538        2.610        2.512        2.643        2.591        2.698        2.465        3.062        3.023        2.694        2.599        0.503        0.000        0.000        0.000        0.000        0.000        4.000        0.000        0.000        0.000        0.000        0.000        0.000        0.000        2.000        0.000        3.000        0.000        0.000        0.000        0.000        0.000        0.000        0.000        0.000        0.000        0.000        0.000        0.000        1.000       11.000        0.000        3.000        0.000        0.000        0.000      100.000        0.000        0.000        1.601        1.616        2.062
     110.000  -248343.058    26363.545    15587.803    39401.266       94.306  -375518.588    45728.611       26.221       25.974        2.458        2.500        2.676        2.703        2.629        2.562        2.642        2.540        2.636        2.614        2.690        2.496        3.105        2.999        2.633        2.564        0.502        0.000        0.000        0.000        0.000        0.000        5.000        0.000        0.000        0.000        0.000        0.000        0.000        0.000        1.000        0.000        3.000        0.000        0.000        0.000        0.000        0.000        0.000        0.000        0.000        0.000        1.000        0.000        0.000        0.000       10.000        0.000        0.000        0.000        0.000        0.000      100.000        0.000        0.000        1.870        1.869        2.280
     120.000  -248535.500    26459.888    15330.129    39235.328      101.659  -374941.936    45279.431       26.172       26.226        2.526        2.548        2.644        2.690        2.574        2.525        2.583        2.501        2.648        2.587        2.637        2.482        3.025        3.025        2.636        2.605        0.492        0.000        0.000        0.000        0.000        0.000        5.000        0.000        0.000        0.000        0.000        0.000        0.000        0.000        0.000        0.000        1.000        0.000        0.000        0.000        0.000        0.000        0.000        0.000        0.000        0.000        2.000        0.000        0.000        0.000        2.000        0.000        2.000        0.000        0.000        0.000      100.000        0.000        0.000        1.693        1.701        2.136
     130.000  -248224.038    26703.027    15655.086    39445.723      111.375  -375393.589    45254.340       26.245       25.968        2.538        2.504        2.684        2.658        2.586        2.513        2.619        2.524        2.647        2.572        2.679        2.512        3.093        3.008        2.669        2.612        0.467        0.000        0.000        0.000        0.000        0.000        3.000        0.000        0.000        0.000        0.000        0.000        0.000        0.000        0.000        0.000        3.000        0.000        0.000        0.000        0.000        0.000        0.000        0.000        0.000        0.000        2.000        0.000        0.000        1.000        7.000        0.000        2.000        0.000        0.000        0.000      100.000        0.000        0.000        1.540        1.567        2.086
     140.000  -247834.124    24977.274    15577.522    39424.736       95.204  -375257.767    47348.907       26.214       26.053        2.528        2.513        2.695        2.672        2.605        2.575        2.633        2.505        2.645        2.577        2.653        2.527        3.088        3.064        2.610        2.616        0.491        0.000        0.000        0.000        0.000        0.000        4.000        0.000        0.000        0.000        0.000        0.000        0.000        0.000        0.000        0.000        3.000        0.000        0.000        0.000        0.000        0.000        0.000        0.000        0.000        0.000        0.000        0.000        0.000        3.000       11.000        0.000        0.000        0.000        0.000        0.000      100.000        0.000        0.000        1.396        1.395        1.970
     150.000  -247964.309    26676.656    15417.916    39299.229       96.881  -374015.339    44560.348       26.388       26.036        2.527        2.497        2.743        2.677        2.694        2.561        2.579        2.498        2.655        2.580        2.706        2.500        3.059        3.036        2.635        2.612        0.479        0.000        0.000        0.000        0.000        0.000        4.000        0.000        0.000        0.000        0.000        0.000        0.000        0.000        1.000        0.000        4.000        0.000        0.000        0.000        0.000        0.000        0.000        0.000        0.000        0.000        0.000        0.000        0.000        1.000        9.000        0.000        2.000        0.000        0.000        0.000      100.000        0.000        0.000        1.836        1.836        2.266
     160.000  -247391.828    25823.976    14950.417    39264.468      100.254  -372884.548    45353.605       26.209       25.837        2.478        2.489        2.684        2.728        2.660        2.562        2.571        2.502        2.684        2.622        2.708        2.505        3.039        3.075        2.616        2.632        0.503        0.000        0.000        0.000        0.000        0.000        3.000        0.000        0.000        0.000        0.000        0.000        0.000        0.000        2.000        0.000        2.000        0.000        0.000        0.000        0.000        0.000        0.000        0.000        0.000        0.000        1.000        0.000        0.000        1.000        9.000        0.000        0.000        0.000        0.000        0.000      100.000        0.000        0.000        1.796        1.810        2.153
     170.000  -246153.220    24620.967    15171.057    39225.768      113.016  -372463.659    47179.631       26.027       25.678        2.539        2.471        2.675        2.680        2.590        2.544        2.651        2.575        2.673        2.559        2.709        2.520        3.062        3.021        2.650        2.594        0.499        0.000        0.000        0.000        0.000        0.000        4.000        0.000        0.000        0.000        0.000        0.000        0.000        0.000        0.000        0.000        3.000        0.000        0.000        0.000        0.000        0.000        0.000        0.000        0.000        0.000        0.000        0.000        0.000        2.000        3.000        0.000        3.000        0.000        0.000        0.000      100.000        0.000        0.000        1.903        1.915        2.363
     180.000  -247072.368    25057.611    14973.384    39246.919      111.564  -371989.901    45528.055       26.046       25.911        2.573        2.541        2.707        2.662        2.622        2.519        2.621        2.570        2.705        2.613        2.710        2.515        3.044        2.983        2.634        2.578        0.482        0.000        0.000        0.000        0.000        0.000        4.000        0.000        0.000        0.000        0.000        0.000        0.000        0.000        0.000        0.000        0.000        0.000        0.000        0.000        0.000        0.000        0.000        0.000        0.000        0.000        0.000        0.000        0.000        2.000        8.000        0.000        0.000        0.000        0.000        0.000      100.000        0.000        0.000        2.009        2.025        2.556
     190.000  -246520.645    24873.623    14986.228    39489.949      107.693  -371876.491    45898.353       26.362       25.806        2.565        2.463        2.687        2.655        2.537        2.530        2.601        2.533        2.606        2.578        2.647        2.456        3.063        3.054        2.657        2.611        0.508        0.000        0.000        0.000        0.000        0.000        4.000        0.000        0.000        0.000        0.000        0.000        0.000        0.000        2.000        0.000        2.000        0.000        0.000        0.000        0.000        0.000        0.000        0.000        0.000        0.000        0.000        0.000        0.000        1.000        5.000        0.000        3.000        0.000        0.000        0.000      100.000        0.000        0.000        2.187        2.201        2.891
     200.000  -247104.743    25380.241    15293.854    39323.559      109.326  -372832.425    45620.703       26.336       26.051        2.515        2.501        2.677        2.655        2.518        2.607        2.596        2.566        2.723        2.588        2.658        2.540        3.105        3.009        2.644        2.620        0.490        0.000        0.000        0.000        0.000        0.000        5.000        0.000        0.000        0.000        0.000        0.000        0.000        0.000        0.000        0.000        4.000        0.000        0.000        0.000        0.000        0.000        0.000        0.000        0.000        0.000        0.000        0.000        0.000        1.000        3.000        0.000        0.000        0.000        0.000        0.000      100.000        0.000        0.000        2.159        2.181        2.942
     210.000  -247063.363    25316.977    15044.912    39251.493      109.417  -372493.587    45707.425       26.158       25.853        2.559        2.523        2.677        2.696        2.564        2.619        2.575        2.593        2.699        2.569        2.690        2.509        3.081        3.017        2.633        2.578        0.498        0.000        0.000        0.000        0.000        1.000        6.000        0.000        0.000        0.000        0.000        0.000        0.000        0.000        0.000        0.000        2.000        0.000        0.000        0.000        0.000        0.000        0.000        0.000        0.000        0.000        1.000        0.000        0.000        1.000        8.000        0.000        2.000        0.000        0.000        0.000      100.000        0.000        0.000        1.998        2.026        2.734
     220.000  -246323.080    25826.986    15091.212    39345.105      112.590  -369968.705    43269.733       26.276       25.688        2.534        2.471        2.738        2.677        2.462        2.595        2.658        2.579        2.668        2.568        2.653        2.451        3.081        3.021        2.658        2.668        0.491        0.000        0.000        0.000        0.000        1.000        4.000        0.000        0.000        0.000        0.000        0.000        0.000        0.000        1.000        0.000        1.000        0.000        0.000        0.000        0.000        0.000        0.000        0.000        0.000        0.000        0.000        0.000        0.000        0.000        5.000        0.000        3.000        0.000        0.000        0.000      100.000        0.000        0.000        2.355        2.397        3.110
     230.000  -246420.421    24979.303    14969.379    39496.982      112.380  -371896.332    45917.867       26.057       25.500        2.518        2.451        2.665        2.673        2.517        2.635        2.644        2.602        2.689        2.581        2.658        2.520        3.108        3.000        2.657        2.703        0.459        0.000        0.000        0.000        0.000        0.000        4.000        0.000        0.000        0.000        0.000        0.000        0.000        0.000        1.000        0.000        1.000        0.000        0.000        0.000        0.000        0.000        0.000        0.000        0.000        0.000        0.000        0.000        0.000        1.000        4.000        0.000        0.000        0.000        4.494        0.000       95.506        0.000        0.000        2.349        2.379        3.082
     240.000  -246643.452    24823.532    15045.243    39532.137      113.306  -372126.775    45969.105       26.097       25.723        2.494        2.494        2.702        2.648        2.555        2.585        2.613        2.462        2.687        2.636        2.685        2.500        3.085        3.000        2.653        2.601        0.471        0.000        0.000        0.000        0.000        0.000        3.000        0.000        0.000        0.000        0.000        0.000        0.000        0.000        0.000        0.000        2.000        0.000        0.000        0.000        0.000        0.000        0.000        0.000        0.000        0.000        0.000        0.000        0.000        0.000        4.000        0.000        1.000        0.000        0.000        0.000      100.000        0.000        0.000        1.971        1.991        2.849
     250.000  -246446.251    24890.172    14716.607    39457.701       87.261  -370903.405    45305.412       26.162       25.936        2.562        2.445        2.683        2.663        2.586        2.594        2.630        2.540        2.666        2.547        2.678        2.486        3.059        2.987        2.666        2.600        0.490        0.000        0.000        0.000        0.000        0.000        4.000        0.000        0.000        0.000        0.000        0.000        0.000        0.000        1.000        0.000        2.000        0.000        0.000        0.000        0.000        0.000        0.000        0.000        0.000        0.000        1.000        0.000        0.000        0.000        6.000        0.000        0.000        0.000        0.000        0.000      100.000        0.000        0.000        1.795        1.832        2.657
     260.000  -247369.424    24944.395    14721.520    39470.949      103.409  -372295.756    45686.059       26.027       25.976        2.559        2.535        2.681        2.654        2.592        2.549        2.636        2.528        2.700        2.574        2.685        2.532        3.106        3.013        2.613        2.614        0.491        0.000        0.000        0.000        0.000        0.000        3.000        0.000        0.000        0.000        0.000        0.000        0.000        0.000        0.000        0.000        1.000        0.000        0.000        0.000        0.000        0.000        0.000        0.000        0.000        0.000        0.000        0.000        0.000        0.000        6.000        0.000        1.000        0.000        0.000        0.000      100.000        0.000        0.000        2.213        2.277        2.913
     270.000  -246277.358    24627.691    15158.194    39676.832      106.380  -370642.505    44796.051       26.162       26.038        2.508        2.480        2.701        2.619        2.616        2.623        2.614        2.496        2.679        2.606        2.653        2.535        3.064        2.955        2.640        2.595        0.486        0.000        0.000        0.000        0.000        0.000        2.000        0.000        0.000        0.000        0.000        0.000        0.000        0.000        0.000        0.000        1.000        0.000        0.000        0.000        0.000        0.000        0.000        0.000        0.000        0.000        0.000        0.000        0.000        1.000        4.000        0.000        2.000        0.000        0.000        0.000      100.000        0.000        0.000        2.030        2.060        2.786
     280.000  -246151.625    24160.604    15239.635    39695.310       85.521  -372284.795    46952.101       26.186       25.870        2.582        2.516        2.674        2.646        2.634        2.564        2.634        2.535        2.710        2.614        2.684        2.497        3.060        2.998        2.624        2.589        0.477        0.000        0.000        0.000        0.000        0.000        2.000        0.000        0.000        0.000        0.000        0.000        0.000        0.000        0.000        0.000        1.000        0.000        0.000        0.000        0.000        0.000        0.000        0.000        0.000        0.000        0.000        0.000        0.000        0.000        8.000        0.000        1.000        0.000        0.000        0.000      100.000        0.000        0.000        2.053        2.052        2.912
     290.000  -246482.012    23779.129    15146.382    39567.097      115.045  -371312.828    46223.163       26.416       25.853        2.532        2.507        2.690        2.628        2.632        2.563        2.665        2.531        2.614        2.574        2.618        2.491        3.047        2.974        2.635        2.585        0.493        0.000        0.000        0.000        0.000        0.000        2.000        0.000        0.000        0.000        0.000        0.000        0.000        0.000        0.000        0.000        2.000        0.000        0.000        0.000        0.000        0.000        0.000        0.000        0.000        0.000        0.000        0.000        0.000        0.000        5.000        0.000        3.000        0.000        0.000        0.000      100.000        0.000        0.000        1.866        1.869        3.005
     300.000  -245865.614    25407.001    14615.566    39658.735       98.103  -371096.734    45451.715       26.268       25.683        2.555        2.476        2.694        2.640        2.593        2.529        2.682        2.535        2.628        2.601        2.649        2.548        3.062        2.968        2.672        2.555        0.483        0.000        0.000        0.000        0.000        0.000        2.000        0.000        0.000        0.000        0.000        0.000        0.000        0.000        1.000        0.000        1.000        0.000        0.000        0.000        0.000        0.000        0.000        0.000        0.000        0.000        0.000        0.000        0.000        0.000        7.000        0.000        3.000        0.000        0.000        0.000      100.000        0.000        0.000        1.932        1.922        3.269
     310.000  -246172.844    25132.751    15057.849    39395.280      112.420  -370871.889    45000.745       26.385       26.188        2.556        2.492        2.702        2.647        2.628        2.556        2.592        2.548        2.696        2.584        2.656        2.508        3.084        3.022        2.659        2.575        0.489        0.000        0.000        0.000        0.000        0.000        3.000        0.000        0.000        0.000        0.000        0.000        0.000        0.000        1.000        0.000        0.000        0.000        0.000        0.000        0.000        0.000        0.000        0.000        0.000        0.000        0.000        0.000        0.000        2.000        4.000        0.000        3.000        0.000        4.494        0.000       95.506        0.000        0.000        2.256        2.227        3.640
     320.000  -246144.041    24263.845    14613.880    39438.950      114.519  -371123.227    46547.991       26.466       25.689        2.581        2.530        2.734        2.662        2.638        2.568        2.633        2.573        2.615        2.625        2.616        2.496        3.098        2.991        2.652        2.609        0.460        0.000        0.000        0.000        0.000        0.000        2.000        0.000        0.000        0.000        0.000        0.000        0.000        0.000        1.000        0.000        0.000        0.000        0.000        0.000        0.000        0.000        0.000        0.000        0.000        0.000        0.000        0.000        0.000        0.000        4.000        0.000        1.000        0.000        0.000        0.000      100.000        0.000        0.000        2.086        2.092        3.598
     330.000  -245882.808    25465.228    14907.945    39492.706      119.360  -370070.501    44202.453       26.416       26.050        2.520        2.567        2.682        2.655        2.693        2.537        2.657        2.541        2.662        2.594        2.660        2.582        3.084        2.994        2.637        2.657        0.481        0.000        0.000        0.000        0.000        0.000        1.000        0.000        0.000        0.000        0.000        0.000        0.000        0.000        1.000        0.000        1.000        0.000        0.000        0.000        0.000        0.000        0.000        0.000        0.000        0.000        1.000        0.000        0.000        1.000        4.000        0.000        2.000        0.000        0.000        0.000      100.000        0.000        0.000        2.296        2.271        3.760
     340.000  -245859.350    25319.051    15076.233    39483.985      106.995  -370625.444    44779.830       26.531       26.173        2.532        2.513        2.643        2.685        2.585        2.527        2.629        2.561        2.606        2.607        2.663        2.554        3.115        3.017        2.658        2.584        0.469        0.000        0.000        0.000        0.000        0.000        3.000        0.000        0.000        0.000        0.000        0.000        0.000        0.000        1.000        0.000        0.000        0.000        0.000        0.000        0.000        0.000        0.000        0.000        0.000        0.000        0.000        0.000        0.000        0.000        6.000        0.000        1.000        0.000        0.000        0.000      100.000        0.000        0.000        2.279        2.276        3.772
     350.000  -246896.657    24006.800    14696.653    39635.228       76.198  -372048.345    46736.809       26.532       25.907        2.573        2.507        2.728        2.649        2.605        2.572        2.672        2.594        2.625        2.601        2.627        2.478        3.076        3.010        2.623        2.585        0.472        0.000        0.000        0.000        0.000        0.000        2.000        0.000        0.000        0.000        0.000        0.000        0.000        0.000        0.000        0.000        0.000        0.000        0.000        0.000        0.000        0.000        0.000        0.000        0.000        0.000        2.000        0.000        0.000        0.000        3.000        0.000        1.000        0.000        0.000        0.000      100.000        0.000        0.000        2.064        2.084        3.625
     360.000  -245870.859    24678.066    14268.492    39479.400       92.313  -369438.148    45049.019       26.367       25.981        2.541        2.502        2.620        2.637        9.254        2.542        2.688        2.584        2.627        2.558        2.611        2.534        3.035        2.955        2.693        2.601        0.486        0.000        0.000        0.000        0.000        0.000        3.000        0.000        0.000        0.000        0.000        0.000        0.000        0.000        0.000        0.000        0.000        0.000        0.000        0.000        0.000        0.000        0.000        0.000        0.000        0.000        0.000        0.000        0.000        0.000        2.000        0.000        1.000        0.000        0.000        0.000      100.000        0.000        0.000        2.117        2.086        3.826
     370.000  -245732.939    25494.031    14642.303    39348.711      104.423  -368046.292    42723.883       26.749       26.329        2.523        2.529        2.660        2.639       14.905        2.502        2.613        2.510        2.660        2.604        2.633        2.468        2.997        2.987        2.675        2.627        0.472        0.000        0.000        0.000        0.000        0.000        3.000        0.000        0.000        0.000        0.000        0.000        0.000        0.000        2.000        0.000        0.000        0.000        0.000        0.000        0.000        0.000        0.000        0.000        0.000        0.000        0.000        0.000        0.000        0.000        3.000        0.000        2.000        0.000        0.000        0.000      100.000        0.000        0.000        2.293        2.257        3.801
     380.000  -245900.790    25622.612    14670.026    39645.961       99.372  -370149.116    44210.354       26.329       25.957        2.538        2.523        2.678        2.621        2.677        2.559        2.621        2.504        2.620        2.623        2.622        2.512        3.132        2.976        2.711        2.603        0.499        0.000        0.000        0.000        0.000        0.000        3.000        0.000        0.000        0.000        0.000        0.000        0.000        0.000        0.000        0.000        0.000        0.000        0.000        0.000        0.000        0.000        0.000        0.000        0.000        0.000        0.000        0.000        0.000        1.000        4.000        0.000        1.000        0.000        0.000        0.000      100.000        0.000        0.000        2.162        2.133        3.688
     390.000  -245294.950    23668.284    14742.251    39803.863      108.965  -369550.054    45931.740       26.074       25.897        2.566        2.531        2.714        2.659        2.599        2.535        2.585        2.518        2.633        2.567        2.630        2.524        3.117        2.910        2.647        2.595        0.496        0.000        0.000        0.000        0.000        0.000        2.000        0.000        0.000        0.000        0.000        0.000        0.000        0.000        0.000        0.000        0.000        0.000        0.000        0.000        0.000        0.000        0.000        0.000        0.000        0.000        0.000        0.000        0.000        0.000        6.000        0.000        5.000        0.000        0.000        0.000      100.000        0.000        0.000        2.021        2.003        3.519
     400.000  -245741.754    24032.491    14559.701    39606.952       91.851  -370047.071    46014.322       26.456       25.707        2.561        2.528        2.679        2.630        2.559        2.584        2.637        2.536        2.619        2.568        2.617        2.507        3.052        2.993        2.690        2.600        0.490        0.000        0.000        0.000        0.000        0.000        3.000        0.000        0.000        0.000        0.000        0.000        0.000        0.000        2.000        0.000        0.000        0.000        0.000        0.000        0.000        0.000        0.000        0.000        0.000        0.000        0.000        0.000        0.000        1.000        6.000        0.000        4.000        0.000        0.000        0.000      100.000        0.000        0.000        2.047        2.063        3.514
     410.000  -245133.508    24549.361    14612.803    39606.274      106.634  -369011.073    45002.493       26.554       26.033        2.504        2.507        2.673        2.641        9.322        2.528        2.585        2.539        2.613        2.632        2.609        2.524        3.057        2.969        2.668        2.604        0.504        0.000        0.000        0.000        0.000        1.000        2.000        0.000        0.000        0.000        0.000        0.000        0.000        0.000        1.000        0.000        0.000        0.000        0.000        0.000        0.000        0.000        0.000        0.000        0.000        0.000        1.000        0.000        0.000        0.000        3.000        0.000        0.000        0.000        0.000        0.000      100.000        0.000        0.000        2.099        2.109        3.720
     420.000  -246216.068    25264.221    14348.217    39337.755       99.814  -369355.765    44089.690       26.360       25.905        2.529        2.492        2.716        2.608        2.535        2.496        2.615        2.567        2.576        2.597        2.651        2.518        2.985        3.005        2.697        2.626        0.490        0.000        0.000        0.000        0.000        0.000        3.000        0.000        0.000        0.000        0.000        0.000        0.000        0.000        1.000        0.000        0.000        0.000        0.000        0.000        0.000        0.000        0.000        0.000        0.000        0.000        0.000        0.000        0.000        3.000        3.000        0.000        1.000        0.000        0.000        0.000      100.000        0.000        0.000        2.072        2.084        3.736
     430.000  -245538.187    24127.169    14509.629    39490.216      117.530  -367926.546    44143.815       26.443       25.915        2.565        2.469        2.689        8.896        2.544        2.568        2.606        2.571        2.637        2.599        2.625        2.523        3.085        2.947        2.721        2.644        0.501        0.000        0.000        0.000        0.000        0.000        3.000        0.000        0.000        0.000        0.000        0.000        0.000        0.000        1.000        0.000        0.000        0.000        0.000        0.000        0.000        0.000        0.000        0.000        0.000        0.000        0.000        0.000        0.000        3.000        5.000        0.000        3.000        0.000        0.000        0.000      100.000        0.000        0.000        1.997        1.995        3.702
     440.000  -245428.437    23261.725    14782.134    39360.374       95.571  -367843.551    44915.311       26.468       25.924        2.569        2.507        2.684        2.649        2.573        2.591        2.627        2.551        2.652        2.608        2.657        2.506        3.022        2.993        2.663        2.617        0.484        0.000        0.000        0.000        0.000        0.000        3.000        0.000        0.000        0.000        0.000        0.000        0.000        0.000        3.000        0.000        0.000        0.000        0.000        0.000        0.000        0.000        0.000        0.000        0.000        0.000        0.000        0.000        0.000        1.000        1.000        0.000        0.000        0.000        0.000        0.000      100.000        0.000        0.000        2.292        2.278        3.748
     450.000  -246257.800    24524.831    15001.699    39635.312       96.932  -370022.109    44505.534       26.345       25.688        2.525        2.494        2.641        2.685        2.607        2.504        2.638        2.515        2.738        2.583        2.678        2.451        3.059        2.966        2.697        2.634        0.488        0.000        0.000        0.000        0.000        0.000        2.000        0.000        0.000        0.000        0.000        0.000        0.000        0.000        2.000        0.000        6.000        0.000        0.000        0.000        0.000        0.000        0.000        0.000        0.000        0.000        0.000        0.000        0.000        1.000        3.000        0.000        1.000        0.000        0.000        0.000      100.000        0.000        0.000        2.606        2.597        3.781
     460.000  -245579.771    24646.849    14989.862    39434.748      111.599  -368698.722    43935.892       26.532       26.027        2.496        2.534        2.678        2.682        2.637        2.561        2.681        2.511        2.719        2.632        2.607        2.520        3.083        2.979        2.660        2.583        0.474        0.000        0.000        0.000        0.000        1.000        2.000        0.000        0.000        0.000        0.000        0.000        0.000        0.000        2.000        0.000        2.000        0.000        0.000        0.000        0.000        0.000        0.000        0.000        0.000        0.000        0.000        0.000        0.000        1.000        2.000        0.000        1.000        0.000        0.000        0.000      100.000        0.000        0.000        2.509        2.502        3.804
     470.000  -245519.764    24834.309    15004.603    39418.713      116.633  -368580.331    43686.308       26.374       25.763        2.549        2.513        2.689        2.704        2.433        2.594        2.661        2.470        2.702        2.660        2.626        2.503        3.107        2.926        2.700        2.636        0.481        0.000        0.000        0.000        0.000        1.000        2.000        0.000        0.000        0.000        0.000        0.000        0.000        0.000        1.000        0.000        1.000        0.000        0.000        0.000        0.000        0.000        0.000        0.000        0.000        0.000        0.000        0.000        0.000        0.000        1.000        0.000        1.000        0.000        0.000        0.000      100.000        0.000        0.000        2.504        2.496        3.736
     480.000  -245208.730    25456.743    14856.727    39306.670      106.790  -369056.608    44120.948       26.477       25.747        2.580        2.501        2.730        2.707        2.547        2.564        2.646        2.505        2.714        2.647        2.616        2.480        3.131        2.921        2.654        2.579        0.502        0.000        0.000        0.000        0.000        1.000        2.000        0.000        0.000        0.000        0.000        0.000        0.000        0.000        1.000        0.000        0.000        0.000        0.000        0.000        0.000        0.000        0.000        0.000        0.000        0.000        2.000        0.000        0.000        0.000        2.000        0.000        1.000        0.000        0.000        0.000      100.000        0.000        0.000        2.729        2.743        4.056
     490.000  -244857.140    23317.053    14792.182    39280.664      103.514  -368419.742    46069.189       26.462       25.684        2.564        2.494        2.653        2.640        2.621        2.592        2.607        2.541        2.689        2.635        2.602        2.445        3.066        2.955        2.690        2.618        0.472        0.000        0.000        0.000        0.000        1.000        3.000        0.000        0.000        0.000        0.000        0.000        0.000        0.000        1.000        0.000        1.000        0.000        0.000        0.000        0.000        0.000        0.000        0.000        0.000        0.000        0.000        0.000        0.000        1.000        5.000        0.000        0.000        0.000        0.000        0.000      100.000        0.000        0.000        2.727        2.732        4.176
     500.000  -244978.368    23678.460    14429.690    39565.193      126.454  -367651.688    44873.523       26.420       25.769        2.530        2.529        2.614        2.660        2.640        2.532        2.644        2.589        2.649        2.665        2.599        2.476        3.141        2.931        2.664        2.618        0.504        0.000        0.000        0.000        0.000        1.000        3.000        0.000        0.000        0.000        0.000        0.000        0.000        0.000        1.000        0.000        0.000        0.000        0.000        0.000        0.000        0.000        0.000        0.000        0.000        0.000        0.000        0.000        0.000        1.000       10.000        0.000        2.000        0.000        0.000        0.000      100.000        0.000        0.000        2.471        2.472        4.037
     510.000  -245379.335    24719.035    14548.463    39491.881      116.465  -368014.592    43759.414       26.341       25.942        2.591        2.511        2.641        2.662        2.521        2.505        2.657        2.535        2.628        2.616        2.641        2.491        3.104        2.966        2.631        2.610        0.499        0.000        0.000        0.000        0.000        1.000        2.000        0.000        0.000        0.000        0.000        0.000        0.000        0.000        2.000        0.000        0.000        0.000        0.000        0.000        0.000        0.000        0.000        0.000        0.000        0.000        0.000        0.000        0.000        1.000        6.000        0.000        2.000        0.000        0.000        0.000      100.000        0.000        0.000        2.344        2.362        4.011
     520.000  -245324.452    24326.726    14691.857    39303.367      115.942  -369832.337    46069.993       26.426       25.720        2.585        2.533        2.695        2.633        2.531        2.507        2.639        2.539        2.670        2.606        2.615        2.468        3.060        2.915        2.692        2.560        0.477        0.000        0.000        0.000        0.000        0.000        3.000        0.000        0.000        0.000        0.000        0.000        0.000        0.000        1.000        0.000        0.000        0.000        0.000        0.000        0.000        0.000        0.000        0.000        0.000        0.000        0.000        0.000        0.000        1.000        4.000        0.000        1.000        0.000        0.000        0.000      100.000        0.000        0.000        2.772        2.790        4.448
     530.000  -244739.736    25058.315    14766.227    39452.828       93.339  -367066.797    42956.351       26.386       25.850        2.603        2.485        2.700        8.923        2.557        2.482        2.655        2.527        2.654        2.698        2.643        2.524        3.135        2.905        2.593        2.622        0.483        0.000        0.000        0.000        0.000        1.000        2.000        0.000        0.000        0.000        0.000        0.000        0.000        0.000        0.000        0.000        1.000        0.000        0.000        0.000        0.000        0.000        0.000        0.000        0.000        0.000        0.000        0.000        0.000        2.000        3.000        0.000        2.000        0.000        0.000        0.000      100.000        0.000        0.000        2.972        3.001        4.487
     540.000  -245849.286    24561.461    14539.645    39563.096      129.506  -369812.561    45169.567       26.210       25.856        2.561        2.529        2.623        2.637        2.594        2.503        2.589        2.551        2.630        2.655        2.708        2.463        2.952        2.932        2.657        2.609        0.485        0.000        0.000        0.000        0.000        1.000        3.000        0.000        0.000        0.000        0.000        0.000        0.000        0.000        1.000        0.000        0.000        0.000        0.000        0.000        0.000        0.000        0.000        0.000        0.000        0.000        1.000        0.000        0.000        0.000        3.000        0.000        0.000        0.000        0.000        0.000      100.000        0.000        0.000        2.990        3.008        4.433
     550.000  -245746.957    23891.654    14425.592    39591.454      114.704  -369430.840    45660.479       25.973       25.738        2.566        2.484        2.716       12.029        2.604        2.480        2.590        2.521        2.640        2.645        2.664        2.505        3.044        2.974        2.647        2.648        0.495        0.000        0.000        0.000        0.000        1.000        3.000        0.000        0.000        0.000        0.000        0.000        0.000        0.000        2.000        0.000        0.000        0.000        0.000        0.000        0.000        0.000        0.000        0.000        0.000        0.000        0.000        0.000        0.000        1.000        3.000        0.000        5.000        0.000        0.000        0.000      100.000        0.000        0.000        2.552        2.545        3.899
     560.000  -245677.160    24925.494    14328.991    39594.963       99.954  -368191.052    43564.490       26.360       25.833        2.537        2.458        2.671        2.639        2.514        2.475        2.602        2.520        2.640        2.627        2.613        2.508        3.093        2.901        2.699        2.603        0.474        0.000        0.000        0.000        0.000        1.000        2.000        0.000        0.000        0.000        0.000        0.000        0.000        0.000        1.000        0.000        0.000        0.000        0.000        0.000        0.000        0.000        0.000        0.000        0.000        0.000        1.000        0.000        0.000        3.000        3.000        0.000        7.000        0.000        0.000        0.000      100.000        0.000        0.000        2.329        2.317        3.871
     570.000  -245123.902    25098.148    14642.928    39505.841      116.523  -368286.288    43798.946       26.089       25.714        2.558        2.524        2.724        2.607        2.646        2.479        2.578        2.492        2.648        2.638        2.657        2.488        3.108        3.002        2.690        2.626        0.464        0.000        0.000        0.000        0.000        1.000        3.000        0.000        0.000        0.000        0.000        0.000        0.000        0.000        0.000        0.000        0.000        0.000        0.000        0.000        0.000        0.000        0.000        0.000        0.000        0.000        0.000        0.000        0.000        0.000        6.000        0.000        1.000        0.000        0.000        0.000      100.000        0.000        0.000        2.645        2.653        4.020
     580.000  -245060.463    23838.986    14501.466    39375.689      120.958  -367818.642    44921.082       26.584       26.172        2.563        2.531        2.723        2.602        2.557        2.567        2.582        2.547        2.662        2.645        2.698        2.519        3.059        2.917        2.656        2.625        0.506        0.000        0.000        0.000        0.000        1.000        3.000        0.000        0.000        0.000        0.000        0.000        0.000        0.000        1.000        0.000        0.000        0.000        0.000        0.000        0.000        0.000        0.000        0.000        0.000        0.000        0.000        0.000        0.000        1.000        3.000        0.000        1.000        0.000        0.000        0.000      100.000        0.000        0.000        2.519        2.509        3.855
     590.000  -245245.755    24898.902    14456.380    39550.201      108.370  -368097.264    43837.656       26.454       26.253        2.599        2.476        2.702        2.625        2.580        2.535        2.648        2.533        2.606        2.654        2.644        2.502        3.038        2.883        2.664        2.617        0.476        0.000        0.000        0.000        0.000        1.000        4.000        0.000        0.000        0.000        0.000        0.000        0.000        0.000        0.000        0.000        0.000        0.000        0.000        0.000        0.000        0.000        0.000        0.000        0.000        0.000        2.000        0.000        0.000        0.000        0.000        0.000        2.000        0.000        4.494        0.000       95.506        0.000        0.000        2.291        2.308        3.634
     600.000  -245276.039    24119.644    14653.001    39610.627      105.503  -368848.789    45083.975       26.346       26.032        2.534        2.537        2.697        2.622        2.622        2.486        2.611        2.476        2.650        2.636        2.650        2.547        3.033        2.965        2.684        2.661        0.487        0.000        0.000        0.000        0.000        1.000        3.000        0.000        0.000        0.000        0.000        0.000        0.000        0.000        1.000        0.000        0.000        0.000        0.000        0.000        0.000        0.000        0.000        0.000        0.000        0.000        3.000        0.000        0.000        1.000        2.000        0.000        3.000        0.000        0.000        0.000      100.000        0.000        0.000        2.238        2.261        3.512
     610.000  -246782.573    24484.413    14336.315    39783.815      100.008  -369982.495    44495.370       26.135       25.899        2.494        2.557        2.699        2.639        2.602        2.559        2.619        2.512        2.633        2.650        2.640        2.445        3.070        2.880        2.629        2.614        0.483        0.000        0.000        0.000        0.000        1.000        3.000        0.000        0.000        0.000        0.000        0.000        0.000        0.000        2.000        0.000        1.000        0.000        0.000        0.000        0.000        0.000        0.000        0.000        0.000        0.000        1.000        0.000        0.000        1.000        4.000        0.000        2.000        0.000        0.000        0.000      100.000        0.000        0.000        2.069        2.082        3.426
     620.000  -245572.036    24592.247    14804.580    39535.892      122.532  -368244.445    43617.157       26.091       25.999        2.513        2.537        2.698        2.665        2.576        2.532        2.659        2.512        2.698        2.702        2.680        2.494        3.126        3.003        2.670        2.600        0.497        0.000        0.000        0.000        0.000        1.000        2.000        0.000        0.000        0.000        0.000        0.000        0.000        0.000        1.000        0.000        1.000        0.000        0.000        0.000        0.000        0.000        0.000        0.000        0.000        0.000        2.000        0.000        0.000        0.000        5.000        0.000        1.000        0.000        0.000        0.000      100.000        0.000        0.000        2.685        2.706        4.026
     630.000  -245035.223    23799.730    14998.284    39400.466      102.409  -368233.291    44897.180       26.232       26.035        2.567        2.515        2.715        2.625        2.551        2.551        2.686        2.530        2.696        2.644        2.634        2.464        3.097        2.949        2.662        2.589        0.472        0.000        0.000        0.000        0.000        1.000        2.000        0.000        0.000        0.000        0.000        0.000        0.000        0.000        1.000        0.000        0.000        0.000        0.000        0.000        0.000        0.000        0.000        0.000        0.000        0.000        1.000        0.000        0.000        1.000        5.000        0.000        2.000        0.000        0.000        0.000      100.000        0.000        0.000        2.872        2.906        4.157
     640.000  -245091.528    24054.701    14643.592    39282.550      100.082  -368120.597    44948.143       26.355       26.000        2.542        2.521        2.746        2.621        2.630        2.531        2.663        2.588        2.666        2.624        2.610        2.453        3.074        2.930        2.627        2.597        0.479        0.000        0.000        0.000        0.000        1.000        2.000        0.000        0.000        0.000        0.000        0.000        0.000        0.000        0.000        0.000        1.000        0.000        0.000        0.000        0.000        0.000        0.000        0.000        0.000        0.000        1.000        0.000        0.000        0.000        1.000        0.000        1.000        0.000        0.000        0.000      100.000        0.000        0.000        2.478        2.509        3.987
     650.000  -245252.939    24325.461    14773.459    39508.227      113.089  -367696.172    43722.998       26.067       25.662        2.553        2.552        2.694        2.630        2.584        2.539        2.600        2.499        2.696        2.649        2.675        2.532        3.103        2.904        2.648        2.668        0.496        0.000        0.000        0.000        0.000        1.000        2.000        0.000        0.000        0.000        0.000        0.000        0.000        0.000        1.000        0.000        0.000        0.000        0.000        0.000        0.000        0.000        0.000        0.000        0.000        0.000        0.000        0.000        0.000        1.000        3.000        0.000        1.000        0.000        0.000        0.000      100.000        0.000        0.000        2.064        2.094        3.623
     660.000  -245248.447    23822.660    14912.109    39572.426      117.838  -368326.895    44653.415       26.322       25.776        2.565        2.500        2.676        2.653        2.573        2.535        2.638        2.495        2.670        2.630        2.654        2.523        3.109        3.033        2.635        2.596        0.477        0.000        0.000        0.000        0.000        1.000        2.000        0.000        0.000        0.000        0.000        0.000        0.000        0.000        0.000        0.000        0.000        0.000        0.000        0.000        0.000        0.000        0.000        0.000        0.000        0.000        1.000        0.000        0.000        0.000        4.000        0.000        0.000        0.000        0.000        0.000      100.000        0.000        0.000        2.132        2.166        3.693
     670.000  -245180.724    23764.042    15418.407    39660.066      100.749  -369308.941    45184.954       26.156       25.577        2.534        2.524        2.686        2.648        2.538        2.574        2.652        2.476        2.603        2.665        2.622        2.481        3.058        2.959        2.615        2.567        0.479        0.000        0.000        0.000        0.000        1.000        3.000        0.000        0.000        0.000        0.000        0.000        0.000        0.000        0.000        0.000        0.000        0.000        0.000        0.000        0.000        0.000        0.000        0.000        0.000        0.000        1.000        0.000        0.000        2.000        1.000        0.000        1.000        0.000        0.000        0.000      100.000        0.000        0.000        2.105        2.138        4.068
     680.000  -245291.129    23607.689    14676.585    39449.618      131.697  -369214.880    46058.163       25.949       25.672        2.536        2.496        2.719        2.590        2.631        2.588        2.602        2.541        2.634        2.658        2.687        2.560        3.177        2.990        2.620        2.556        0.505        0.000        0.000        0.000        0.000        1.000        2.000        0.000        0.000        0.000        0.000        0.000        0.000        0.000        0.000        0.000        0.000        0.000        0.000        0.000        0.000        0.000        0.000        0.000        0.000        0.000        0.000        0.000        0.000        1.000        4.000        0.000        0.000        0.000        0.000        0.000      100.000        0.000        0.000        2.161        2.204        4.049
     690.000  -245294.924    23129.030    14704.815    39704.152      116.526  -368407.091    45457.644       25.850       25.556        2.570        2.531        2.692        2.617        2.597        2.548        2.607        2.539        2.627        2.656        2.636        2.531        3.114        2.982        2.661        2.656        0.495        0.000        0.000        0.000        0.000        1.000        2.000        0.000        0.000        0.000        0.000        0.000        0.000        0.000        0.000        0.000        1.000        0.000        0.000        0.000        0.000        0.000        0.000        0.000        0.000        0.000        1.000        0.000        0.000        2.000        5.000        0.000        4.000        0.000        0.000        0.000      100.000        0.000        0.000        1.855        1.924        3.976
     700.000  -245636.692    23996.875    14317.703    39488.295       90.097  -368970.319    45440.657       26.045       25.693        2.580        2.499        2.734        2.616        2.555        2.459        2.573        2.526        2.687        2.615        2.689        2.551        3.051        2.939        2.631        2.621        0.491        0.000        0.000        0.000        0.000        1.000        2.000        0.000        0.000        0.000        0.000        0.000        0.000        0.000        0.000        0.000        1.000        0.000        0.000        0.000        0.000        0.000        0.000        0.000        0.000        0.000        2.000        0.000        0.000        1.000        3.000        0.000        1.000        0.000        0.000        0.000      100.000        0.000        0.000        2.068        2.117        4.065
     710.000  -245670.544    24440.021    14545.497    39604.222      112.961  -368639.347    44266.101       26.005       25.447        2.534        2.525        2.695        2.714        2.602        2.528        2.582        2.604        2.671        2.671        2.649        2.511        3.059        2.922        2.662        2.558        0.498        0.000        0.000        0.000        0.000        1.000        2.000        0.000        0.000        0.000        0.000        0.000        0.000        0.000        0.000        0.000        0.000        0.000        0.000        0.000        0.000        0.000        0.000        0.000        0.000        0.000        1.000        0.000        0.000        0.000        2.000        0.000        1.000        0.000        0.000        0.000      100.000        0.000        0.000        1.968        1.996        3.995
     720.000  -245715.067    24084.420    14674.885    39589.031      136.906  -369354.415    45154.106       26.229       25.801        2.568        2.506        2.670        2.642        2.522        2.531        2.575        2.537        2.713        2.651        2.634        2.489        3.091        3.017        2.612        2.602        0.482        0.000        0.000        0.000        0.000        1.000        3.000        0.000        0.000        0.000        0.000        0.000        0.000        0.000        0.000        0.000        0.000        0.000        0.000        0.000        0.000        0.000        0.000        0.000        0.000        0.000        2.000        0.000        0.000        0.000        3.000        0.000        0.000        0.000        4.494        0.000       95.506        0.000        0.000        2.314        2.346        4.156
     730.000  -245291.345    24888.159    14581.717    39539.298      124.914  -368760.454    44335.020       26.347       25.848        2.560        2.533        2.648        2.611        2.562        2.517        2.592        2.519        2.721        2.588        2.687        2.518        3.082        2.929        2.596        2.601        0.482        0.000        0.000        0.000        0.000        1.000        3.000        0.000        0.000        0.000        0.000        0.000        0.000        0.000        2.000        0.000        0.000        0.000        0.000        0.000        0.000        0.000        0.000        0.000        0.000        0.000        2.000        0.000        0.000        0.000        1.000        0.000        0.000        0.000        4.494        0.000       95.506        0.000        0.000        2.471        2.510        4.152
     740.000  -245283.981    24197.535    14469.996    39527.888      115.721  -366976.170    43381.049       26.198       25.560        2.524        2.543        2.719        2.659        2.497        2.525        2.623        2.536        2.636        2.614        2.631        2.460        3.106        2.948        2.633        2.597        0.515        0.000        0.000        0.000        0.000        1.000        3.000        0.000        0.000        0.000        0.000        0.000        0.000        0.000        0.000        0.000        0.000        0.000        0.000        0.000        0.000        0.000        0.000        0.000        0.000        0.000        1.000        0.000        0.000        1.000        2.000        0.000        3.000        0.000        4.494        0.000       95.506        0.000        0.000        2.281        2.293        4.039
     750.000  -245777.569    25162.656    14676.779    39505.441      122.174  -370101.945    44857.325       26.158       25.874        2.554        2.558        2.718        2.697       18.105        2.565        2.598        2.555        2.648        2.628        2.647        2.546        3.022        2.922        2.619        2.591        0.471        0.000        0.000        0.000        0.000        1.000        3.000        0.000        0.000        0.000        0.000        0.000        0.000        0.000        0.000        0.000        2.000        0.000        0.000        0.000        0.000        0.000        0.000        0.000        0.000        0.000        2.000        0.000        0.000        1.000        3.000        0.000        5.000        0.000        4.494        0.000       95.506        0.000        0.000        2.293        2.315        4.212
     760.000  -245446.553    24271.715    14907.934    39390.420      108.054  -367311.505    43186.829       26.375       26.060        2.543        2.517        2.727        2.672       14.192        2.576        2.634        2.561        2.617        2.648        2.649        2.512        3.035        2.924        2.662        2.596        0.496        0.000        0.000        0.000        0.000        2.000        3.000        0.000        0.000        0.000        0.000        0.000        0.000        0.000        0.000        0.000        0.000        0.000        0.000        0.000        0.000        0.000        0.000        0.000        0.000        0.000        1.000        0.000        0.000        0.000        1.000        0.000        0.000        0.000        4.494        0.000       95.506        0.000        0.000        2.176        2.170        4.136
     770.000  -245648.255    24257.464    14833.319    39322.970       85.507  -368747.536    44600.020       26.279       25.971        2.543        2.507        2.725        2.730       18.701        2.518        2.641        2.536        2.636        2.647        2.655        2.467        3.025        2.923        2.629        2.637        0.494        0.000        0.000        0.000        0.000        1.000        2.000        0.000        0.000        0.000        0.000        0.000        0.000        0.000        1.000        0.000        0.000        0.000        0.000        0.000        0.000        0.000        0.000        0.000        0.000        0.000        2.000        0.000        0.000        0.000        1.000        0.000        2.000        0.000        0.000        0.000      100.000        0.000        0.000        1.825        1.839        3.993
     780.000  -245676.937    23799.391    14428.102    39489.730      102.123  -368808.665    45312.382       25.894       25.741        2.534        2.563        2.712        2.698       14.335        2.554        2.610        2.534        2.632        2.668        2.626        2.479        3.079        2.916        2.682        2.617        0.496        0.000        0.000        0.000        0.000        1.000        2.000        0.000        0.000        0.000        0.000        0.000        0.000        0.000        0.000        0.000        2.000        0.000        0.000        0.000        0.000        0.000        0.000        0.000        0.000        0.000        2.000        0.000        0.000        0.000        3.000        0.000        0.000        0.000        4.494        0.000       95.506        0.000        0.000        1.620        1.624        3.895
     790.000  -245386.664    25094.176    14773.189    39414.076       92.912  -367424.493    42663.476       26.218       25.859        2.597        2.496        2.688        2.706       18.651        2.541        2.600        2.563        2.619        2.668        2.670        2.487        3.097        2.998        2.661        2.636        0.487        0.000        0.000        0.000        0.000        1.000        2.000        0.000        0.000        0.000        0.000        0.000        0.000        0.000        0.000        0.000        0.000        0.000        0.000        0.000        0.000        0.000        0.000        0.000        0.000        0.000        2.000        0.000        0.000        0.000        2.000        0.000        0.000        0.000        4.494        0.000       95.506        0.000        0.000        1.666        1.666        3.958
     800.000  -244852.532    25233.616    14744.764    39357.323       86.729  -368637.817    44362.853       26.126       25.690        2.534        2.460        2.723        2.700       18.897        2.529        2.634        2.560        2.621        2.639        2.654        2.495        3.096        2.945        2.637        2.579        0.489        0.000        0.000        0.000        0.000        1.000        2.000        0.000        0.000        0.000        0.000        0.000        0.000        0.000        1.000        0.000        0.000        0.000        0.000        0.000        0.000        0.000        0.000        0.000        0.000        0.000        2.000        0.000        0.000        0.000        5.000        0.000        2.000        0.000        0.000        0.000      100.000        0.000        0.000        1.556        1.577        3.802
     810.000  -245406.406    24956.137    14553.480    39446.508       93.016  -367679.490    43223.943       26.283       25.764        2.543        2.435        2.674        2.717       14.262        2.558        2.662        2.466        2.657        2.627        2.646        2.508        3.070        2.952        2.670        2.609        0.500        0.000        0.000        0.000        0.000        1.000        2.000        0.000        0.000        0.000        0.000        0.000        0.000        0.000        0.000        0.000        0.000        0.000        0.000        0.000        0.000        0.000        0.000        0.000        0.000        0.000        4.000        0.000        0.000        0.000        1.000        0.000        1.000        0.000        0.000        0.000      100.000        0.000        0.000        1.888        1.906        3.968
     820.000  -245606.923    25024.219    14886.518    39345.168       89.877  -368206.444    43253.738       26.179       25.773        2.545        2.533        2.679        2.689       15.659        2.490        2.629        2.555        2.627        2.631        2.664        2.489        3.104        2.953        2.624        2.562        0.508        0.000        0.000        0.000        0.000        2.000        2.000        0.000        0.000        0.000        0.000        0.000        0.000        0.000        0.000        0.000        0.000        0.000        0.000        0.000        0.000        0.000        0.000        0.000        0.000        0.000        1.000        0.000        0.000        0.000        0.000        0.000        4.000        0.000        4.494        0.000       95.506        0.000        0.000        1.917        1.942        4.124
     830.000  -245612.645    25378.669    14649.152    39534.929       91.929  -369056.920    43789.596       26.083       25.700        2.497        2.501        2.649        2.656       15.715        2.500        2.622        2.510        2.638        2.610        2.653        2.509        3.024        3.006        2.648        2.566        0.481        0.000        0.000        0.000        0.000        2.000        2.000        0.000        0.000        0.000        0.000        0.000        0.000        0.000        0.000        0.000        0.000        0.000        0.000        0.000        0.000        0.000        0.000        0.000        0.000        0.000        1.000        0.000        0.000        0.000        0.000        0.000        1.000        0.000        0.000        0.000      100.000        0.000        0.000        2.182        2.205        4.159
     840.000  -245697.819    24987.922    14344.155    39251.737       87.000  -368077.021    43708.388       25.837       25.625        2.523        2.468        2.676        7.905       19.227        2.557        2.640        2.556        2.647        2.721        2.603        2.501        3.026        3.018        2.644        2.643        0.505        0.000        0.000        0.000        0.000        2.000        2.000        0.000        0.000        0.000        0.000        0.000        0.000        0.000        1.000        0.000        0.000        0.000        0.000        0.000        0.000        0.000        0.000        0.000        0.000        0.000        0.000        0.000        0.000        0.000        4.000        0.000        1.000        0.000        0.000        0.000      100.000        0.000        0.000        2.067        2.080        4.134
     850.000  -245017.990    24336.339    14483.542    39492.903      107.525  -367346.700    43908.401       25.973       25.821        2.539        2.515        2.694       12.589       13.017        8.030        2.637        2.522        2.643        2.620        2.629        2.477        3.055        2.951        2.638        2.613        0.475        0.000        0.000        0.000        0.000        1.000        1.000        0.000        0.000        0.000        0.000        0.000        0.000        0.000        0.000        0.000        0.000        0.000        0.000        0.000        0.000        0.000        0.000        0.000        0.000        0.000        1.000        0.000        0.000        2.000        1.000        0.000        2.000        0.000        0.000        0.000      100.000        0.000        0.000        1.759        1.787        4.091
     860.000  -245500.809    25236.652    14482.612    39470.798      113.300  -368499.888    43695.717       25.814       25.624        2.601        2.525        2.670       17.730        2.540       16.807        2.629        2.473        2.609        2.652        2.614        2.550        3.136        2.968        2.659        2.616        0.487        0.000        0.000        0.000        0.000        1.000        2.000        0.000        0.000        0.000        0.000        0.000        0.000        0.000        0.000        0.000        2.000        0.000        0.000        0.000        0.000        0.000        0.000        0.000        0.000        0.000        2.000        0.000        0.000        1.000        0.000        0.000        1.000        0.000        0.000        0.000      100.000        0.000        0.000        1.831        1.871        4.054
     870.000  -245623.651    24961.779    14553.046    39461.566      111.424  -368424.693    43713.227       25.998       25.669        2.583        2.490        2.708       17.131        2.551       18.693        2.616        2.497        2.728        2.618        2.624        2.514        3.109        2.976        2.654        2.640        0.481        0.000        0.000        0.000        0.000        1.000        2.000        0.000        0.000        0.000        0.000        0.000        0.000        0.000        0.000        0.000        0.000        0.000        0.000        0.000        0.000        0.000        0.000        0.000        0.000        0.000        0.000        0.000        0.000        1.000        3.000        0.000        2.000        0.000        0.000        0.000      100.000        0.000        0.000        1.913        1.960        4.206
     880.000  -245503.894    25221.684    14512.507    39577.579      101.223  -368406.856    43489.969       26.215       25.689        2.549        2.548        2.685       15.202        8.138       12.939        2.672        2.500        2.687        2.627        2.671        2.536        3.059        2.896        2.675        2.651        0.509        0.000        0.000        0.000        0.000        2.000        2.000        0.000        0.000        0.000        0.000        0.000        0.000        0.000        0.000        0.000        1.000        0.000        0.000        0.000        0.000        0.000        0.000        0.000        0.000        0.000        2.000        0.000        0.000        1.000        2.000        0.000        0.000        0.000        0.000        0.000      100.000        0.000        0.000        2.108        2.153        4.180
     890.000  -244839.381    23751.487    14650.917    39651.341      102.628  -369276.765    46281.010       25.971       25.570        2.533        2.512        2.658       17.560        2.627       14.531        2.647        2.494        2.664        2.600        2.677        2.541        3.134        2.933        2.676        2.506        0.482        0.000        0.000        0.000        0.000        2.000        2.000        0.000        0.000        0.000        0.000        0.000        0.000        0.000        0.000        0.000        0.000        0.000        0.000        0.000        0.000        0.000        0.000        0.000        0.000        0.000        1.000        0.000        0.000        1.000        3.000        0.000        1.000        0.000        0.000        0.000      100.000        0.000        0.000        2.165        2.181        4.381
     900.000  -244821.799    24963.180    14681.457    39698.596      102.461  -367209.531    42942.037       26.094       25.927        2.527        2.492        2.658       14.020       10.971        2.525        2.621        2.506        2.668        2.622        2.658        2.529        3.014        2.901        2.660        2.518        0.484        0.000        0.000        0.000        0.000        1.000        3.000        0.000        0.000        0.000        0.000        0.000        0.000        0.000        0.000        0.000        0.000        0.000        0.000        0.000        0.000        0.000        0.000        0.000        0.000        0.000        1.000        0.000        0.000        0.000        6.000        0.000        3.000        0.000        0.000        0.000      100.000        0.000        0.000        2.263        2.302        4.223
     910.000  -245008.777    23990.410    14488.073    39515.548      110.222  -368148.912    45035.881       26.079       25.893        2.542        2.539        2.666       14.025       10.988        7.984        2.571        2.507        2.660        2.687        2.653        2.548        3.081        2.932        2.667        2.547        0.501        0.000        0.000        0.000        0.000        2.000        2.000        0.000        0.000        0.000        0.000        0.000        0.000        0.000        0.000        0.000        0.000        0.000        0.000        0.000        0.000        0.000        0.000        0.000        0.000        0.000        1.000        0.000        0.000        0.000        5.000        0.000        1.000        0.000        0.000        0.000      100.000        0.000        0.000        2.319        2.338        4.207
     920.000  -245195.700    24940.930    14715.015    39511.108      115.912  -367352.528    42873.863       25.877       25.791        2.540        2.524        2.634       17.667        2.624       18.238        2.632        2.547        2.693        2.603        2.695        2.476        3.019        2.989        2.636        2.561        0.507        0.000        0.000        0.000        0.000        2.000        2.000        0.000        0.000        0.000        0.000        0.000        0.000        0.000        1.000        0.000        0.000        0.000        0.000        0.000        0.000        0.000        0.000        0.000        0.000        0.000        3.000        0.000        0.000        0.000        5.000        0.000        1.000        0.000        0.000        0.000      100.000        0.000        0.000        1.864        1.866        4.051
     930.000  -245256.252    23458.677    14404.011    39622.015      131.600  -368890.855    46018.300       26.022       25.993        2.495        2.482        2.669       14.151        2.609       17.603        2.579        2.428        2.732        2.629        2.689        2.504        3.133        2.996        2.667        2.613        0.505        0.000        0.000        0.000        0.000        1.000        3.000        0.000        0.000        0.000        0.000        0.000        0.000        0.000        0.000        0.000        0.000        0.000        0.000        0.000        0.000        0.000        0.000        0.000        0.000        0.000        0.000        0.000        0.000        0.000        2.000        0.000        1.000        0.000        0.000        0.000      100.000        0.000        0.000        1.952        1.965        4.054
     940.000  -245184.040    24700.403    14521.599    39601.522      114.848  -367744.985    43622.573       25.856       25.861        2.534        2.513        2.716       14.040        2.613       17.612        2.631        2.524        2.719        2.646        2.641        2.519        3.110        2.980        2.703        2.636        0.488        0.000        0.000        0.000        0.000        2.000        3.000        0.000        0.000        0.000        0.000        0.000        0.000        0.000        0.000        0.000        0.000        0.000        0.000        0.000        0.000        0.000        0.000        0.000        0.000        0.000        1.000        0.000        0.000        0.000        3.000        0.000        4.000        0.000        0.000        0.000      100.000        0.000        0.000        2.077        2.085        4.138
     950.000  -245417.349    24279.920    14637.140    39573.082       91.376  -368672.894    44674.026       25.939       25.691        2.505        2.511        2.678       16.353        2.564       18.226        2.574        2.521        2.710        2.644        2.644        2.488        3.089        3.042        2.674        2.560        0.479        0.000        0.000        0.000        0.000        2.000        2.000        0.000        0.000        0.000        0.000        0.000        0.000        0.000        0.000        0.000        0.000        0.000        0.000        0.000        0.000        0.000        0.000        0.000        0.000        0.000        1.000        0.000        0.000        0.000        3.000        0.000        3.000        0.000        0.000        0.000      100.000        0.000        0.000        2.337        2.367        4.298
     960.000  -245304.748    23456.097    14869.420    39581.802      105.406  -368655.806    45338.334       26.391       25.954        2.548        2.534        2.707       17.676        2.502       18.210        2.609        2.540        2.703        2.644        2.669        2.539        3.057        3.034        2.682        2.576        0.471        0.000        0.000        0.000        0.000        1.000        2.000        0.000        0.000        0.000        0.000        0.000        0.000        0.000        1.000        0.000        0.000        0.000        0.000        0.000        0.000        0.000        0.000        0.000        0.000        0.000        2.000        0.000        0.000        0.000        4.000        0.000        0.000        0.000        0.000        0.000      100.000        0.000        0.000        2.293        2.331        4.259
     970.000  -245535.409    24877.713    14915.967    39518.569       97.485  -369383.418    44438.275       25.971       25.847        2.536        2.510        2.651       17.674        2.533       18.733        2.672        2.527        2.719        2.622        2.630        2.511        2.978        2.926        2.683        2.619        0.473        0.000        0.000        0.000        0.000        1.000        2.000        0.000        0.000        0.000        0.000        0.000        0.000        0.000        1.000        0.000        0.000        0.000        0.000        0.000        0.000        0.000        0.000        0.000        0.000        0.000        0.000        0.000        0.000        0.000        0.000        0.000        0.000        0.000        0.000        0.000      100.000        0.000        0.000        1.946        1.965        4.053
     980.000  -245938.176    23870.234    14345.539    39609.379       84.100  -368091.067    44243.639       26.154       25.754        2.571        2.496        2.673       17.606        2.538       16.844        2.652        2.555        2.716        2.601        2.609        2.511        3.037        3.002        2.724        2.594        0.500        0.000        0.000        0.000        0.000        2.000        2.000        0.000        0.000        0.000        0.000        0.000        0.000        0.000        0.000        0.000        0.000        0.000        0.000        0.000        0.000        0.000        0.000        0.000        0.000        0.000        1.000        0.000        0.000        0.000        3.000        0.000        1.000        0.000        0.000        0.000      100.000        0.000        0.000        2.284        2.306        4.192
     990.000  -245521.725    25150.930    14443.207    39336.092      105.110  -368374.725    43817.661       25.851       25.751        2.514        2.462        2.676       14.104        8.077       14.509        2.664        2.525        2.700        2.671        2.649        2.527        3.096        2.955        2.699        2.559        0.489        0.000        0.000        0.000        0.000        2.000        2.000        0.000        0.000        0.000        0.000        0.000        0.000        0.000        0.000        0.000        0.000        0.000        0.000        0.000        0.000        0.000        0.000        0.000        0.000        0.000        0.000        0.000        0.000        0.000        3.000        0.000        2.000        0.000        0.000        0.000      100.000        0.000        0.000        2.209        2.223        4.073
    1000.000  -245022.023    24635.793    14586.942    39435.906      124.133  -369038.202    45233.404       25.855       25.898        2.557        2.459        2.662       17.633        2.491       16.801        2.647        2.515        2.701        2.655        2.663        2.475        3.123        2.934        2.694        2.578        0.486        0.000        0.000        0.000        0.000        2.000        2.000        0.000        0.000        0.000        0.000        0.000        0.000        0.000        0.000        0.000        2.000        0.000        0.000        0.000        0.000        0.000        0.000        0.000        0.000        0.000        2.000        0.000        0.000        1.000        3.000        0.000        2.000        0.000        0.000        0.000      100.000        0.000        0.000        2.301        2.311        4.318
     Average  -247082.310    24772.726    14754.979    39475.090      104.987  -371364.692    45174.600       26.197       25.862        2.542        2.508        2.683        5.035        4.622        4.499        2.624        2.532        2.662        2.622        2.652        2.505        3.076        2.978        2.655        2.599        0.488        0.000        0.030        0.000        0.000        0.752        2.812        0.000        0.000        0.000        0.000        0.000        0.000        0.000        0.614        0.000        0.941        0.000        0.000        0.000        0.000        0.000        0.000        0.000        0.000        0.000        0.921        0.000        0.000        0.663        3.901        0.000        1.564        0.000        0.489        0.000       99.511        0.000        0.000        2.064        2.079        3.455

