____Time[ps] Energy[ kJ/mol ]_____Bond _______Angle ____Dihedral ___Planarity _____Coulomb _________VdW _Your result _Your result _Your result _Your result _Your result _Your result _Your result _Your result _Your result _Your result _Your result _Your result _Your result _Your result _Your result _Your result _Your result _Your result _Your result _Your result _Your result _Your result _Your result _Your result _Your result _Your result _Your result _Your result _Your result _Your result _Your result _Your result _Your result _Your result _Your result _Your result _Your result _Your result _Your result _Your result _Your result _Your result _Your result _Your result _Your result _Your result _Your result _Your result _Your result _Your result _Your result _Your result _Your result _Your result _Your result _Your result _Your result _RMSDs[A]:CA ____Backbone __HeavyAtoms
       0.000  -345640.629     7002.978     5052.708    37794.837       19.038  -463116.706    67606.517       25.254       25.133        2.517        2.992        2.637        2.662        2.709        3.057        2.621        2.595        3.192        2.639        3.076        2.638        3.068        3.046        2.576        2.542        0.488        0.000        0.000        0.000        0.000        2.000        0.000        0.000        0.000        0.000        0.000        0.000        0.000        0.000        0.000        0.000        1.000        0.000        0.000        0.000        0.000        0.000        0.000        0.000        0.000        1.000        0.000        1.000        1.000        0.000        0.000        0.000        4.000        0.000        0.000        0.000      100.000        0.000        0.000        0.475        0.501        0.577
      10.000  -260825.181    31187.561    15976.931    37523.815      120.112  -395650.316    50016.715       26.250       26.019        2.551        3.038        2.690        2.682        2.692        3.059        2.636        2.613        3.182        2.669        3.049        2.681        3.114        3.040        2.603        2.623        0.497        0.000        0.000        0.000        0.000        1.000        1.000        0.000        0.000        0.000        0.000        1.000        0.000        0.000        0.000        0.000        2.000        0.000        0.000        0.000        0.000        0.000        0.000        0.000        0.000        3.000        0.000        0.000        0.000        1.000        1.000        0.000        5.000        0.000        0.000        0.000      100.000        0.000        0.000        1.281        1.297        1.493
      20.000  -260720.066    29959.566    15494.142    37595.555      136.114  -393108.631    49203.188       26.106       26.046        2.469        2.986        2.603        2.624        2.673        3.062        2.577        2.582        3.211        2.690        3.008        2.627        3.090        3.112        2.662        2.579        0.474        0.000        0.000        1.000        0.000        2.000        0.000        0.000        0.000        0.000        0.000        0.000        0.000        0.000        0.000        1.000        0.000        0.000        0.000        0.000        0.000        0.000        0.000        0.000        0.000        4.000        0.000        0.000        1.000        2.000        0.000        1.000        2.000        0.000        0.000        0.000      100.000        0.000        0.000        1.253        1.267        1.480
      30.000  -260935.588    27789.603    15956.544    37814.770      106.574  -393540.748    50937.668       26.203       25.890        2.590        2.973        2.595        2.711        2.683        3.047        2.588        2.573        3.199        2.592        3.056        2.681        3.113        3.078        2.654        2.540        0.495        0.000        0.000        1.000        0.000        2.000        0.000        1.000        0.000        0.000        0.000        2.000        0.000        0.000        0.000        0.000        1.000        0.000        0.000        0.000        0.000        0.000        0.000        0.000        0.000        0.000        0.000        0.000        1.000        1.000        0.000        0.000        1.000        0.000        0.000        0.000      100.000        0.000        0.000        1.315        1.337        1.542
      40.000  -260214.058    27892.129    15738.703    37892.391      122.111  -393133.183    51273.791       26.008       25.587        2.570        3.039        2.621        2.700        2.671        3.028        2.621        2.520        3.170        2.676        3.017        2.638        3.081        3.044        2.684        2.587        0.481        1.000        0.000        1.000        0.000        1.000        0.000        1.000        0.000        0.000        0.000        2.000        0.000        0.000        0.000        1.000        0.000        0.000        0.000        0.000        0.000        0.000        0.000        0.000        0.000        0.000        0.000        1.000        0.000        0.000        1.000        0.000        5.000        0.000        0.000        0.000      100.000        0.000        0.000        1.246        1.262        1.576
      50.000  -259615.442    28013.253    16174.595    37609.669       73.906  -391632.787    50145.922       26.035       25.751        2.512        3.077        2.629        2.662        2.662        3.077        2.641        2.537        3.179        2.608        3.090        2.696        3.081        3.057        2.679        2.624        0.500        0.000        0.000        1.000        0.000        2.000        0.000        1.000        0.000        0.000        0.000        0.000        0.000        0.000        0.000        1.000        1.000        0.000        0.000        0.000        0.000        0.000        0.000        0.000        0.000        1.000        0.000        1.000        0.000        1.000        1.000        1.000        6.000        0.000        0.000        0.000      100.000        0.000        0.000        1.586        1.618        1.802
      60.000  -260277.484    27498.981    15931.257    37681.840      118.030  -391538.686    50031.093       26.191       25.695        2.680        3.032        2.557        2.670        2.675        3.061        2.652        2.536        3.125        2.663        3.031        2.684        3.092        3.033        2.639        2.563        0.495        1.000        0.000        1.000        0.000        2.000        0.000        1.000        0.000        0.000        0.000        0.000        0.000        0.000        0.000        0.000        1.000        0.000        0.000        0.000        0.000        0.000        0.000        0.000        0.000        1.000        0.000        2.000        0.000        1.000        1.000        2.000        1.000        0.000        0.000        0.000      100.000        0.000        0.000        1.675        1.725        1.923
      70.000  -259658.326    27462.520    15911.081    37765.703      112.216  -391358.129    50448.283       26.126       25.612        2.649        3.079        2.636        2.692        2.671        2.996        2.607        2.513        3.124        2.644        3.039        2.707        3.147        3.038        2.642        2.524        0.493        1.000        0.000        1.000        0.000        2.000        0.000        1.000        0.000        0.000        0.000        0.000        0.000        0.000        0.000        2.000        0.000        0.000        0.000        0.000        0.000        0.000        0.000        0.000        0.000        0.000        0.000        0.000        0.000        0.000        1.000        1.000        3.000        0.000        0.000        0.000      100.000        0.000        0.000        1.833        1.876        2.054
      80.000  -259614.497    26900.631    15827.464    37759.656      108.405  -390801.220    50590.567       25.797       25.882        2.586        3.043        2.651        2.681        2.666        3.020        2.652        2.532        3.186        2.598        3.048        2.628        3.081        3.030        2.654        2.512        0.491        1.000        0.000        1.000        0.000        2.000        0.000        1.000        0.000        0.000        0.000        0.000        0.000        0.000        0.000        0.000        1.000        0.000        0.000        0.000        0.000        0.000        0.000        0.000        0.000        1.000        0.000        0.000        1.000        0.000        1.000        0.000        5.000        0.000        0.000        0.000      100.000        0.000        0.000        1.665        1.706        1.925
      90.000  -259701.550    28335.456    15803.245    37739.770      112.336  -389933.270    48240.913       26.046       25.925        2.517        3.034        2.613        2.692        2.672        3.073        2.632        2.603        3.130        2.609        3.052        2.662        3.094        3.068        2.597        2.552        0.500        1.000        0.000        1.000        0.000        2.000        0.000        1.000        0.000        0.000        0.000        0.000        0.000        0.000        0.000        1.000        0.000        0.000        0.000        0.000        0.000        0.000        0.000        0.000        0.000        1.000        0.000        2.000        0.000        0.000        1.000        2.000        4.000        0.000        0.000        0.000      100.000        0.000        0.000        1.821        1.828        2.112
     100.000  -258615.403    26561.517    15828.101    37570.380      110.683  -386917.873    48231.789       26.048       26.035        2.570        3.126        2.620        2.691        2.680        2.977        2.616        2.568        3.141        2.611        3.086        2.633        3.068        3.012        2.616        2.558        0.479        1.000        0.000        1.000        0.000        2.000        0.000        1.000        0.000        0.000        0.000        0.000        0.000        0.000        0.000        1.000        0.000        0.000        0.000        0.000        0.000        0.000        0.000        0.000        0.000        1.000        0.000        1.000        2.000        2.000        0.000        0.000        2.000        0.000        0.000        0.000      100.000        0.000        0.000        1.807        1.810        2.132
     110.000  -258266.421    27332.439    16015.038    37866.245       98.074  -386578.960    47000.743       25.894       25.963        2.611        3.083        2.611        2.636        2.683        3.013        2.618        2.571        3.198        2.648        3.068        2.646        2.982        3.052        2.654        2.569        0.497        1.000        0.000        1.000        0.000        2.000        0.000        1.000        0.000        0.000        0.000        0.000        0.000        0.000        0.000        1.000        0.000        0.000        0.000        0.000        0.000        0.000        0.000        0.000        0.000        0.000        0.000        1.000        0.000        2.000        1.000        1.000        2.000        0.000        0.000        0.000      100.000        0.000        0.000        1.911        1.974        2.131
     120.000  -258628.348    27004.643    16435.917    37615.414      105.023  -387367.998    47578.653       25.865       25.941        2.553        3.108        2.637        2.708        2.655        2.995        2.613        2.534        3.173        2.663        3.017        2.625        3.044        3.061        2.652        2.530        0.496        1.000        0.000        1.000        0.000        2.000        0.000        1.000        0.000        0.000        0.000        0.000        0.000        0.000        0.000        2.000        0.000        0.000        0.000        0.000        0.000        0.000        0.000        0.000        0.000        0.000        0.000        2.000        0.000        1.000        1.000        0.000        4.000        0.000        4.494        0.000       95.506        0.000        0.000        1.774        1.843        2.086
     130.000  -257761.529    26567.103    15823.158    37661.256       93.808  -386274.392    48367.538       25.843       25.691        2.591        3.027        2.599        2.662        2.696        3.044        2.630        2.538        3.205        2.602        2.987        2.645        3.035        3.049        2.611        2.587        0.493        1.000        0.000        0.000        0.000        2.000        0.000        1.000        0.000        0.000        0.000        0.000        0.000        0.000        0.000        2.000        1.000        0.000        0.000        0.000        1.000        0.000        0.000        0.000        0.000        1.000        0.000        1.000        0.000        1.000        1.000        0.000        4.000        0.000        0.000        0.000      100.000        0.000        0.000        1.601        1.678        2.079
     140.000  -258322.745    26529.680    15579.650    37670.773      101.269  -386440.724    48236.607       26.396       25.923        2.601        3.100        2.580        2.703        2.689        3.020        2.634        2.505        3.125        2.657        3.008        2.635        3.103        3.051        2.642        2.582        0.497        1.000        0.000        1.000        1.000        2.000        0.000        0.000        0.000        0.000        0.000        0.000        0.000        0.000        0.000        0.000        4.000        0.000        0.000        0.000        1.000        0.000        0.000        0.000        0.000        1.000        0.000        0.000        0.000        1.000        0.000        0.000        2.000        0.000        0.000        0.000      100.000        0.000        0.000        1.955        2.043        2.294
     150.000  -257181.273    25954.367    15750.191    37919.454      110.968  -385260.053    48343.800       25.959       25.596        2.636        3.021        2.602        2.705        2.682        2.990        2.597        2.531        3.150        2.627        3.010        2.634        3.089        3.025        2.652        2.597        0.491        1.000        0.000        1.000        1.000        2.000        0.000        1.000        0.000        0.000        0.000        0.000        0.000        0.000        0.000        1.000        2.000        0.000        0.000        0.000        1.000        0.000        0.000        0.000        0.000        1.000        0.000        1.000        2.000        0.000        0.000        2.000        1.000        0.000        0.000        0.000      100.000        0.000        0.000        2.005        2.102        2.428
     160.000  -257331.487    26838.758    15747.170    37864.239      106.218  -385133.199    47245.328       25.859       25.809        2.634        3.066        2.572        2.683        2.662        3.049        2.610        2.539        3.201        2.603        3.048        2.673        3.086        3.099        2.639        2.571        0.487        1.000        0.000        1.000        1.000        2.000        0.000        1.000        0.000        0.000        0.000        0.000        0.000        0.000        0.000        0.000        1.000        0.000        0.000        0.000        1.000        0.000        0.000        0.000        0.000        1.000        0.000        1.000        1.000        0.000        0.000        1.000        1.000        0.000        0.000        0.000      100.000        0.000        0.000        2.151        2.207        2.494
     170.000  -257909.705    26198.749    15647.568    37977.291       96.892  -386775.035    48944.830       25.591       25.487        2.644        3.017        2.616        2.664        2.666        2.988        2.610        2.555        3.154        2.616        2.997        2.638        3.049        3.047        2.671        2.580        0.479        1.000        0.000        1.000        1.000        2.000        0.000        1.000        0.000        0.000        0.000        0.000        0.000        0.000        0.000        0.000        1.000        0.000        0.000        0.000        1.000        0.000        0.000        0.000        0.000        1.000        0.000        1.000        1.000        0.000        0.000        0.000        3.000        0.000        4.494        0.000       95.506        0.000        0.000        2.483        2.565        2.838
     180.000  -257261.283    26189.655    15329.076    37795.674      123.848  -384141.885    47442.349       25.766       25.578        2.613        3.040        2.642        2.698        2.675        3.041        2.607        2.553        3.138        2.620        3.064        2.649        3.068        3.018        2.626        2.565        0.478        1.000        0.000        1.000        1.000        3.000        0.000        1.000        0.000        0.000        0.000        0.000        0.000        0.000        0.000        1.000        1.000        0.000        0.000        0.000        1.000        0.000        0.000        0.000        0.000        0.000        0.000        3.000        0.000        1.000        0.000        0.000        7.000        0.000        0.000        0.000      100.000        0.000        0.000        2.357        2.424        2.707
     190.000  -258126.102    27309.364    15521.484    37442.499      115.910  -385087.033    46571.674       26.021       26.003        2.635        2.970        2.578        2.677        2.700        3.010        2.572        2.536        3.157        2.598        3.036        2.663        3.141        3.037        2.564        2.601        0.463        1.000        0.000        1.000        1.000        2.000        0.000        1.000        0.000        0.000        0.000        0.000        0.000        0.000        0.000        2.000        3.000        0.000        0.000        0.000        0.000        0.000        0.000        0.000        0.000        1.000        0.000        2.000        1.000        1.000        0.000        0.000        1.000        0.000        0.000        0.000      100.000        0.000        0.000        2.460        2.541        2.681
     200.000  -256540.250    25425.949    15863.915    37787.339      105.460  -384142.021    48419.109       25.874       25.870        2.662        3.072        2.608        2.679        2.685        2.988        2.595        2.567        3.185        2.613        2.992        2.665        3.012        3.101        2.606        2.570        0.501        1.000        0.000        1.000        1.000        3.000        0.000        1.000        0.000        0.000        0.000        0.000        0.000        0.000        0.000        0.000        3.000        0.000        0.000        0.000        0.000        0.000        0.000        0.000        0.000        1.000        0.000        2.000        1.000        1.000        0.000        2.000        2.000        0.000        0.000        0.000      100.000        0.000        0.000        2.705        2.777        2.954
     210.000  -257155.056    27386.497    15519.222    37682.728      117.038  -384170.802    46310.261       25.958       25.662        2.602        3.172        2.588        2.660        2.686        3.034        2.614        2.503        3.204        2.629        3.071        2.713        3.076        3.014        2.595        2.579        0.486        1.000        0.000        1.000        0.000        3.000        0.000        1.000        0.000        0.000        0.000        0.000        0.000        0.000        0.000        2.000        1.000        0.000        0.000        0.000        0.000        0.000        0.000        0.000        0.000        1.000        0.000        1.000        2.000        1.000        0.000        1.000        4.000        0.000        0.000        0.000      100.000        0.000        0.000        2.805        2.890        3.027
     220.000  -256658.669    26426.624    15426.171    37672.599      130.653  -383293.463    46978.745       25.869       25.384        2.555        3.110        2.583        2.684        2.695        2.989        2.590        2.610        3.240        2.652        3.036        2.666        2.994        3.022        2.597        2.626        0.480        1.000        0.000        1.000        0.000        2.000        0.000        1.000        0.000        0.000        0.000        0.000        0.000        0.000        0.000        0.000        1.000        0.000        0.000        0.000        0.000        0.000        0.000        0.000        0.000        3.000        0.000        1.000        0.000        0.000        0.000        0.000        2.000        0.000        4.494        0.000       95.506        0.000        0.000        2.655        2.720        3.021
     230.000  -256839.594    26682.378    15629.097    37679.488      117.879  -383268.571    46320.135       25.993       25.487        2.573        3.037        2.624        2.683        2.672        3.051        2.644        2.567        3.169        2.628        3.067        2.694        3.117        3.064        2.583        2.564        0.497        0.000        0.000        1.000        0.000        3.000        0.000        1.000        0.000        0.000        0.000        0.000        0.000        0.000        0.000        2.000        2.000        0.000        0.000        0.000        0.000        0.000        0.000        0.000        0.000        1.000        0.000        0.000        0.000        1.000        0.000        1.000        3.000        0.000        0.000        0.000      100.000        0.000        0.000        2.405        2.452        2.687
     240.000  -256624.893    26458.733    15513.575    37724.202      112.959  -382080.662    45646.299       25.790       25.478        2.685        3.057        2.576        2.678        2.678        3.033        2.580        2.556        3.175        2.596        3.029        2.663        2.980        3.090        2.598        2.547        0.485        1.000        0.000        1.000        1.000        3.000        0.000        1.000        0.000        0.000        0.000        0.000        0.000        0.000        0.000        1.000        1.000        0.000        0.000        0.000        1.000        0.000        0.000        0.000        0.000        0.000        0.000        5.000        0.000        0.000        0.000        2.000        2.000        0.000        0.000        0.000      100.000        0.000        0.000        2.774        2.842        3.090
     250.000  -256492.013    25295.688    15813.484    37812.579      114.934  -384117.670    48588.972       25.337       25.294        2.663        3.086        2.572        2.660        2.614        2.971        2.616        2.528        3.236        2.582        3.040        2.645        3.104        3.054        2.533        2.654        0.451        1.000        0.000        1.000        0.000        3.000        0.000        0.000        0.000        0.000        0.000        0.000        0.000        0.000        0.000        2.000        4.000        0.000        0.000        0.000        1.000        0.000        0.000        0.000        0.000        1.000        0.000        1.000        1.000        0.000        1.000        1.000        2.000        0.000        0.000        0.000      100.000        0.000        0.000        3.099        3.188        3.239
     260.000  -256206.137    25861.507    15706.707    37553.006       95.534  -382509.183    47086.291       25.660       25.386        2.652        3.134        2.600        2.641        2.616        2.931        2.630        2.506        3.196        2.630        3.079        2.687        3.130        3.047        2.588        2.597        0.517        0.000        0.000        1.000        1.000        3.000        0.000        1.000        0.000        0.000        0.000        1.000        0.000        0.000        0.000        2.000        1.000        0.000        0.000        0.000        1.000        0.000        0.000        0.000        0.000        2.000        0.000        2.000        0.000        2.000        0.000        0.000        3.000        0.000        0.000        0.000      100.000        0.000        0.000        2.815        2.928        3.096
     270.000  -256156.768    25152.599    15185.591    37642.919      133.427  -382512.996    48241.693       25.514       25.368        2.653        3.055        2.613        2.721        2.651        3.023        2.596        2.569        3.174        2.588        3.005        2.670        3.064        3.034        2.578        2.480        0.500        1.000        0.000        1.000        0.000        2.000        0.000        1.000        0.000        0.000        0.000        0.000        0.000        0.000        0.000        1.000        0.000        0.000        0.000        0.000        1.000        0.000        0.000        0.000        0.000        1.000        0.000        1.000        1.000        0.000        0.000        2.000        4.000        0.000        0.000        0.000      100.000        0.000        0.000        3.142        3.252        3.288
     280.000  -256168.004    26141.451    15534.145    37620.656       86.666  -382113.046    46562.124       25.746       25.973        2.601        3.105        2.603        2.683        2.603        2.992        2.591        2.528        3.226        2.624        3.041        2.650        3.140        3.068        2.619        2.632        0.480        1.000        0.000        1.000        0.000        2.000        0.000        1.000        0.000        0.000        0.000        0.000        0.000        0.000        0.000        3.000        1.000        0.000        0.000        0.000        1.000        0.000        0.000        0.000        0.000        0.000        0.000        0.000        1.000        0.000        0.000        1.000        1.000        0.000        0.000        0.000      100.000        0.000        0.000        3.340        3.444        3.432
     290.000  -255695.593    25142.684    15537.738    37635.455      106.385  -382061.652    47943.799       25.765       25.894        2.618        3.029        2.577        2.700        2.674        2.953        2.625        2.571        3.177        2.652        3.005        2.605        3.157        3.100        2.592        2.612        0.482        1.000        0.000        1.000        0.000        2.000        0.000        1.000        0.000        0.000        0.000        0.000        0.000        0.000        0.000        1.000        1.000        0.000        0.000        0.000        0.000        0.000        0.000        0.000        0.000        1.000        0.000        0.000        1.000        1.000        0.000        0.000        0.000        0.000        0.000        0.000      100.000        0.000        0.000        3.386        3.497        3.499
     300.000  -256231.612    25912.780    15451.537    37566.041      118.828  -381619.276    46338.479       25.473       25.491        2.727        3.008        2.591        2.648        2.700        2.979        2.603        2.573        3.207        2.578        2.970        2.649        3.065        3.055        2.576        2.577        0.495        0.000        0.000        1.000        0.000        3.000        0.000        1.000        0.000        0.000        0.000        0.000        0.000        0.000        0.000        1.000        0.000        0.000        0.000        0.000        0.000        0.000        0.000        0.000        0.000        2.000        0.000        0.000        1.000        0.000        0.000        0.000        3.000        0.000        0.000        0.000      100.000        0.000        0.000        3.648        3.762        3.699
     310.000  -255700.422    26004.227    15648.778    37775.132      112.624  -383366.500    48125.316       25.520       25.372        2.662        3.021        2.639        2.683        2.679        3.046        2.612        2.542        3.161        2.630        3.007        2.662        3.118        3.085        2.614        2.596        0.514        0.000        0.000        1.000        1.000        3.000        0.000        1.000        0.000        0.000        0.000        0.000        0.000        0.000        0.000        2.000        1.000        0.000        0.000        0.000        1.000        0.000        0.000        0.000        0.000        1.000        0.000        0.000        1.000        1.000        0.000        1.000        4.000        0.000        0.000        0.000      100.000        0.000        0.000        3.926        4.014        3.895
     320.000  -256143.816    25688.768    15313.113    37772.677      113.272  -381943.332    46911.685       25.566       25.580        2.630        3.028        2.634        2.661        2.708        2.997        2.608        2.541        3.198        2.634        2.972        2.679        3.096        2.995        2.598        2.577        0.508        1.000        0.000        1.000        0.000        3.000        0.000        1.000        0.000        0.000        0.000        0.000        0.000        0.000        0.000        2.000        1.000        0.000        0.000        0.000        1.000        0.000        0.000        0.000        0.000        1.000        0.000        0.000        2.000        0.000        0.000        0.000        1.000        0.000        0.000        0.000      100.000        0.000        0.000        3.957        4.065        3.953
     330.000  -256106.040    25664.074    15436.680    37820.599      101.546  -381467.504    46338.564       25.582       25.317        2.681        3.012        2.617        2.662        2.722        2.988        2.571        2.514        3.123        2.605        3.010        2.723        3.106        3.069        2.617        2.600        0.491        1.000        0.000        1.000        0.000        3.000        0.000        1.000        0.000        0.000        0.000        1.000        0.000        0.000        0.000        1.000        2.000        0.000        0.000        0.000        0.000        0.000        0.000        0.000        0.000        2.000        0.000        0.000        1.000        3.000        0.000        1.000        3.000        0.000        0.000        0.000      100.000        0.000        0.000        3.424        3.537        3.631
     340.000  -255078.895    25052.266    15128.771    38057.635      124.579  -381191.786    47749.640       25.448       25.506        2.638        3.103        2.569        2.691        2.637        3.014        2.598        2.502        3.195        2.649        3.085        2.659        3.069        3.056        2.579        2.544        0.484        1.000        0.000        1.000        0.000        2.000        0.000        1.000        1.000        0.000        0.000        0.000        0.000        0.000        0.000        1.000        1.000        0.000        0.000        0.000        0.000        0.000        0.000        0.000        0.000        2.000        0.000        1.000        1.000        3.000        0.000        2.000        2.000        0.000        0.000        0.000      100.000        0.000        0.000        3.557        3.666        3.616
     350.000  -255752.753    25091.193    15361.072    37749.674      100.116  -383217.957    49163.149       25.359       25.342        2.641        3.047        2.606        2.650        2.643        3.038        2.606        2.482        3.184        2.638        3.055        2.699        3.133        3.069        2.570        2.569        0.463        1.000        0.000        1.000        1.000        2.000        0.000        1.000        0.000        0.000        0.000        0.000        0.000        0.000        0.000        1.000        2.000        0.000        0.000        0.000        1.000        0.000        0.000        0.000        0.000        0.000        0.000        2.000        1.000        2.000        1.000        2.000        4.000        0.000        0.000        0.000      100.000        0.000        0.000        3.968        4.080        3.998
     360.000  -255240.900    25565.910    15615.539    37873.684       98.908  -382301.176    47906.236       25.418       25.688        2.665        3.137        2.649        2.636        2.662        2.929        2.628        2.567        3.203        2.607        3.029        2.646        3.118        3.051        2.581        2.545        0.495        1.000        0.000        1.000        1.000        2.000        0.000        1.000        0.000        0.000        0.000        0.000        0.000        0.000        0.000        1.000        1.000        0.000        0.000        0.000        1.000        0.000        0.000        0.000        0.000        2.000        0.000        1.000        3.000        1.000        1.000        0.000        1.000        0.000        0.000        0.000      100.000        0.000        0.000        3.377        3.483        3.544
     370.000  -256065.974    25506.730    15054.325    37777.209       99.376  -380915.351    46411.737       25.584       25.558        2.625        2.978        2.615        2.640        2.629        3.003        2.637        2.572        3.102        2.622        3.062        2.609        3.131        3.072        2.579        2.545        0.493        0.000        0.000        1.000        1.000        2.000        0.000        1.000        0.000        0.000        0.000        0.000        0.000        0.000        0.000        0.000        1.000        0.000        0.000        0.000        1.000        0.000        0.000        0.000        0.000        0.000        0.000        0.000        1.000        2.000        2.000        0.000        1.000        0.000        0.000        0.000      100.000        0.000        0.000        3.143        3.214        3.273
     380.000  -255193.398    25023.049    15071.123    37815.036      108.952  -379709.576    46498.018       25.569       25.653        2.678        3.045        2.598        2.691        2.665        2.983        2.594        2.592        3.133        2.613        3.001        2.658        3.082        3.010        2.567        2.625        0.477        0.000        0.000        1.000        0.000        2.000        0.000        1.000        0.000        0.000        0.000        1.000        0.000        0.000        0.000        1.000        3.000        0.000        0.000        0.000        0.000        0.000        0.000        0.000        0.000        1.000        0.000        2.000        0.000        1.000        3.000        0.000        2.000        0.000        0.000        0.000      100.000        0.000        0.000        2.868        2.952        2.994
     390.000  -255396.333    25148.223    15312.277    37846.831      144.274  -379835.849    45987.909       25.733       25.861        2.712        3.037        2.593        2.683        2.686        2.960        2.572        2.524        3.186        2.598        3.066        2.646        3.129        3.042        2.583        2.632        0.504        1.000        0.000        1.000        1.000        2.000        0.000        1.000        0.000        0.000        0.000        0.000        0.000        0.000        0.000        1.000        0.000        0.000        0.000        0.000        1.000        0.000        0.000        0.000        0.000        1.000        0.000        1.000        2.000        0.000        1.000        1.000        4.000        0.000        4.494        0.000       95.506        0.000        0.000        2.792        2.880        2.972
     400.000  -255520.338    25330.762    15447.830    37695.726      111.912  -380587.047    46480.479       25.814       25.799        2.675        2.958        2.622        2.663        2.676        2.998        2.631        2.518        3.201        2.628        3.006        2.644        3.112        3.029        2.610        2.505        0.475        1.000        0.000        1.000        1.000        2.000        0.000        1.000        0.000        0.000        0.000        0.000        0.000        0.000        0.000        0.000        1.000        0.000        0.000        0.000        1.000        0.000        0.000        0.000        0.000        1.000        0.000        0.000        0.000        2.000        0.000        0.000        2.000        0.000        4.494        0.000       95.506        0.000        0.000        2.752        2.822        2.851
     410.000  -255049.788    25821.907    15700.968    37598.566      106.308  -380376.557    46099.019       25.652       25.820        2.672        3.002        2.575        2.676        2.667        3.009        2.635        2.537        3.177        2.620        3.034        2.506        3.102        3.089        2.592        2.564        0.491        1.000        0.000        1.000        1.000        2.000        0.000        1.000        0.000        0.000        0.000        0.000        0.000        0.000        0.000        0.000        1.000        0.000        0.000        0.000        1.000        0.000        0.000        0.000        0.000        2.000        0.000        0.000        1.000        0.000        1.000        2.000        4.000        0.000        0.000        0.000      100.000        0.000        0.000        2.483        2.547        2.721
     420.000  -255492.176    25816.325    15310.276    37734.431       90.285  -381182.473    46738.980       25.620       25.874        2.682        3.010        2.568        2.670        2.720        3.059        2.657        2.559        3.151        2.602        3.081        2.511        3.102        3.033        2.597        2.601        0.502        0.000        0.000        0.000        0.000        2.000        0.000        1.000        0.000        0.000        0.000        0.000        0.000        0.000        0.000        0.000        3.000        0.000        0.000        0.000        1.000        0.000        0.000        0.000        0.000        2.000        0.000        0.000        1.000        0.000        0.000        0.000        3.000        0.000        4.494        0.000       95.506        0.000        0.000        2.526        2.577        2.862
     430.000  -255662.101    25660.929    15389.190    37660.241      111.968  -380287.973    45803.544       25.656       25.733        2.627        3.050        2.612        2.653        2.655        2.999        2.653        2.514        3.127        2.628        3.049        2.544        3.122        3.060        2.592        2.567        0.480        0.000        0.000        1.000        1.000        2.000        0.000        1.000        0.000        0.000        0.000        0.000        0.000        0.000        0.000        0.000        1.000        0.000        0.000        0.000        1.000        0.000        0.000        0.000        0.000        3.000        0.000        1.000        2.000        1.000        0.000        2.000        4.000        0.000        0.000        0.000      100.000        0.000        0.000        2.343        2.389        2.689
     440.000  -255256.560    25560.201    15497.917    37711.191      109.649  -380772.886    46637.368       25.812       26.128        2.593        3.006        2.620        2.682        2.702        3.033        2.625        2.548        3.143        2.635        3.031        2.557        3.136        3.049        2.581        2.588        0.506        1.000        0.000        1.000        1.000        2.000        0.000        1.000        0.000        0.000        0.000        0.000        0.000        0.000        0.000        2.000        1.000        0.000        0.000        0.000        1.000        0.000        0.000        0.000        0.000        0.000        0.000        1.000        2.000        2.000        0.000        0.000        3.000        0.000        0.000        0.000      100.000        0.000        0.000        2.071        2.151        2.525
     450.000  -255612.789    25131.368    15740.453    37817.051      111.121  -381402.024    46989.242       25.728       25.974        2.623        2.926        2.593        2.650        2.673        2.969        2.666        2.539        3.159        2.646        3.000        2.500        3.143        3.022        2.588        2.626        0.479        1.000        0.000        1.000        1.000        1.000        0.000        1.000        0.000        0.000        0.000        0.000        0.000        0.000        0.000        1.000        0.000        0.000        0.000        0.000        1.000        0.000        0.000        0.000        0.000        2.000        0.000        1.000        1.000        0.000        0.000        1.000        4.000        0.000        0.000        0.000      100.000        0.000        0.000        2.461        2.489        2.764
     460.000  -255082.876    25156.447    15166.753    38065.758      148.814  -380428.405    46807.756       25.720       25.824        2.628        2.995        2.620        2.695        2.665        3.012        2.686        2.585        3.138        2.605        3.057        2.531        3.141        3.011        2.543        2.588        0.504        1.000        0.000        1.000        1.000        1.000        0.000        1.000        0.000        0.000        0.000        0.000        0.000        0.000        0.000        3.000        1.000        0.000        0.000        0.000        0.000        0.000        0.000        0.000        0.000        0.000        0.000        1.000        2.000        0.000        0.000        1.000        0.000        0.000        0.000        0.000      100.000        0.000        0.000        1.745        1.767        2.190
     470.000  -255867.643    25352.090    15292.128    37747.400      112.358  -381461.784    47090.165       25.929       25.938        2.637        2.908        2.595        2.673        2.662        3.091        2.622        2.546        3.178        2.611        3.033        2.488        3.142        3.087        2.589        2.561        0.460        1.000        0.000        1.000        0.000        2.000        0.000        1.000        0.000        0.000        0.000        0.000        0.000        0.000        0.000        1.000        0.000        0.000        0.000        0.000        1.000        0.000        0.000        0.000        0.000        0.000        0.000        2.000        2.000        1.000        0.000        1.000        1.000        0.000        0.000        0.000      100.000        0.000        0.000        2.311        2.342        2.613
     480.000  -255648.819    26045.606    14962.887    37527.726      136.175  -380408.411    46087.199       25.893       25.921        2.649        2.990        2.583        2.682        2.668        3.035        2.596        2.503        3.175        2.642        3.032        2.518        3.148        3.040        2.586        2.595        0.493        1.000        0.000        1.000        0.000        2.000        0.000        1.000        0.000        0.000        0.000        0.000        0.000        0.000        0.000        1.000        2.000        0.000        0.000        0.000        1.000        0.000        0.000        0.000        0.000        0.000        0.000        0.000        1.000        0.000        0.000        0.000        3.000        0.000        7.865        0.000       92.135        0.000        0.000        2.528        2.553        2.842
     490.000  -255251.258    24790.916    15011.924    37789.771      122.010  -379805.595    46839.715       25.657       25.790        2.675        2.942        2.547        2.716        2.702        3.037        2.647        2.514        3.134        2.589        3.043        2.541        3.060        3.021        2.559        2.555        0.505        1.000        0.000        1.000        0.000        2.000        0.000        1.000        0.000        0.000        0.000        0.000        0.000        0.000        0.000        1.000        1.000        0.000        0.000        0.000        1.000        0.000        0.000        0.000        0.000        2.000        0.000        1.000        0.000        2.000        1.000        1.000        2.000        0.000        0.000        0.000      100.000        0.000        0.000        2.726        2.737        3.010
     500.000  -254518.656    25803.781    15361.610    37812.909       98.416  -379018.021    45422.649       25.827       25.771        2.638        2.990        2.586        2.679        2.695        3.005        2.630        2.492        3.224        2.628        3.003        2.482        3.107        3.031        2.534        2.644        0.491        1.000        0.000        1.000        1.000        2.000        0.000        1.000        0.000        0.000        0.000        0.000        0.000        0.000        0.000        1.000        0.000        0.000        0.000        0.000        1.000        0.000        0.000        0.000        0.000        0.000        0.000        0.000        0.000        0.000        1.000        0.000        1.000        0.000        0.000        0.000      100.000        0.000        0.000        2.464        2.487        2.769
     510.000  -255476.387    25700.221    15228.107    37611.166      108.777  -380393.958    46269.300       25.904       25.912        2.602        2.960        2.585        2.681        2.696        2.893        2.607        2.493        3.210        2.649        3.001        2.478        3.095        3.010        2.613        2.604        0.507        1.000        0.000        1.000        1.000        2.000        0.000        1.000        0.000        0.000        0.000        0.000        0.000        0.000        0.000        1.000        1.000        0.000        0.000        0.000        1.000        0.000        0.000        0.000        0.000        0.000        0.000        1.000        1.000        1.000        0.000        1.000        2.000        0.000        4.494        0.000       95.506        0.000        0.000        2.662        2.678        2.919
     520.000  -254567.039    25582.890    15314.444    37908.817       71.842  -378991.209    45546.176       25.527       25.352        2.593        2.992        2.603        2.702        2.722        3.030        2.587        2.537        3.167        2.633        3.025        2.483        3.101        3.058        2.562        2.551        0.499        1.000        0.000        1.000        1.000        2.000        0.000        1.000        0.000        0.000        0.000        0.000        0.000        0.000        0.000        2.000        1.000        0.000        0.000        0.000        1.000        0.000        0.000        0.000        0.000        0.000        0.000        0.000        0.000        1.000        0.000        3.000        1.000        0.000        0.000        0.000      100.000        0.000        0.000        3.089        3.131        3.204
     530.000  -255463.747    26200.221    15261.262    37842.648      111.995  -380694.621    45814.749       25.623       25.603        2.634        2.972        2.592        2.679        2.643        3.042        2.586        2.536        3.181        2.625        3.055        2.502        3.124        3.115        2.594        2.635        0.485        1.000        0.000        1.000        1.000        2.000        0.000        1.000        0.000        0.000        0.000        0.000        0.000        0.000        0.000        2.000        2.000        0.000        0.000        0.000        0.000        0.000        0.000        0.000        0.000        0.000        0.000        1.000        2.000        1.000        0.000        1.000        4.000        0.000        0.000        0.000      100.000        0.000        0.000        3.092        3.162        3.252
     540.000  -255405.350    25979.397    15294.452    37780.286      140.865  -380415.613    45815.265       26.173       26.061        2.616        2.963        2.597        2.689        2.669        2.963        2.647        2.533        3.150        2.636        3.028        2.542        3.129        3.053        2.573        2.623        0.480        1.000        0.000        1.000        0.000        2.000        0.000        1.000        0.000        0.000        0.000        0.000        0.000        0.000        0.000        2.000        2.000        0.000        0.000        0.000        1.000        0.000        0.000        0.000        0.000        0.000        0.000        1.000        0.000        1.000        0.000        1.000        1.000        0.000        4.494        0.000       95.506        0.000        0.000        2.421        2.444        2.707
     550.000  -255950.089    26306.205    14927.968    38077.339      107.447  -380710.597    45341.550       25.941       25.884        2.563        3.050        2.623        2.632        2.696        3.067        2.625        2.564        3.153        2.680        3.024        2.550        3.063        3.043        2.581        2.596        0.479        1.000        0.000        1.000        1.000        2.000        0.000        1.000        0.000        0.000        0.000        0.000        0.000        0.000        0.000        0.000        0.000        0.000        0.000        0.000        1.000        0.000        0.000        0.000        0.000        1.000        0.000        0.000        1.000        2.000        0.000        0.000        0.000        0.000        0.000        0.000      100.000        0.000        0.000        1.983        2.042        2.409
     560.000  -255333.291    25700.719    14914.859    37722.422      102.610  -379161.033    45387.132       25.950       25.905        2.614        2.995        2.582        2.665        2.632        2.976        2.613        2.545        3.173        2.628        3.064        2.483        3.084        3.044        2.600        2.578        0.493        1.000        0.000        1.000        1.000        2.000        0.000        1.000        0.000        0.000        0.000        0.000        0.000        0.000        0.000        1.000        0.000        0.000        0.000        0.000        1.000        0.000        0.000        0.000        0.000        1.000        0.000        0.000        2.000        1.000        0.000        0.000        4.000        0.000        7.865        0.000       92.135        0.000        0.000        2.133        2.169        2.698
     570.000  -254559.193    25886.390    15113.661    37756.594      100.977  -378585.407    45168.591       26.039       26.234        2.606        2.930        2.579        2.643        2.690        3.066        2.633        2.570        3.176        2.626        3.060        2.539        3.049        3.056        2.578        2.611        0.482        1.000        0.000        1.000        1.000        2.000        0.000        1.000        0.000        0.000        0.000        0.000        0.000        0.000        0.000        1.000        1.000        0.000        0.000        0.000        0.000        0.000        0.000        0.000        0.000        1.000        0.000        1.000        1.000        1.000        0.000        1.000        4.000        0.000        4.494        0.000       95.506        0.000        0.000        1.938        1.992        2.372
     580.000  -256234.039    25590.491    14706.451    37860.672      107.577  -379803.977    45304.746       26.146       26.001        2.620        3.043        2.622        2.681        2.697        2.976        2.590        2.477        3.203        2.600        3.026        2.513        3.094        3.012        2.588        2.563        0.472        1.000        0.000        1.000        1.000        2.000        0.000        1.000        0.000        0.000        0.000        0.000        0.000        0.000        0.000        0.000        1.000        0.000        0.000        0.000        0.000        0.000        0.000        0.000        0.000        0.000        0.000        1.000        1.000        2.000        0.000        0.000        1.000        0.000        0.000        0.000      100.000        0.000        0.000        1.952        2.014        2.414
     590.000  -255346.399    25392.474    14874.857    37524.261      115.644  -378991.906    45738.271       26.305       26.191        2.598        3.039        2.598        2.642        2.709        2.959        2.614        2.534        3.255        2.623        3.009        2.520        3.151        3.050        2.537        2.638        0.488        1.000        0.000        1.000        1.000        2.000        0.000        0.000        0.000        0.000        0.000        0.000        0.000        0.000        0.000        1.000        2.000        0.000        0.000        0.000        1.000        0.000        0.000        0.000        0.000        0.000        0.000        0.000        1.000        1.000        0.000        2.000        3.000        0.000        0.000        0.000      100.000        0.000        0.000        2.005        2.030        2.433
     600.000  -255032.751    25452.608    15238.049    37728.440      127.648  -379961.335    46381.839       25.721       25.704        2.604        2.870        2.589        2.664        2.668        3.011        2.623        2.560        3.204        2.665        2.993        2.491        3.141        3.051        2.572        2.530        0.479        1.000        0.000        1.000        1.000        2.000        0.000        0.000        0.000        0.000        0.000        0.000        0.000        0.000        0.000        0.000        1.000        0.000        0.000        0.000        1.000        0.000        0.000        0.000        0.000        2.000        0.000        1.000        1.000        1.000        0.000        0.000        1.000        0.000        0.000        0.000      100.000        0.000        0.000        2.022        2.061        2.363
     610.000  -255120.036    24838.339    15145.841    37670.140      105.651  -379426.510    46546.502       26.156       25.771        2.671        3.066        2.584        2.696        2.667        3.000        2.582        2.543        3.199        2.614        3.009        2.497        3.110        3.058        2.574        2.603        0.479        1.000        0.000        1.000        1.000        2.000        0.000        1.000        0.000        0.000        0.000        0.000        0.000        0.000        0.000        0.000        0.000        0.000        0.000        0.000        1.000        0.000        0.000        0.000        0.000        1.000        0.000        1.000        0.000        1.000        0.000        2.000        1.000        0.000        0.000        0.000      100.000        0.000        0.000        2.098        2.148        2.353
     620.000  -254840.672    25757.838    15339.313    37609.209      106.542  -378380.696    44727.122       25.776       25.689        2.716        2.956        2.599        2.686        2.642        2.982        2.642        2.541        3.213        2.595        3.047        2.516        3.171        3.006        2.590        2.517        0.506        1.000        0.000        1.000        1.000        2.000        0.000        1.000        0.000        0.000        0.000        0.000        0.000        0.000        0.000        0.000        2.000        0.000        0.000        0.000        1.000        0.000        0.000        0.000        0.000        0.000        0.000        0.000        2.000        0.000        0.000        0.000        1.000        0.000        0.000        0.000      100.000        0.000        0.000        1.842        1.893        2.283
     630.000  -255570.013    25969.184    15082.006    37566.644      128.103  -380155.957    45840.008       25.994       25.941        2.664        2.990        2.626        2.670        2.679        3.038        2.615        2.588        3.188        2.649        3.052        2.505        3.057        2.993        2.567        2.523        0.491        1.000        0.000        1.000        1.000        2.000        0.000        1.000        0.000        0.000        0.000        0.000        0.000        0.000        0.000        2.000        1.000        0.000        0.000        0.000        1.000        0.000        0.000        0.000        0.000        1.000        0.000        1.000        1.000        1.000        1.000        0.000        8.000        0.000        0.000        0.000      100.000        0.000        0.000        1.789        1.834        2.328
     640.000  -255490.061    25512.504    15230.026    37764.461      110.366  -379617.132    45509.715       25.913       25.669        2.692        2.959        2.583        2.690        2.660        3.008        2.596        2.567        3.188        2.654        3.057        2.553        3.099        3.101        2.573        2.532        0.468        1.000        0.000        1.000        1.000        2.000        0.000        1.000        0.000        0.000        0.000        0.000        0.000        0.000        0.000        1.000        1.000        0.000        0.000        0.000        1.000        0.000        0.000        0.000        0.000        1.000        0.000        1.000        1.000        0.000        0.000        0.000        2.000        0.000        0.000        0.000      100.000        0.000        0.000        1.880        1.907        2.359
     650.000  -255553.443    24748.069    15150.668    37860.804      108.102  -380154.730    46733.645       25.960       25.822        2.672        2.911        2.596        2.675        2.650        2.942        2.638        2.531        3.149        2.609        2.998        2.524        3.108        3.078        2.614        2.552        0.483        1.000        0.000        1.000        1.000        2.000        0.000        1.000        0.000        0.000        0.000        0.000        0.000        0.000        0.000        1.000        0.000        0.000        0.000        0.000        1.000        0.000        0.000        0.000        0.000        2.000        0.000        1.000        0.000        0.000        0.000        3.000        3.000        0.000        0.000        0.000      100.000        0.000        0.000        1.805        1.848        2.290
     660.000  -254945.070    24688.402    15351.423    37729.185      106.155  -379708.508    46888.274       26.358       26.207        2.636        2.981        2.576        2.626        2.662        3.056        2.600        2.539        3.135        2.658        3.014        2.511        3.131        3.056        2.567        2.534        0.484        1.000        0.000        1.000        1.000        2.000        0.000        1.000        0.000        0.000        0.000        0.000        0.000        0.000        0.000        1.000        1.000        0.000        0.000        0.000        1.000        0.000        0.000        0.000        0.000        2.000        0.000        0.000        0.000        1.000        0.000        1.000        3.000        0.000        0.000        0.000      100.000        0.000        0.000        1.700        1.720        2.145
     670.000  -254840.680    24931.931    15154.514    37803.868      112.386  -379658.801    46815.422       26.014       25.830        2.607        2.956        2.583        2.677        2.695        2.997        2.623        2.578        3.167        2.607        3.013        2.499        3.115        2.988        2.595        2.620        0.488        1.000        0.000        1.000        1.000        2.000        0.000        1.000        0.000        0.000        0.000        0.000        0.000        0.000        0.000        1.000        0.000        0.000        0.000        0.000        1.000        0.000        0.000        0.000        0.000        1.000        0.000        1.000        0.000        0.000        0.000        0.000        6.000        0.000        0.000        0.000      100.000        0.000        0.000        1.883        1.921        2.210
     680.000  -254912.423    24548.772    15117.013    37708.056       90.270  -378027.323    45650.790       26.060       25.856        2.641        2.961        2.573        2.671        2.676        2.998        2.605        2.486        3.199        2.658        3.029        2.519        3.151        3.050        2.577        2.568        0.473        1.000        0.000        1.000        0.000        1.000        0.000        1.000        0.000        0.000        0.000        0.000        0.000        0.000        0.000        2.000        1.000        0.000        0.000        0.000        1.000        0.000        0.000        0.000        0.000        1.000        0.000        2.000        1.000        1.000        0.000        0.000        3.000        0.000        0.000        0.000      100.000        0.000        0.000        1.852        1.898        2.196
     690.000  -255239.939    24170.742    15249.842    37954.265      131.850  -380277.328    47530.690       25.851       25.887        2.624        2.926        2.587        2.700        2.648        2.961        2.594        2.487        3.182        2.616        3.053        2.473        3.059        3.024        2.563        2.584        0.488        1.000        0.000        1.000        1.000        2.000        0.000        1.000        0.000        0.000        0.000        0.000        0.000        0.000        0.000        2.000        2.000        0.000        0.000        0.000        1.000        0.000        0.000        0.000        0.000        0.000        0.000        0.000        1.000        1.000        1.000        1.000        2.000        0.000        0.000        0.000      100.000        0.000        0.000        1.859        1.884        2.382
     700.000  -255348.963    25299.121    14999.241    37601.263      112.198  -379732.764    46371.979       25.920       25.991        2.662        2.958        2.597        2.697        2.641        2.938        2.621        2.537        3.209        2.655        3.039        2.494        3.058        3.026        2.559        2.579        0.506        1.000        0.000        1.000        1.000        2.000        0.000        1.000        0.000        0.000        0.000        0.000        0.000        0.000        0.000        1.000        3.000        0.000        0.000        0.000        0.000        0.000        0.000        0.000        0.000        3.000        0.000        0.000        0.000        0.000        1.000        0.000        2.000        0.000        4.494        0.000       95.506        0.000        0.000        1.644        1.698        2.304
     710.000  -255334.182    25243.927    14918.617    37984.191      125.090  -378997.790    45391.784       25.970       26.077        2.673        2.909        2.590        2.685        2.614        3.051        2.602        2.561        3.221        2.624        2.992        2.554        3.083        2.989        2.567        2.555        0.500        0.000        0.000        1.000        1.000        2.000        0.000        0.000        0.000        0.000        0.000        0.000        0.000        0.000        0.000        1.000        3.000        0.000        0.000        0.000        1.000        0.000        0.000        0.000        0.000        2.000        0.000        0.000        1.000        0.000        0.000        1.000        2.000        0.000        4.494        0.000       95.506        0.000        0.000        1.598        1.606        2.190
     720.000  -255466.815    25268.845    15258.395    37833.988      100.072  -379455.993    45527.877       26.073       26.225        2.595        2.959        2.677        2.658        2.617        3.009        2.581        2.545        3.145        2.610        3.040        2.560        3.096        3.015        2.586        2.585        0.493        0.000        0.000        1.000        1.000        2.000        0.000        1.000        0.000        0.000        0.000        0.000        0.000        0.000        0.000        0.000        1.000        0.000        0.000        0.000        1.000        0.000        0.000        0.000        0.000        1.000        0.000        0.000        2.000        1.000        0.000        1.000        3.000        0.000        0.000        0.000      100.000        0.000        0.000        1.691        1.685        2.291
     730.000  -255072.379    24958.834    15246.675    37799.114      133.087  -379250.508    46040.420       26.100       26.228        2.619        2.937        2.628        2.679        2.540        2.989        2.615        2.552        3.255        2.634        3.097        2.477        3.089        3.084        2.599        2.582        0.485        1.000        0.000        1.000        1.000        1.000        0.000        0.000        0.000        0.000        0.000        0.000        0.000        0.000        0.000        1.000        0.000        0.000        0.000        0.000        1.000        0.000        0.000        0.000        0.000        2.000        0.000        3.000        2.000        2.000        1.000        1.000        4.000        0.000        0.000        0.000      100.000        0.000        0.000        1.801        1.814        2.499
     740.000  -254905.744    25554.107    15092.463    37713.177      117.922  -379524.175    46140.762       25.863       26.122        2.647        2.946        2.623        2.652        2.543        3.003        2.576        2.544        3.183        2.621        3.121        2.530        3.153        3.015        2.592        2.550        0.467        1.000        0.000        1.000        1.000        1.000        0.000        1.000        0.000        0.000        0.000        0.000        0.000        0.000        0.000        1.000        0.000        0.000        0.000        0.000        1.000        0.000        0.000        0.000        0.000        2.000        0.000        2.000        0.000        2.000        0.000        1.000        5.000        0.000        0.000        0.000      100.000        0.000        0.000        1.632        1.633        2.493
     750.000  -254360.099    25679.993    15121.115    37339.976      112.519  -378413.404    45799.703       26.256       26.410        2.691        2.915        2.612        2.667        2.523        3.002        2.599        2.506        3.207        2.654        3.165        2.515        3.183        2.997        2.627        2.620        0.484        1.000        0.000        1.000        1.000        1.000        0.000        1.000        0.000        0.000        0.000        0.000        0.000        0.000        0.000        0.000        1.000        0.000        0.000        0.000        1.000        0.000        0.000        0.000        0.000        2.000        0.000        2.000        1.000        0.000        3.000        4.000        0.000        0.000        0.000        0.000      100.000        0.000        0.000        1.816        1.809        2.533
     760.000  -255414.778    25807.978    15098.929    37992.207      110.537  -380393.731    45969.302       25.961       26.277        2.694        2.886        2.607        2.680        2.552        3.007        2.641        2.606        3.218        2.618        3.171        2.492        3.122        3.059        2.556        2.551        0.508        1.000        0.000        0.000        1.000        1.000        0.000        1.000        0.000        0.000        0.000        0.000        0.000        0.000        0.000        2.000        1.000        0.000        0.000        0.000        0.000        0.000        0.000        0.000        0.000        1.000        0.000        3.000        1.000        0.000        1.000        1.000        4.000        0.000        0.000        0.000      100.000        0.000        0.000        1.815        1.814        2.644
     770.000  -255364.737    25421.632    15058.505    37777.624       91.190  -380189.244    46475.555       25.861       26.117        2.653        2.970        2.610        2.688        2.528        3.062        2.585        2.540        3.201        2.643        3.183        2.530        3.090        3.064        2.641        2.566        0.488        1.000        0.000        1.000        0.000        1.000        0.000        1.000        0.000        0.000        0.000        0.000        0.000        0.000        0.000        1.000        0.000        0.000        0.000        0.000        1.000        0.000        0.000        0.000        0.000        1.000        0.000        0.000        1.000        0.000        0.000        1.000        1.000        0.000        0.000        0.000      100.000        0.000        0.000        1.922        1.935        2.666
     780.000  -254950.249    24960.589    14671.061    37955.170      100.757  -379002.671    46364.844       25.699       26.194        2.684        2.904        2.544        2.665        2.504        3.019        2.645        2.528        3.174        2.629        3.160        2.505        3.071        3.078        2.526        2.541        0.486        1.000        0.000        1.000        1.000        1.000        0.000        1.000        0.000        0.000        0.000        0.000        0.000        0.000        0.000        1.000        1.000        0.000        0.000        0.000        1.000        0.000        0.000        0.000        0.000        2.000        0.000        1.000        0.000        0.000        0.000        1.000        2.000        0.000        0.000        0.000      100.000        0.000        0.000        1.935        1.975        2.725
     790.000  -255118.211    26276.654    14849.183    37903.968      129.988  -379239.402    44961.397       25.918       26.130        2.637        2.987        2.639        2.696        2.493        3.079        2.625        2.509        3.249        2.622        3.136        2.469        3.102        3.019        2.548        2.562        0.489        1.000        0.000        1.000        1.000        1.000        0.000        1.000        0.000        0.000        0.000        0.000        0.000        0.000        0.000        1.000        1.000        0.000        0.000        0.000        0.000        0.000        0.000        0.000        0.000        1.000        0.000        0.000        1.000        0.000        2.000        1.000        2.000        0.000        0.000        0.000      100.000        0.000        0.000        1.926        1.956        2.725
     800.000  -255181.918    25121.946    15167.471    37839.980      129.113  -380525.329    47084.902       25.671       26.054        2.651        2.888        2.564        2.671        2.508        3.021        2.656        2.556        3.289        2.614        3.034        2.504        3.109        3.054        2.544        2.551        0.510        1.000        0.000        1.000        0.000        1.000        0.000        1.000        0.000        0.000        0.000        0.000        0.000        0.000        0.000        1.000        1.000        0.000        0.000        0.000        0.000        0.000        0.000        0.000        0.000        2.000        0.000        0.000        0.000        1.000        1.000        1.000        2.000        0.000        0.000        0.000      100.000        0.000        0.000        2.302        2.333        2.986
     810.000  -255859.605    25418.428    15143.465    37906.819      112.883  -380006.360    45565.159       25.731       26.315        2.733        2.921        2.645        2.693        2.549        3.012        2.619        2.519        3.228        2.638        3.090        2.511        3.161        3.030        2.501        2.570        0.496        1.000        0.000        0.000        0.000        1.000        0.000        1.000        0.000        0.000        0.000        0.000        0.000        0.000        0.000        0.000        0.000        0.000        0.000        0.000        0.000        0.000        0.000        0.000        0.000        0.000        0.000        1.000        0.000        2.000        0.000        0.000        3.000        0.000        0.000        0.000      100.000        0.000        0.000        1.951        1.947        2.813
     820.000  -255527.239    25522.986    15291.042    37924.207      111.698  -380256.031    45878.859       26.063       26.531        2.665        3.005        2.612        2.721        2.538        2.954        2.604        2.605        3.172        2.659        3.068        2.491        3.048        3.077        2.553        2.609        0.483        0.000        0.000        0.000        0.000        1.000        0.000        1.000        0.000        0.000        0.000        0.000        0.000        0.000        0.000        0.000        1.000        0.000        0.000        0.000        0.000        0.000        0.000        0.000        0.000        1.000        0.000        0.000        0.000        0.000        0.000        0.000        1.000        0.000        0.000        0.000      100.000        0.000        0.000        2.287        2.289        2.996
     830.000  -255067.067    24958.721    15029.410    37922.336       99.073  -380151.297    47074.690       25.767       26.152        2.656        3.026        2.689        2.704        2.568        3.039        2.633        2.521        3.189        2.633        3.066        2.505        3.106        3.018        2.607        2.540        0.474        0.000        0.000        1.000        0.000        0.000        0.000        0.000        0.000        0.000        0.000        0.000        0.000        0.000        0.000        1.000        0.000        0.000        0.000        0.000        0.000        0.000        0.000        0.000        0.000        0.000        0.000        3.000        2.000        1.000        1.000        3.000        2.000        0.000        0.000        0.000      100.000        0.000        0.000        1.816        1.817        2.679
     840.000  -254917.784    24660.276    15225.625    37930.008       99.756  -379978.229    47144.780       25.975       26.232        2.659        3.034        2.687        2.697        2.509        3.008        2.601        2.573        3.142        2.615        3.184        2.459        3.073        3.049        2.610        2.618        0.476        1.000        0.000        1.000        0.000        0.000        0.000        0.000        0.000        0.000        0.000        0.000        0.000        0.000        0.000        0.000        0.000        0.000        0.000        0.000        0.000        0.000        0.000        0.000        0.000        0.000        0.000        3.000        0.000        0.000        1.000        0.000        1.000        0.000        0.000        0.000      100.000        0.000        0.000        1.715        1.708        2.862
     850.000  -255201.803    24874.019    15206.842    37694.415      105.869  -378410.925    45327.976       26.395       26.707        2.634        3.018        2.666        2.693        2.503        3.049        2.610        2.516        3.170        2.597        3.156        2.487        3.150        3.022        2.668        2.537        0.489        1.000        0.000        1.000        0.000        0.000        0.000        0.000        0.000        0.000        0.000        0.000        0.000        1.000        0.000        0.000        1.000        0.000        0.000        0.000        0.000        0.000        0.000        0.000        0.000        0.000        0.000        0.000        0.000        3.000        0.000        0.000        3.000        0.000        0.000        0.000      100.000        0.000        0.000        2.334        2.341        3.133
     860.000  -254394.803    24965.486    15023.171    38011.515      110.578  -378043.893    45538.339       26.127       26.406        2.674        3.050        2.674        2.682        2.542        3.002        2.607        2.596        3.157        2.617        3.139        2.444        3.097        3.024        2.645        2.571        0.498        1.000        0.000        1.000        0.000        0.000        0.000        0.000        0.000        0.000        0.000        0.000        0.000        0.000        0.000        0.000        0.000        0.000        0.000        0.000        0.000        0.000        0.000        0.000        0.000        0.000        0.000        1.000        1.000        0.000        0.000        0.000        1.000        0.000        0.000        0.000      100.000        0.000        0.000        2.129        2.113        2.941
     870.000  -255018.824    24738.843    15335.193    38134.393      125.317  -379847.986    46495.416       26.110       26.284        2.699        3.064        2.675        2.721        2.495        3.001        2.614        2.548        3.199        2.603        3.185        2.475        3.130        3.055        2.607        2.518        0.498        1.000        0.000        0.000        0.000        0.000        0.000        0.000        0.000        0.000        0.000        0.000        0.000        0.000        0.000        0.000        1.000        0.000        0.000        0.000        0.000        0.000        0.000        0.000        0.000        0.000        0.000        5.000        1.000        2.000        0.000        0.000        3.000        0.000        0.000        0.000      100.000        0.000        0.000        2.418        2.421        3.411
     880.000  -255627.559    25361.653    15275.561    37994.175      119.952  -380296.837    45917.936       26.053       26.281        2.664        2.988        2.640        2.642        2.514        2.993        2.574        2.510        3.181        2.602        3.130        2.407        3.094        3.034        2.598        2.541        0.486        1.000        0.000        1.000        0.000        0.000        0.000        0.000        0.000        0.000        0.000        0.000        0.000        1.000        0.000        0.000        0.000        0.000        0.000        0.000        0.000        0.000        0.000        0.000        0.000        0.000        0.000        2.000        0.000        1.000        0.000        0.000        3.000        0.000        0.000        0.000      100.000        0.000        0.000        2.629        2.625        3.634
     890.000  -255381.308    25415.406    15307.420    37823.940      103.011  -380348.960    46317.876       25.927       26.354        2.678        3.083        2.679        2.646        2.616        3.020        2.618        2.543        3.217        2.622        3.215        2.479        3.091        3.046        2.602        2.560        0.510        1.000        0.000        1.000        0.000        0.000        0.000        1.000        0.000        0.000        0.000        0.000        0.000        0.000        0.000        0.000        0.000        0.000        0.000        0.000        0.000        0.000        0.000        0.000        0.000        0.000        0.000        2.000        0.000        1.000        1.000        2.000        0.000        0.000        0.000        0.000      100.000        0.000        0.000        2.717        2.710        3.884
     900.000  -255322.403    24806.108    15346.202    37779.247      109.992  -379722.475    46358.524       25.774       26.213        2.626        3.093        2.643        2.625        2.568        2.949        2.610        2.481        3.246        2.597        3.180        2.505        3.142        3.014        2.649        2.595        0.487        1.000        0.000        0.000        0.000        0.000        0.000        0.000        0.000        0.000        0.000        0.000        0.000        0.000        0.000        0.000        0.000        0.000        0.000        0.000        0.000        0.000        0.000        0.000        0.000        0.000        0.000        1.000        0.000        0.000        0.000        1.000        5.000        0.000        0.000        0.000      100.000        0.000        0.000        2.937        2.942        3.951
     910.000  -255134.504    24595.401    15579.334    37896.028      113.015  -380570.723    47252.441       25.859       26.155        2.601        3.054        2.698        2.668        2.538        3.040        2.640        2.589        3.254        2.648        3.195        2.565        3.066        2.986        2.615        2.533        0.476        1.000        0.000        1.000        0.000        0.000        0.000        0.000        0.000        0.000        0.000        0.000        0.000        1.000        0.000        0.000        0.000        0.000        0.000        0.000        0.000        0.000        0.000        0.000        0.000        2.000        0.000        4.000        1.000        0.000        2.000        0.000        2.000        0.000        0.000        0.000      100.000        0.000        0.000        3.064        3.091        4.049
     920.000  -255529.192    24797.976    15205.142    37754.382      108.800  -380286.485    46890.993       25.939       26.051        2.688        3.042        2.645        2.678        2.547        3.055        2.601        2.587        3.270        2.630        3.197        2.494        3.111        3.042        2.607        2.536        0.483        1.000        0.000        1.000        0.000        0.000        0.000        0.000        0.000        1.000        0.000        0.000        0.000        0.000        0.000        0.000        0.000        0.000        0.000        0.000        0.000        0.000        0.000        0.000        0.000        1.000        0.000        3.000        0.000        0.000        2.000        1.000        3.000        0.000        0.000        0.000      100.000        0.000        0.000        3.045        3.073        3.950
     930.000  -255420.531    24784.570    15000.719    37932.093      122.510  -380106.802    46846.379       25.783       26.050        2.622        3.099        2.679        2.667        2.501        3.006        2.612        2.531        3.233        2.632        3.156        2.470        3.048        2.978        2.592        2.527        0.467        1.000        0.000        1.000        0.000        0.000        0.000        1.000        0.000        0.000        0.000        0.000        0.000        0.000        0.000        0.000        0.000        0.000        0.000        0.000        0.000        0.000        0.000        0.000        0.000        0.000        0.000        3.000        0.000        0.000        0.000        0.000        1.000        0.000        0.000        0.000      100.000        0.000        0.000        3.148        3.168        4.098
     940.000  -254904.236    24875.638    15248.268    37676.300      126.977  -379606.027    46774.608       25.961       26.288        2.615        3.098        2.645        2.707        2.553        3.032        2.611        2.533        3.219        2.660        3.198        2.457        3.084        3.000        2.596        2.559        0.478        1.000        0.000        1.000        0.000        0.000        0.000        0.000        0.000        0.000        0.000        0.000        0.000        0.000        0.000        0.000        0.000        0.000        0.000        0.000        0.000        0.000        0.000        0.000        0.000        1.000        0.000        1.000        3.000        0.000        0.000        0.000        2.000        0.000        0.000        0.000      100.000        0.000        0.000        2.832        2.866        3.852
     950.000  -254876.613    25151.756    15179.104    37677.885      102.594  -379490.835    46502.884       25.967       25.912        2.617        3.177        2.706        2.702        2.558        3.086        2.656        2.587        3.273        2.668        3.166        2.512        3.036        3.055        2.616        2.560        0.469        1.000        0.000        1.000        0.000        0.000        0.000        0.000        0.000        0.000        0.000        0.000        0.000        0.000        0.000        2.000        1.000        0.000        0.000        0.000        0.000        0.000        0.000        0.000        0.000        1.000        0.000        0.000        1.000        1.000        0.000        0.000        1.000        0.000        0.000        0.000      100.000        0.000        0.000        3.053        3.099        3.799
     960.000  -255789.521    24231.439    15104.474    37965.719       91.008  -379410.244    46228.083       25.781       25.604        2.644        3.093        2.644        2.668        2.576        3.008        2.645        2.545        3.237        2.658        3.137        2.462        3.053        3.044        2.556        2.580        0.499        1.000        0.000        1.000        0.000        0.000        0.000        0.000        0.000        0.000        0.000        0.000        0.000        0.000        0.000        0.000        0.000        0.000        0.000        0.000        0.000        0.000        0.000        0.000        0.000        1.000        0.000        0.000        0.000        0.000        0.000        0.000        3.000        0.000        0.000        0.000      100.000        0.000        0.000        3.042        3.100        3.842
     970.000  -254835.118    25836.489    15409.493    37988.516      126.787  -379424.525    45228.123       25.821       25.835        2.647        3.033        2.688        2.707        2.557        3.158        2.573        2.568        3.270        2.622        3.150        2.532        3.099        3.038        2.595        2.535        0.486        1.000        0.000        1.000        0.000        0.000        0.000        1.000        0.000        0.000        0.000        0.000        0.000        0.000        0.000        0.000        0.000        0.000        0.000        0.000        0.000        0.000        0.000        0.000        0.000        1.000        0.000        1.000        0.000        0.000        0.000        1.000        1.000        0.000        0.000        0.000      100.000        0.000        0.000        2.757        2.804        3.665
     980.000  -255608.302    25272.882    15105.801    37896.163       99.725  -380778.029    46795.156       25.689       25.697        2.656        3.044        2.682        2.655        2.514        3.041        2.607        2.650        3.243        2.572        3.125        2.515        3.143        3.002        2.591        2.541        0.494        1.000        0.000        1.000        0.000        0.000        0.000        0.000        0.000        0.000        0.000        0.000        0.000        0.000        0.000        0.000        1.000        0.000        0.000        0.000        0.000        0.000        0.000        0.000        0.000        1.000        0.000        3.000        1.000        0.000        2.000        0.000        2.000        0.000        0.000        0.000      100.000        0.000        0.000        2.626        2.699        3.408
     990.000  -254886.948    24904.476    15106.511    37759.426      119.537  -378413.709    45636.812       25.771       26.025        2.660        3.060        2.651        2.687        2.558        3.013        2.639        2.515        3.255        2.612        3.106        2.596        3.053        3.047        2.585        2.571        0.494        1.000        0.000        1.000        1.000        0.000        0.000        0.000        0.000        1.000        0.000        0.000        0.000        1.000        0.000        0.000        0.000        0.000        0.000        0.000        0.000        0.000        0.000        0.000        0.000        0.000        0.000        1.000        1.000        1.000        0.000        1.000        3.000        0.000        0.000        0.000      100.000        0.000        0.000        2.703        2.769        3.427
    1000.000  -255024.596    25380.900    15015.147    37668.763      105.014  -378292.439    45098.020       26.012       26.149        2.654        3.136        2.643        2.686        2.578        2.997        2.591        2.541        3.230        2.688        3.188        2.508        3.062        3.025        2.575        2.549        0.488        1.000        0.000        1.000        1.000        0.000        0.000        0.000        0.000        0.000        0.000        0.000        0.000        0.000        0.000        0.000        0.000        0.000        0.000        0.000        0.000        0.000        0.000        0.000        0.000        0.000        0.000        2.000        2.000        1.000        2.000        0.000        1.000        0.000        0.000        0.000      100.000        0.000        0.000        2.858        2.891        3.502
     Average  -257007.365    25611.239    15256.071    37773.701      110.548  -382838.068    47079.145       25.867       25.880        2.634        3.018        2.615        2.677        2.635        3.014        2.615        2.545        3.189        2.627        3.064        2.568        3.097        3.043        2.596        2.572        0.488        0.832        0.000        0.911        0.485        1.604        0.010        0.762        0.010        0.020        0.000        0.079        0.000        0.040        0.000        0.832        0.931        0.000        0.000        0.000        0.495        0.000        0.000        0.000        0.000        0.950        0.000        1.059        0.802        0.772        0.436        0.733        2.535        0.000        0.645        0.000       99.355        0.000        0.000        2.347        2.392        2.796

