____Time[ps] Energy[ kJ/mol ]_____Bond _______Angle ____Dihedral ___Planarity _____Coulomb _________VdW _Your result _Your result _Your result _Your result _Your result _Your result _Your result _Your result _Your result _Your result _Your result _Your result _Your result _Your result _Your result _Your result _Your result _Your result _Your result _Your result _Your result _Your result _Your result _Your result _Your result _Your result _Your result _Your result _Your result _Your result _Your result _Your result _Your result _Your result _Your result _Your result _Your result _Your result _Your result _Your result _Your result _Your result _Your result _Your result _Your result _Your result _Your result _Your result _Your result _Your result _Your result _Your result _Your result _Your result _Your result _Your result _Your result _RMSDs[A]:CA ____Backbone __HeavyAtoms
       0.000  -334818.767     7557.003     5050.475    37821.767       16.832  -450130.791    64865.947       25.372       25.251        2.904        3.082        3.060        3.245        3.183        2.930        2.695        2.573        2.686        2.593        2.526        2.638        2.922        2.979        3.197        2.980        0.490        2.000        1.000        0.000        0.000        3.000        6.000        0.000        0.000        1.000        1.000        0.000        0.000        0.000        0.000        0.000        0.000        0.000        0.000        0.000        0.000        0.000        0.000        0.000        0.000        0.000        2.000        0.000        0.000        1.000        3.000        0.000        2.000        0.000        0.000        0.000      100.000        0.000        0.000        0.456        0.480        0.592
      10.000  -251582.421    28632.036    14991.156    37897.920      100.745  -381133.748    47929.469       26.045       25.948        2.789        2.935        3.086        3.221        3.128        2.952        2.681        2.574        2.624        2.604        2.512        2.704        2.959        3.007        3.136        2.967        0.495        1.000        1.000        0.000        0.000        2.000        5.000        0.000        0.000        0.000        0.000        0.000        0.000        0.000        1.000        0.000        0.000        0.000        0.000        0.000        0.000        0.000        0.000        0.000        0.000        0.000        1.000        0.000        2.000        0.000        3.000        0.000        3.000        0.000        4.494        0.000       95.506        0.000        0.000        1.189        1.209        1.290
      20.000  -250442.012    28470.994    15474.108    37701.246      100.333  -381074.064    48885.371       26.088       25.770        2.865        3.019        3.078        3.223        3.171        2.927        2.719        2.637        2.655        2.690        2.503        2.664        2.969        2.951        3.110        2.974        0.496        1.000        1.000        0.000        0.000        2.000        5.000        0.000        0.000        0.000        0.000        0.000        0.000        0.000        0.000        0.000        3.000        0.000        0.000        0.000        0.000        0.000        0.000        0.000        0.000        0.000        1.000        0.000        2.000        1.000        4.000        0.000        1.000        0.000        0.000        0.000      100.000        0.000        0.000        1.317        1.345        1.434
      30.000  -251120.658    28522.700    15435.046    37714.104      110.940  -379884.259    46980.811       26.415       26.109        3.054        3.019        3.086        3.198        3.203        2.935        2.688        2.609        2.652        2.691        2.543        2.670        2.940        2.988        3.098        2.978        0.478        1.000        1.000        0.000        0.000        2.000        6.000        0.000        0.000        0.000        0.000        0.000        0.000        1.000        2.000        0.000        1.000        0.000        0.000        0.000        0.000        0.000        0.000        0.000        0.000        0.000        2.000        0.000        2.000        2.000        3.000        0.000        0.000        0.000        0.000        0.000      100.000        0.000        0.000        1.472        1.498        1.680
      40.000  -250360.722    26906.649    15447.363    37756.460       91.387  -379000.745    48438.164       26.278       25.978        3.028        3.018        3.107        3.248        3.190        2.891        2.695        2.549        2.675        2.669        2.465        2.532        2.982        2.996        3.144        2.954        0.482        1.000        1.000        0.000        1.000        1.000        5.000        0.000        0.000        0.000        1.000        0.000        0.000        0.000        1.000        0.000        1.000        0.000        0.000        0.000        0.000        0.000        0.000        0.000        0.000        1.000        1.000        0.000        1.000        0.000        2.000        0.000        1.000        0.000        0.000        0.000      100.000        0.000        0.000        1.463        1.462        1.683
      50.000  -250277.983    27050.068    15482.310    37730.946      107.280  -377502.575    46853.988       26.194       25.716        2.995        2.986        3.050        3.267        3.192        2.879        2.682        2.612        2.724        2.674        2.562        2.566        2.903        2.968        3.125        3.047        0.488        1.000        1.000        0.000        0.000        2.000        5.000        0.000        0.000        0.000        1.000        0.000        0.000        1.000        2.000        0.000        1.000        0.000        0.000        0.000        0.000        0.000        0.000        0.000        0.000        1.000        1.000        0.000        1.000        1.000        4.000        0.000        1.000        0.000        0.000        0.000      100.000        0.000        0.000        1.462        1.481        1.766
      60.000  -250635.497    27279.745    15681.816    37551.175      108.429  -377997.103    46740.440       26.390       25.709        3.069        2.995        3.023        3.277        3.210        2.920        2.728        2.588        2.708        2.664        2.496        2.453        2.972        2.955        3.117        3.002        0.489        1.000        1.000        0.000        0.000        2.000        5.000        0.000        0.000        0.000        0.000        0.000        0.000        1.000        1.000        0.000        2.000        0.000        0.000        0.000        0.000        0.000        0.000        0.000        0.000        0.000        2.000        0.000        1.000        0.000        3.000        0.000        0.000        0.000        0.000        0.000      100.000        0.000        0.000        1.642        1.669        1.820
      70.000  -250474.293    27234.062    15388.044    37700.485       98.859  -377356.926    46461.183       26.370       25.980        2.981        3.015        3.070        3.254        3.188        2.883        2.695        2.571        2.690        2.609        2.507        2.521        2.928        2.975        3.159        3.015        0.490        1.000        1.000        0.000        0.000        2.000        5.000        0.000        0.000        0.000        1.000        0.000        0.000        0.000        1.000        0.000        2.000        0.000        0.000        0.000        0.000        0.000        0.000        0.000        0.000        0.000        1.000        0.000        1.000        2.000        6.000        0.000        1.000        0.000        0.000        0.000      100.000        0.000        0.000        1.499        1.525        1.693
      80.000  -249483.138    27728.709    15546.056    37512.113      111.072  -377229.647    46848.559       26.276       25.809        2.953        2.951        3.035        3.256        3.168        3.063        2.695        2.627        2.711        2.646        2.534        2.510        2.976        2.990        3.124        2.951        0.483        1.000        1.000        0.000        0.000        2.000        6.000        0.000        0.000        0.000        1.000        0.000        0.000        1.000        1.000        0.000        3.000        0.000        0.000        0.000        0.000        0.000        0.000        0.000        0.000        0.000        2.000        0.000        2.000        1.000        5.000        0.000        1.000        0.000        0.000        0.000      100.000        0.000        0.000        1.516        1.519        1.753
      90.000  -248572.339    27042.424    15305.682    37448.916      100.177  -374227.085    45757.547       26.178       25.758        2.986        2.968        3.088        3.239        3.172        2.962        2.725        2.649        2.729        2.672        2.507        2.463        2.935        2.966        3.141        2.906        0.491        1.000        1.000        0.000        1.000        2.000        4.000        0.000        0.000        0.000        0.000        0.000        0.000        0.000        1.000        0.000        2.000        0.000        0.000        0.000        0.000        0.000        0.000        0.000        0.000        1.000        3.000        0.000        2.000        1.000        7.000        0.000        2.000        0.000        0.000        0.000      100.000        0.000        0.000        1.544        1.551        1.791
     100.000  -249147.487    25640.413    15775.912    37669.337      133.580  -375435.759    47069.030       25.919       25.450        3.025        3.001        3.045        3.264        3.220        2.925        2.693        2.569        2.705        2.678        2.529        2.539        2.912        2.995        3.152        2.946        0.467        1.000        1.000        0.000        0.000        2.000        4.000        0.000        0.000        0.000        1.000        0.000        0.000        0.000        2.000        0.000        1.000        0.000        0.000        0.000        0.000        0.000        0.000        0.000        0.000        0.000        0.000        0.000        5.000        0.000        3.000        0.000        2.000        0.000        0.000        0.000      100.000        0.000        0.000        1.456        1.449        1.720
     110.000  -249299.862    26970.767    15148.360    37602.968      125.555  -374734.085    45586.572       25.936       25.574        2.952        2.945        3.086        3.228        3.200        3.031        2.694        2.631        2.706        2.636        2.556        2.501        2.932        2.979        3.109        3.020        0.509        1.000        1.000        0.000        0.000        2.000        4.000        0.000        0.000        0.000        0.000        0.000        0.000        0.000        2.000        0.000        1.000        0.000        0.000        0.000        0.000        0.000        0.000        0.000        0.000        0.000        1.000        0.000        1.000        0.000        5.000        0.000        2.000        0.000        0.000        0.000      100.000        0.000        0.000        1.327        1.354        1.658
     120.000  -248318.788    26070.191    15260.980    37735.860      100.657  -373722.762    46236.285       25.927       25.700        2.847        2.955        3.075        3.221        3.173        3.011        2.730        2.570        2.739        2.589        2.516        2.467        2.916        2.969        3.183        3.006        0.472        1.000        1.000        0.000        1.000        2.000        4.000        0.000        0.000        0.000        0.000        0.000        0.000        0.000        0.000        0.000        3.000        0.000        0.000        0.000        0.000        0.000        0.000        0.000        0.000        0.000        1.000        0.000        1.000        2.000       13.000        0.000        0.000        0.000        0.000        0.000      100.000        0.000        0.000        1.304        1.313        1.573
     130.000  -248136.889    26901.306    15426.673    37669.311      134.446  -374388.310    46119.687       26.012       25.979        2.935        2.944        3.082        3.226        3.239        3.072        2.696        2.585        2.714        2.728        2.593        2.534        2.934        2.955        3.159        2.921        0.461        1.000        1.000        0.000        0.000        2.000        3.000        0.000        0.000        1.000        0.000        0.000        0.000        0.000        1.000        0.000        2.000        0.000        0.000        0.000        0.000        0.000        0.000        0.000        0.000        0.000        0.000        0.000        3.000        0.000        2.000        0.000        1.000        0.000        0.000        0.000      100.000        0.000        0.000        1.567        1.602        1.754
     140.000  -248279.974    24920.519    15196.378    37655.881      110.413  -372498.417    46335.253       26.004       25.976        2.871        3.026        3.012        3.249        3.222        3.074        2.741        2.544        2.698        2.623        2.524        2.486        2.945        2.963        3.117        2.911        0.508        1.000        1.000        0.000        1.000        2.000        3.000        0.000        0.000        0.000        1.000        0.000        0.000        0.000        1.000        0.000        1.000        0.000        0.000        0.000        0.000        0.000        0.000        0.000        0.000        0.000        1.000        0.000        5.000        1.000        2.000        0.000        0.000        0.000        0.000        0.000      100.000        0.000        0.000        1.473        1.491        1.757
     150.000  -248272.359    26323.772    15406.333    37667.528       98.290  -373659.820    45891.537       26.157       26.075        2.849        3.010        3.057        3.231        3.278        3.072        2.698        2.518        2.731        2.741        2.486        2.557        2.983        2.928        3.190        3.026        0.492        2.000        1.000        0.000        1.000        2.000        5.000        0.000        0.000        0.000        0.000        0.000        0.000        1.000        0.000        0.000        0.000        0.000        0.000        0.000        0.000        0.000        0.000        0.000        0.000        0.000        1.000        0.000        0.000        0.000        4.000        0.000        1.000        0.000        0.000        0.000      100.000        0.000        0.000        1.796        1.825        2.051
     160.000  -247394.235    25377.061    15281.342    37777.907      126.749  -372821.906    46864.611       25.757       25.687        2.951        3.066        3.036        3.228        3.198        3.048        2.670        2.578        2.711        2.706        2.474        2.526        2.898        2.946        3.190        2.970        0.503        1.000        0.000        0.000        1.000        2.000        4.000        0.000        0.000        1.000        0.000        0.000        0.000        0.000        0.000        0.000        0.000        0.000        0.000        0.000        0.000        0.000        0.000        0.000        0.000        0.000        3.000        0.000        2.000        1.000        5.000        0.000        3.000        0.000        0.000        0.000      100.000        0.000        0.000        1.823        1.873        2.160
     170.000  -247482.165    25556.288    15181.148    37753.250       82.315  -371112.183    45057.017       25.995       25.860        2.931        2.984        3.074        3.286        3.172        3.071        2.696        2.537        2.701        2.668        2.489        2.510        2.896        2.918        3.138        2.934        0.488        2.000        0.000        0.000        1.000        2.000        4.000        0.000        0.000        0.000        1.000        0.000        0.000        0.000        2.000        0.000        1.000        0.000        0.000        0.000        0.000        0.000        0.000        0.000        0.000        1.000        4.000        0.000        2.000        1.000        5.000        0.000        3.000        0.000        0.000        0.000      100.000        0.000        0.000        1.952        1.993        2.218
     180.000  -247886.609    26225.876    15450.779    37611.841      114.177  -372517.820    45228.538       26.104       25.718        2.975        2.982        3.069        3.313        3.201        3.000        2.690        2.623        2.711        2.686        2.517        2.500        2.893        2.991        3.157        2.966        0.514        2.000        0.000        0.000        0.000        2.000        5.000        0.000        0.000        0.000        0.000        0.000        0.000        1.000        0.000        0.000        0.000        0.000        0.000        0.000        0.000        0.000        0.000        0.000        0.000        1.000        2.000        0.000        0.000        1.000        1.000        0.000        1.000        0.000        0.000        0.000      100.000        0.000        0.000        1.688        1.740        2.081
     190.000  -247574.649    24531.300    15295.410    37833.564       82.569  -371606.306    46288.814       25.857       25.664        2.926        2.968        3.059        3.290        3.126        3.024        2.743        2.574        2.645        2.711        2.482        2.497        2.925        2.973        3.165        2.967        0.488        2.000        0.000        0.000        0.000        2.000        5.000        0.000        0.000        0.000        1.000        0.000        0.000        0.000        1.000        0.000        2.000        0.000        0.000        0.000        0.000        0.000        0.000        0.000        0.000        0.000        0.000        0.000        0.000        1.000        3.000        0.000        0.000        0.000        0.000        0.000      100.000        0.000        0.000        1.404        1.451        1.887
     200.000  -247733.585    24588.426    15128.316    37791.759      122.211  -372210.786    46846.489       25.967       25.633        2.938        3.060        3.039        3.267        3.153        2.989        2.663        2.546        2.643        2.684        2.519        2.474        2.941        3.019        3.142        2.935        0.475        2.000        1.000        0.000        0.000        1.000        5.000        0.000        0.000        0.000        0.000        0.000        0.000        1.000        0.000        0.000        2.000        0.000        0.000        0.000        0.000        0.000        0.000        0.000        0.000        0.000        1.000        0.000        0.000        3.000        5.000        0.000        2.000        0.000        0.000        0.000      100.000        0.000        0.000        1.542        1.629        2.042
     210.000  -246939.337    24766.080    15059.419    37889.470       94.769  -370737.233    45988.156       26.026       25.698        3.012        2.992        3.069        3.236        3.165        3.097        2.696        2.622        2.651        2.675        2.535        2.475        2.881        3.001        3.205        2.950        0.508        2.000        1.000        0.000        0.000        1.000        6.000        0.000        0.000        0.000        0.000        0.000        0.000        0.000        1.000        0.000        0.000        0.000        0.000        0.000        0.000        0.000        0.000        0.000        0.000        1.000        1.000        0.000        1.000        2.000        4.000        0.000        1.000        0.000        0.000        0.000      100.000        0.000        0.000        1.730        1.767        2.122
     220.000  -247939.660    24899.019    14927.838    37655.327       90.638  -370411.140    44898.658       26.112       25.640        3.013        3.004        3.021        3.290        3.163        3.104        2.705        2.643        2.629        2.675        2.522        2.482        2.938        2.999        3.142        2.855        0.464        2.000        1.000        0.000        0.000        2.000        5.000        0.000        0.000        1.000        0.000        0.000        0.000        1.000        2.000        0.000        1.000        0.000        0.000        0.000        0.000        0.000        0.000        0.000        0.000        1.000        0.000        0.000        2.000        2.000        3.000        0.000        2.000        0.000        4.494        0.000       95.506        0.000        0.000        1.882        1.894        2.298
     230.000  -246820.537    25160.329    15503.479    37730.045      133.798  -369303.912    43955.723       26.206       25.809        2.892        2.977        3.072        3.258        3.159        3.032        2.708        2.574        2.642        2.681        2.515        2.515        2.961        3.078        3.192        3.013        0.472        2.000        2.000        0.000        0.000        2.000        5.000        0.000        0.000        0.000        0.000        0.000        0.000        1.000        0.000        0.000        0.000        0.000        0.000        0.000        0.000        0.000        0.000        0.000        0.000        1.000        2.000        0.000        1.000        2.000        4.000        0.000        2.000        0.000        0.000        0.000      100.000        0.000        0.000        2.221        2.256        2.542
     240.000  -246485.465    25231.852    14711.104    37865.840      115.090  -369362.439    44953.087       25.817       25.434        2.916        2.975        3.135        3.271        3.203        3.035        2.690        2.609        2.683        2.675        2.484        2.529        2.926        2.973        3.156        2.962        0.468        2.000        1.000        0.000        0.000        1.000        4.000        0.000        0.000        0.000        0.000        0.000        0.000        0.000        1.000        0.000        0.000        0.000        0.000        0.000        0.000        0.000        0.000        0.000        0.000        1.000        2.000        0.000        1.000        3.000        3.000        0.000        1.000        0.000        0.000        0.000      100.000        0.000        0.000        2.118        2.167        2.518
     250.000  -246923.281    25396.765    14974.077    37722.295      115.492  -370123.467    44991.557       26.066       25.809        2.969        2.957        3.101        3.271        3.237        2.964        2.700        2.551        2.708        2.609        2.509        2.486        2.984        3.025        3.187        2.886        0.479        2.000        1.000        0.000        0.000        2.000        5.000        0.000        0.000        1.000        0.000        0.000        0.000        0.000        1.000        0.000        0.000        0.000        0.000        0.000        0.000        0.000        0.000        0.000        0.000        0.000        1.000        0.000        1.000        2.000        6.000        0.000        2.000        0.000        0.000        0.000      100.000        0.000        0.000        2.028        2.101        2.353
     260.000  -246590.073    24419.530    15265.492    37852.313      108.611  -370912.073    46676.054       25.839       25.925        2.976        2.936        3.110        3.297        3.245        3.039        2.707        2.564        2.672        2.712        2.548        2.520        3.004        3.000        3.152        2.941        0.458        1.000        1.000        0.000        0.000        2.000        4.000        0.000        0.000        1.000        0.000        0.000        0.000        1.000        0.000        0.000        1.000        0.000        0.000        0.000        0.000        0.000        0.000        0.000        0.000        0.000        1.000        0.000        2.000        2.000        7.000        0.000        2.000        0.000        0.000        0.000      100.000        0.000        0.000        2.047        2.086        2.320
     270.000  -246901.393    26175.474    14941.391    37834.478      114.262  -370296.838    44329.841       25.907       25.969        2.937        3.025        3.107        3.272        3.182        3.024        2.657        2.667        2.637        2.705        2.510        2.504        3.001        3.043        3.216        2.982        0.476        1.000        0.000        0.000        1.000        2.000        5.000        0.000        0.000        0.000        0.000        0.000        0.000        0.000        1.000        0.000        0.000        0.000        0.000        0.000        0.000        0.000        0.000        0.000        0.000        0.000        2.000        0.000        2.000        1.000        6.000        0.000        3.000        0.000        0.000        0.000      100.000        0.000        0.000        1.629        1.696        1.992
     280.000  -246963.620    25417.412    14705.215    37701.031      154.947  -369550.388    44608.164       25.920       25.851        2.893        2.959        2.992        3.284        3.180        2.983        2.652        2.597        2.712        2.694        2.490        2.509        2.895        2.999        3.191        2.952        0.484        1.000        0.000        0.000        0.000        2.000        4.000        0.000        0.000        0.000        0.000        0.000        0.000        0.000        0.000        0.000        0.000        0.000        0.000        0.000        0.000        0.000        0.000        0.000        0.000        0.000        4.000        0.000        2.000        0.000        5.000        0.000        3.000        0.000        0.000        0.000      100.000        0.000        0.000        1.672        1.695        2.021
     290.000  -247120.107    25038.609    14987.707    37952.035      110.419  -370612.021    45403.143       25.862       25.645        2.955        3.010        3.042        3.204        3.229        2.913        2.665        2.596        2.657        2.687        2.528        2.528        2.872        2.972        3.162        2.941        0.474        1.000        1.000        0.000        0.000        1.000        5.000        0.000        0.000        0.000        0.000        0.000        0.000        0.000        0.000        0.000        0.000        0.000        0.000        0.000        0.000        0.000        0.000        0.000        0.000        1.000        3.000        0.000        0.000        1.000        3.000        0.000        2.000        0.000        0.000        0.000      100.000        0.000        0.000        1.677        1.745        2.091
     300.000  -246586.177    25263.769    14518.814    37731.407      118.424  -368946.689    44728.098       25.725       25.917        2.945        3.019        3.093        3.263        3.223        2.936        2.662        2.545        2.668        2.681        2.544        2.529        2.909        2.984        3.146        2.917        0.495        1.000        0.000        0.000        0.000        1.000        7.000        0.000        0.000        0.000        0.000        0.000        0.000        0.000        0.000        0.000        1.000        0.000        0.000        0.000        0.000        0.000        0.000        0.000        0.000        2.000        5.000        0.000        2.000        1.000        3.000        0.000        3.000        0.000        0.000        0.000      100.000        0.000        0.000        1.584        1.644        2.024
     310.000  -246814.944    25339.866    14746.083    37731.750      109.282  -369364.323    44622.399       25.699       25.797        3.004        2.946        3.126        3.255        3.184        2.960        2.679        2.613        2.696        2.700        2.555        2.524        2.898        3.062        3.192        3.067        0.494        1.000        0.000        0.000        0.000        1.000        7.000        0.000        0.000        0.000        0.000        0.000        0.000        0.000        0.000        0.000        1.000        0.000        0.000        0.000        0.000        0.000        0.000        0.000        0.000        0.000        2.000        0.000        2.000        2.000        7.000        0.000        1.000        0.000        0.000        0.000      100.000        0.000        0.000        1.523        1.602        2.121
     320.000  -246111.875    24124.817    15234.215    37676.802      117.812  -369286.578    46021.057       25.823       25.703        2.957        2.928        3.094        3.294        3.148        2.971        2.700        2.592        2.681        2.689        2.527        2.517        2.936        2.995        3.181        2.964        0.510        1.000        0.000        0.000        0.000        2.000        7.000        0.000        0.000        0.000        0.000        0.000        0.000        0.000        1.000        0.000        1.000        0.000        0.000        0.000        0.000        0.000        0.000        0.000        0.000        1.000        4.000        0.000        0.000        2.000        4.000        0.000        1.000        0.000        0.000        0.000      100.000        0.000        0.000        1.665        1.732        2.231
     330.000  -247162.513    25378.396    14864.319    37614.091      102.384  -369874.987    44753.283       25.966       25.653        2.948        2.952        3.080        3.252        3.242        3.039        2.678        2.578        2.693        2.697        2.549        2.575        2.931        3.019        3.222        3.018        0.502        2.000        0.000        0.000        0.000        2.000        5.000        0.000        0.000        0.000        0.000        0.000        0.000        0.000        1.000        0.000        1.000        0.000        0.000        0.000        0.000        0.000        0.000        0.000        0.000        0.000        4.000        0.000        4.000        1.000        8.000        0.000        3.000        0.000        0.000        0.000      100.000        0.000        0.000        1.921        1.953        2.470
     340.000  -245736.881    25452.770    14849.835    37777.238      122.637  -368557.039    44617.678       26.005       25.815        3.039        2.981        3.086        3.230        3.160        2.990        2.704        2.595        2.662        2.694        2.518        2.501        2.970        2.991        3.145        2.987        0.482        1.000        0.000        0.000        0.000        2.000        6.000        0.000        0.000        0.000        0.000        0.000        0.000        0.000        2.000        0.000        2.000        0.000        0.000        0.000        0.000        0.000        0.000        0.000        0.000        0.000        1.000        0.000        1.000        1.000        9.000        0.000        1.000        0.000        0.000        0.000      100.000        0.000        0.000        1.676        1.719        2.377
     350.000  -246165.386    25172.977    15004.597    37684.308       88.910  -369698.111    45581.932       26.372       26.265        3.068        2.885        3.057        3.238        3.168        2.962        2.662        2.639        2.676        2.706        2.512        2.550        2.966        3.052        3.133        2.997        0.487        1.000        0.000        0.000        0.000        2.000        6.000        0.000        0.000        0.000        0.000        0.000        0.000        0.000        2.000        0.000        1.000        0.000        0.000        0.000        0.000        0.000        0.000        0.000        0.000        0.000        6.000        0.000        2.000        2.000        6.000        0.000        0.000        0.000        0.000        0.000      100.000        0.000        0.000        1.884        1.897        2.510
     360.000  -245947.011    25352.013    14485.805    37861.269      127.175  -367582.263    43808.990       26.107       26.074        2.963        2.974        3.063        3.249        3.210        2.966        2.718        2.607        2.685        2.682        2.539        2.574        2.950        2.997        3.163        2.917        0.484        1.000        0.000        0.000        0.000        1.000        7.000        0.000        0.000        0.000        0.000        0.000        0.000        0.000        2.000        0.000        1.000        0.000        0.000        0.000        0.000        0.000        0.000        0.000        0.000        1.000        4.000        0.000        0.000        0.000        3.000        0.000        1.000        0.000        0.000        0.000      100.000        0.000        0.000        2.132        2.194        2.690
     370.000  -245961.805    24072.760    14470.648    37671.118      121.464  -368441.257    46143.462       25.940       25.979        3.070        3.042        3.024        3.246        3.241        3.078        2.714        2.571        2.725        2.716        2.491        2.481        2.931        2.988        3.144        3.013        0.495        2.000        0.000        0.000        0.000        2.000        6.000        0.000        0.000        0.000        0.000        0.000        0.000        0.000        0.000        0.000        2.000        0.000        0.000        0.000        0.000        0.000        0.000        0.000        0.000        1.000        9.000        0.000        4.000        2.000        8.000        0.000        1.000        0.000        0.000        0.000      100.000        0.000        0.000        2.254        2.300        2.904
     380.000  -246289.012    25129.493    14549.707    37687.900      124.260  -369189.351    45408.979       26.164       26.059        2.994        2.980        3.018        3.268        3.185        2.965        2.682        2.611        2.674        2.725        2.490        2.448        2.989        3.011        3.184        2.983        0.504        2.000        0.000        0.000        0.000        1.000        7.000        0.000        0.000        0.000        0.000        0.000        0.000        0.000        0.000        0.000        1.000        0.000        0.000        0.000        0.000        0.000        0.000        0.000        0.000        0.000        4.000        0.000        4.000        2.000        7.000        0.000        1.000        0.000        4.494        0.000       95.506        0.000        0.000        2.429        2.472        3.000
     390.000  -246310.521    24579.209    14299.768    37735.932      136.304  -369932.940    46871.206       26.205       25.856        3.039        3.033        3.106        3.266        3.153        3.016        2.683        2.589        2.664        2.680        2.533        2.506        3.002        2.963        3.174        3.024        0.478        2.000        0.000        0.000        0.000        1.000        5.000        0.000        0.000        0.000        0.000        0.000        0.000        0.000        0.000        0.000        1.000        0.000        0.000        0.000        0.000        0.000        0.000        0.000        0.000        0.000        3.000        0.000        2.000        1.000        6.000        0.000        3.000        0.000        0.000        0.000      100.000        0.000        0.000        2.114        2.107        2.596
     400.000  -245984.243    25328.562    14506.891    37638.910      114.581  -367223.301    43650.113       26.204       25.973        2.926        2.933        3.103        3.284        3.150        2.975        2.680        2.565        2.710        2.713        2.520        2.523        2.914        3.020        3.143        3.023        0.503        1.000        0.000        0.000        0.000        2.000        6.000        0.000        0.000        0.000        0.000        0.000        0.000        0.000        1.000        0.000        1.000        0.000        0.000        0.000        0.000        0.000        0.000        0.000        0.000        0.000        1.000        0.000        1.000        0.000        5.000        0.000        1.000        0.000        0.000        0.000      100.000        0.000        0.000        2.046        2.035        2.631
     410.000  -246452.196    24758.758    14733.811    37656.101      130.363  -368312.364    44581.136       25.920       25.920        2.949        2.930        3.013        3.269        3.159        2.987        2.706        2.589        2.696        2.708        2.530        2.567        2.947        2.994        3.123        2.989        0.476        1.000        0.000        0.000        0.000        1.000        7.000        0.000        0.000        0.000        0.000        0.000        0.000        1.000        1.000        0.000        3.000        0.000        0.000        0.000        0.000        0.000        0.000        0.000        0.000        0.000        2.000        0.000        1.000        0.000        5.000        0.000        2.000        0.000        0.000        0.000      100.000        0.000        0.000        2.085        2.112        2.662
     420.000  -246519.538    25409.394    14592.433    37748.004      117.871  -368191.844    43804.604       26.384       26.303        2.958        2.981        3.098        3.264        3.187        3.001        2.693        2.589        2.704        2.693        2.525        2.541        2.923        2.999        3.164        2.974        0.468        2.000        0.000        0.000        0.000        2.000        6.000        0.000        0.000        0.000        0.000        0.000        0.000        0.000        0.000        0.000        2.000        0.000        0.000        0.000        0.000        0.000        0.000        0.000        0.000        1.000        4.000        0.000        2.000        1.000        3.000        0.000        2.000        0.000        0.000        0.000      100.000        0.000        0.000        2.332        2.311        2.983
     430.000  -245753.538    24799.600    14876.381    37867.985      128.700  -367924.171    44497.969       26.396       26.271        2.980        2.994        3.057        3.266        3.200        2.973        2.626        2.612        2.716        2.690        2.520        2.492        2.938        3.002        3.101        2.932        0.478        1.000        0.000        0.000        0.000        1.000        7.000        0.000        0.000        0.000        0.000        0.000        0.000        0.000        1.000        0.000        3.000        0.000        0.000        0.000        0.000        0.000        0.000        0.000        0.000        0.000        6.000        0.000        4.000        1.000        3.000        0.000        2.000        0.000        0.000        0.000      100.000        0.000        0.000        2.384        2.382        2.981
     440.000  -246148.286    24997.855    14831.446    37888.052      109.092  -369089.514    45114.783       26.348       26.161        2.889        2.983        3.080        3.269        3.218        2.926        2.668        2.540        2.702        2.667        2.506        2.459        2.986        2.956        3.323        3.009        0.493        1.000        0.000        0.000        0.000        2.000        4.000        0.000        0.000        0.000        0.000        0.000        0.000        0.000        4.000        0.000        0.000        0.000        0.000        0.000        0.000        0.000        0.000        0.000        0.000        1.000        2.000        0.000        4.000        1.000        1.000        0.000        2.000        0.000        0.000        0.000      100.000        0.000        0.000        2.229        2.206        2.874
     450.000  -245715.705    24543.380    14769.185    37556.939      100.778  -367686.683    45000.695       26.221       26.010        3.008        2.939        3.086        3.213        3.182        3.043        2.652        2.595        2.675        2.630        2.494        2.540        2.908        2.994        3.301        2.997        0.503        2.000        0.000        0.000        0.000        1.000        5.000        0.000        0.000        0.000        0.000        0.000        0.000        0.000        1.000        0.000        0.000        0.000        0.000        0.000        0.000        0.000        0.000        0.000        0.000        2.000        2.000        0.000        0.000        0.000        6.000        0.000        1.000        0.000        4.494        0.000       95.506        0.000        0.000        2.275        2.280        2.645
     460.000  -245999.680    24365.140    14683.801    37746.753      119.666  -367760.723    44845.682       26.220       25.989        2.972        2.934        3.050        3.324        3.161        3.057        2.651        2.583        2.685        2.715        2.501        2.518        2.930        3.008        3.276        2.957        0.486        1.000        1.000        0.000        0.000        2.000        4.000        0.000        0.000        0.000        0.000        0.000        0.000        0.000        1.000        0.000        1.000        0.000        0.000        0.000        0.000        0.000        0.000        0.000        0.000        1.000        4.000        0.000        3.000        1.000        7.000        0.000        3.000        0.000        0.000        0.000      100.000        0.000        0.000        2.454        2.462        2.914
     470.000  -245710.863    24412.843    14500.354    37869.939      104.913  -367298.901    44699.989       26.067       25.680        2.965        2.892        3.103        3.242        3.194        3.019        2.680        2.615        2.706        2.687        2.494        2.482        2.922        2.996        3.209        2.949        0.483        1.000        0.000        0.000        0.000        2.000        5.000        0.000        0.000        0.000        0.000        0.000        0.000        0.000        1.000        0.000        0.000        0.000        0.000        0.000        0.000        0.000        0.000        0.000        0.000        1.000        3.000        0.000        2.000        0.000        7.000        0.000        3.000        0.000        0.000        0.000      100.000        0.000        0.000        1.970        1.982        2.483
     480.000  -245632.348    23906.286    14661.625    37820.069      102.174  -368584.410    46461.909       25.974       25.886        2.995        2.989        3.077        3.272        3.153        3.037        2.703        2.583        2.678        2.682        2.556        2.508        3.029        2.982        3.235        2.923        0.494        1.000        1.000        0.000        0.000        2.000        4.000        0.000        0.000        0.000        0.000        0.000        0.000        0.000        1.000        0.000        1.000        0.000        0.000        0.000        0.000        0.000        0.000        0.000        0.000        0.000        3.000        0.000        2.000        1.000        3.000        0.000        1.000        0.000        7.865        0.000       92.135        0.000        0.000        1.858        1.909        2.234
     490.000  -246149.577    24302.451    15236.482    37610.900      113.242  -368652.158    45239.507       26.090       26.045        3.002        2.921        3.024        3.207        3.193        3.106        2.637        2.593        2.628        2.699        2.508        2.499        2.904        2.995        3.266        2.882        0.472        2.000        0.000        0.000        0.000        2.000        5.000        0.000        0.000        0.000        0.000        0.000        0.000        0.000        0.000        0.000        1.000        0.000        0.000        0.000        0.000        0.000        0.000        0.000        0.000        0.000        4.000        0.000        2.000        1.000        4.000        0.000        1.000        0.000        0.000        0.000      100.000        0.000        0.000        2.373        2.431        2.700
     500.000  -245949.261    24837.663    14862.199    37436.329       91.707  -368487.499    45310.341       26.327       26.106        3.079        2.962        3.074        3.278        3.216        2.993        2.690        2.626        2.626        2.741        2.516        2.558        2.904        3.022        3.287        2.945        0.478        2.000        0.000        0.000        0.000        2.000        6.000        0.000        0.000        0.000        0.000        0.000        0.000        0.000        1.000        0.000        1.000        0.000        0.000        0.000        0.000        0.000        0.000        0.000        0.000        1.000        5.000        0.000        1.000        1.000        5.000        0.000        0.000        0.000        4.494        0.000       95.506        0.000        0.000        2.227        2.309        2.524
     510.000  -245643.276    23716.718    14751.826    37550.668      102.522  -368376.725    46611.716       26.170       25.920        3.081        2.997        3.081        3.236        3.164        3.025        2.690        2.607        2.701        2.709        2.504        2.549        2.904        2.983        3.240        3.009        0.472        2.000        0.000        0.000        0.000        2.000        4.000        0.000        0.000        0.000        0.000        0.000        0.000        0.000        0.000        0.000        1.000        0.000        0.000        0.000        0.000        0.000        0.000        0.000        0.000        1.000        3.000        0.000        1.000        0.000        4.000        0.000        2.000        0.000        0.000        0.000      100.000        0.000        0.000        2.274        2.353        2.590
     520.000  -245597.767    24902.370    14473.460    37522.312      104.594  -366896.975    44296.472       26.364       26.191        3.038        3.013        3.109        3.262        3.206        2.969        2.698        2.568        2.672        2.705        2.516        2.545        2.945        3.069        3.230        2.990        0.488        1.000        0.000        0.000        0.000        1.000        6.000        0.000        0.000        0.000        0.000        0.000        0.000        0.000        1.000        0.000        0.000        0.000        0.000        0.000        0.000        0.000        0.000        0.000        0.000        2.000        6.000        0.000        2.000        1.000        8.000        0.000        1.000        0.000        0.000        0.000      100.000        0.000        0.000        2.305        2.377        2.602
     530.000  -246033.294    23959.855    14888.274    37643.695      119.302  -368394.958    45750.537       25.933       25.661        3.018        3.108        3.082        3.245        3.136        2.953        2.717        2.547        2.713        2.705        2.495        2.483        2.942        3.017        3.277        2.989        0.483        1.000        0.000        0.000        0.000        1.000        5.000        0.000        0.000        0.000        0.000        0.000        0.000        0.000        1.000        0.000        1.000        0.000        0.000        0.000        0.000        0.000        0.000        0.000        0.000        1.000        4.000        0.000        2.000        2.000       10.000        0.000        0.000        0.000        0.000        0.000      100.000        0.000        0.000        2.013        2.085        2.418
     540.000  -245332.550    25155.157    14754.059    37646.202      152.498  -366926.586    43886.120       25.866       25.671        3.013        3.123        3.078        3.217        3.171        2.937        2.723        2.536        2.670        2.703        2.549        2.486        2.929        3.017        3.208        2.952        0.464        1.000        0.000        0.000        0.000        1.000        6.000        0.000        0.000        0.000        0.000        0.000        0.000        0.000        1.000        0.000        0.000        0.000        0.000        0.000        0.000        0.000        0.000        0.000        0.000        1.000        2.000        0.000        2.000        1.000        8.000        0.000        2.000        0.000        0.000        0.000      100.000        0.000        0.000        1.919        1.958        2.412
     550.000  -245616.347    24231.672    14888.087    37633.250      102.721  -366234.761    43762.683       26.078       26.110        3.058        3.109        3.034        3.294        3.168        3.014        2.652        2.606        2.696        2.700        2.549        2.495        2.820        3.052        3.247        2.978        0.505        1.000        0.000        0.000        0.000        1.000        5.000        0.000        0.000        0.000        0.000        0.000        0.000        0.000        1.000        0.000        1.000        0.000        0.000        0.000        0.000        0.000        0.000        0.000        0.000        0.000        4.000        0.000        2.000        2.000        2.000        0.000        2.000        0.000        0.000        0.000      100.000        0.000        0.000        2.062        2.090        2.503
     560.000  -245287.996    23864.375    14355.533    37825.971      130.625  -365873.329    44408.828       25.778       25.852        3.066        3.124        3.070        3.260        3.186        3.082        2.623        2.531        2.706        2.674        2.520        2.515        2.929        3.013        3.271        2.902        0.488        1.000        0.000        0.000        0.000        1.000        4.000        0.000        0.000        0.000        0.000        0.000        0.000        0.000        2.000        0.000        0.000        0.000        0.000        0.000        0.000        0.000        0.000        0.000        0.000        1.000        6.000        0.000        0.000        1.000        5.000        0.000        2.000        0.000        0.000        0.000      100.000        0.000        0.000        2.817        2.889        3.025
     570.000  -245590.358    25239.646    15148.615    37590.685      129.749  -366684.468    42985.415       25.684       26.103        3.025        3.060        3.126        3.224        3.151        3.078        2.651        2.562        2.663        2.621        2.511        2.504        2.973        2.982        3.244        2.914        0.494        1.000        0.000        0.000        0.000        1.000        5.000        0.000        0.000        0.000        0.000        0.000        0.000        1.000        1.000        0.000        0.000        0.000        0.000        0.000        0.000        0.000        0.000        0.000        0.000        1.000        1.000        0.000        2.000        4.000        2.000        0.000        1.000        0.000        0.000        0.000      100.000        0.000        0.000        3.092        3.159        3.263
     580.000  -245597.172    25393.953    14499.420    37575.591      105.410  -366717.666    43546.119       26.065       26.335        3.077        3.063        3.094        3.231        3.153        3.081        2.651        2.566        2.686        2.667        2.532        2.523        2.858        3.022        3.235        2.973        0.482        1.000        1.000        0.000        1.000        0.000        5.000        0.000        0.000        0.000        0.000        0.000        0.000        0.000        0.000        0.000        0.000        0.000        0.000        0.000        0.000        0.000        0.000        0.000        0.000        1.000        2.000        0.000        2.000        3.000        3.000        0.000        6.000        0.000        0.000        0.000      100.000        0.000        0.000        2.990        3.039        3.254
     590.000  -245564.818    24710.469    14576.472    37864.515      117.852  -366589.003    43754.879       26.150       26.167        3.061        2.963        3.083        3.270        3.134        2.991        2.669        2.613        2.650        2.634        2.481        2.546        2.869        3.050        3.273        2.888        0.490        2.000        2.000        0.000        0.000        1.000        5.000        0.000        0.000        0.000        0.000        0.000        0.000        0.000        0.000        0.000        0.000        0.000        0.000        0.000        0.000        0.000        0.000        0.000        0.000        1.000        0.000        0.000        3.000        2.000        1.000        0.000        4.000        0.000        0.000        0.000      100.000        0.000        0.000        2.914        2.959        3.202
     600.000  -245302.114    23596.739    14556.609    37811.662      112.274  -367958.514    46579.116       25.848       25.958        3.155        2.996        2.993        3.258        3.173        2.919        2.685        2.584        2.639        2.696        2.513        2.476        2.925        3.013        3.291        2.925        0.484        1.000        0.000        0.000        0.000        1.000        5.000        0.000        0.000        0.000        0.000        0.000        0.000        0.000        0.000        0.000        1.000        0.000        0.000        0.000        0.000        0.000        0.000        0.000        0.000        2.000        1.000        0.000        1.000        0.000        1.000        0.000        4.000        0.000        0.000        0.000      100.000        0.000        0.000        2.541        2.587        2.828
     610.000  -245335.702    24848.318    14391.258    37683.554      125.184  -366399.878    44015.863       25.790       25.811        3.026        3.036        3.067        3.281        3.221        2.945        2.717        2.584        2.681        2.660        2.533        2.539        2.855        3.012        3.238        2.963        0.472        1.000        0.000        0.000        0.000        0.000        6.000        0.000        0.000        0.000        0.000        0.000        0.000        1.000        1.000        0.000        1.000        0.000        0.000        0.000        0.000        0.000        0.000        0.000        0.000        1.000        2.000        0.000        1.000        2.000        9.000        0.000        3.000        0.000        0.000        0.000      100.000        0.000        0.000        2.634        2.685        2.919
     620.000  -246562.806    24202.318    14803.356    37921.614      134.655  -367662.954    44038.205       25.796       25.994        3.064        3.043        3.100        3.260        3.190        3.075        2.704        2.538        2.717        2.619        2.491        2.487        2.965        3.056        3.313        2.960        0.472        1.000        1.000        0.000        0.000        0.000        5.000        0.000        0.000        0.000        0.000        0.000        1.000        1.000        1.000        0.000        3.000        0.000        0.000        0.000        0.000        0.000        0.000        0.000        0.000        2.000        4.000        0.000        1.000        2.000        3.000        0.000        4.000        0.000        4.494        0.000       95.506        0.000        0.000        2.968        3.008        3.295
     630.000  -246347.790    24986.023    14574.706    37742.963      109.273  -368723.053    44962.298       25.570       25.977        3.046        2.923        3.038        3.254        3.216        2.926        2.691        2.609        2.687        2.694        2.544        2.530        2.976        3.060        3.284        3.033        0.484        1.000        0.000        0.000        0.000        1.000        4.000        0.000        0.000        0.000        0.000        0.000        0.000        0.000        1.000        0.000        1.000        0.000        0.000        0.000        0.000        0.000        0.000        0.000        0.000        0.000        1.000        0.000        1.000        2.000        3.000        0.000        4.000        0.000        0.000        0.000      100.000        0.000        0.000        2.553        2.593        2.979
     640.000  -246124.202    23763.868    14858.964    37824.844      134.088  -367832.454    45126.489       25.774       26.118        3.040        2.928        3.050        3.260        3.121        2.916        2.646        2.599        2.631        2.647        2.530        2.526        2.968        3.022        3.262        2.923        0.471        2.000        0.000        0.000        0.000        1.000        6.000        0.000        0.000        0.000        0.000        0.000        0.000        0.000        1.000        0.000        2.000        0.000        0.000        0.000        0.000        0.000        0.000        0.000        0.000        1.000        3.000        0.000        0.000        1.000        3.000        0.000        0.000        0.000        0.000        0.000      100.000        0.000        0.000        2.415        2.460        2.700
     650.000  -245980.987    23779.571    14570.630    37801.061      125.516  -367951.648    45693.883       25.849       26.157        2.996        3.095        3.036        3.251        3.202        3.008        2.694        2.569        2.689        2.660        2.550        2.499        2.935        3.037        3.264        2.853        0.483        1.000        0.000        0.000        1.000        1.000        6.000        0.000        0.000        0.000        0.000        0.000        0.000        0.000        1.000        0.000        1.000        0.000        0.000        0.000        0.000        0.000        0.000        0.000        0.000        0.000        0.000        0.000        3.000        2.000        3.000        0.000        5.000        0.000        0.000        0.000      100.000        0.000        0.000        2.163        2.211        2.413
     660.000  -244941.987    23603.633    14849.259    37661.836       94.873  -367246.814    46095.226       25.779       26.029        3.004        3.024        3.122        3.266        3.201        2.900        2.687        2.544        2.702        2.663        2.547        2.481        2.934        3.027        3.231        2.996        0.489        1.000        0.000        0.000        0.000        1.000        5.000        0.000        0.000        0.000        0.000        0.000        1.000        0.000        0.000        0.000        0.000        0.000        0.000        0.000        0.000        0.000        0.000        0.000        0.000        1.000        6.000        0.000        0.000        1.000        3.000        0.000        0.000        0.000        0.000        0.000      100.000        0.000        0.000        2.204        2.252        2.500
     670.000  -245466.323    23512.818    14698.866    37803.778      110.840  -367488.453    45895.827       25.971       26.271        3.046        2.985        3.051        3.277        3.177        2.928        2.687        2.535        2.671        2.616        2.490        2.517        2.951        3.028        3.232        2.853        0.482        2.000        0.000        0.000        1.000        0.000        5.000        0.000        0.000        0.000        0.000        0.000        1.000        0.000        1.000        0.000        2.000        0.000        0.000        0.000        0.000        0.000        0.000        0.000        0.000        2.000        3.000        0.000        3.000        2.000        2.000        0.000        1.000        0.000        0.000        0.000      100.000        0.000        0.000        2.147        2.170        2.435
     680.000  -246051.590    24251.825    14228.184    37696.403      111.773  -367302.769    44962.994       26.067       26.104        3.116        3.049        3.089        3.272        3.198        2.933        2.733        2.547        2.695        2.648        2.540        2.503        2.941        3.030        3.265        2.948        0.476        1.000        0.000        0.000        0.000        1.000        3.000        0.000        0.000        0.000        0.000        0.000        0.000        0.000        2.000        0.000        1.000        0.000        0.000        0.000        0.000        0.000        0.000        0.000        0.000        1.000        3.000        0.000        1.000        3.000        8.000        0.000        1.000        0.000        0.000        0.000      100.000        0.000        0.000        2.013        2.028        2.447
     690.000  -245827.508    24915.796    14454.371    37853.710      124.877  -366047.186    42870.924       25.885       25.884        3.172        2.981        3.085        3.289        3.258        2.922        2.637        2.535        2.711        2.655        2.509        2.521        2.965        3.054        3.261        3.021        0.492        1.000        1.000        0.000        0.000        1.000        3.000        0.000        0.000        0.000        1.000        0.000        1.000        0.000        0.000        0.000        2.000        0.000        0.000        0.000        0.000        0.000        0.000        0.000        0.000        0.000        2.000        0.000        2.000        2.000        3.000        0.000        2.000        0.000        0.000        0.000      100.000        0.000        0.000        1.954        1.970        2.319
     700.000  -245260.983    24323.071    14516.939    37591.572      118.242  -366334.891    44524.084       25.941       26.031        3.035        3.011        3.179        3.245        3.248        2.946        2.647        2.567        2.707        2.648        2.501        2.417        2.906        3.025        3.240        2.990        0.490        2.000        0.000        0.000        0.000        0.000        3.000        0.000        0.000        0.000        0.000        0.000        0.000        0.000        0.000        0.000        3.000        0.000        0.000        0.000        0.000        0.000        0.000        0.000        0.000        0.000        4.000        0.000        2.000        1.000        2.000        0.000        2.000        0.000        0.000        0.000      100.000        0.000        0.000        2.077        2.093        2.507
     710.000  -245002.216    24041.426    14785.282    37940.645       91.631  -367131.832    45270.632       25.835       25.748        3.102        3.034        3.103        3.264        3.216        3.017        2.635        2.544        2.663        2.671        2.445        2.525        2.999        2.968        3.272        2.943        0.506        2.000        0.000        0.000        0.000        0.000        3.000        0.000        0.000        0.000        0.000        0.000        0.000        0.000        0.000        0.000        1.000        0.000        0.000        0.000        0.000        0.000        0.000        0.000        0.000        3.000        3.000        0.000        3.000        2.000        3.000        0.000        2.000        0.000        0.000        0.000      100.000        0.000        0.000        1.800        1.828        2.227
     720.000  -245664.543    23604.773    14702.517    37689.172      101.930  -366489.967    44727.032       26.135       26.127        3.018        3.014        3.084        3.225        3.234        3.015        2.677        2.565        2.726        2.638        2.476        2.499        2.836        2.949        3.271        2.968        0.471        1.000        0.000        0.000        0.000        0.000        4.000        0.000        0.000        0.000        0.000        0.000        0.000        0.000        1.000        0.000        1.000        0.000        0.000        0.000        0.000        0.000        0.000        0.000        0.000        0.000        3.000        0.000        0.000        1.000        5.000        0.000        0.000        0.000        0.000        0.000      100.000        0.000        0.000        1.742        1.765        2.274
     730.000  -245035.915    24937.812    14979.927    37639.720      134.727  -366631.557    43903.455       25.909       25.954        2.807        2.971        3.091        3.249        3.228        3.139        2.712        2.541        2.697        2.742        2.449        2.547        2.898        3.010        3.243        3.100        0.489        1.000        0.000        0.000        0.000        0.000        5.000        0.000        0.000        0.000        0.000        0.000        0.000        0.000        0.000        0.000        1.000        0.000        0.000        0.000        0.000        0.000        0.000        0.000        0.000        1.000        3.000        0.000        1.000        0.000        5.000        0.000        1.000        0.000        0.000        0.000      100.000        0.000        0.000        1.627        1.643        2.243
     740.000  -245320.570    23430.901    14761.214    37906.157      140.250  -367101.406    45542.315       25.831       25.913        2.808        2.907        3.021        3.222        3.178        2.999        2.703        2.564        2.648        2.676        2.459        2.529        2.850        3.073        3.250        2.934        0.517        1.000        0.000        0.000        0.000        0.000        5.000        0.000        0.000        0.000        0.000        0.000        0.000        0.000        1.000        0.000        0.000        0.000        0.000        0.000        0.000        0.000        0.000        0.000        0.000        1.000        4.000        0.000        0.000        1.000        4.000        0.000        1.000        0.000        0.000        0.000      100.000        0.000        0.000        1.683        1.693        2.334
     750.000  -245705.743    23970.977    14704.794    37722.872      102.050  -366183.050    43976.613       26.146       25.996        3.013        2.944        3.078        3.256        3.205        3.062        2.673        2.583        2.654        2.688        2.464        2.536        2.913        2.987        3.278        2.950        0.468        2.000        1.000        0.000        0.000        0.000        4.000        0.000        0.000        0.000        0.000        0.000        0.000        0.000        1.000        0.000        1.000        0.000        0.000        0.000        0.000        0.000        0.000        0.000        0.000        3.000        2.000        0.000        1.000        1.000        1.000        0.000        2.000        0.000        0.000        0.000      100.000        0.000        0.000        2.064        2.057        2.649
     760.000  -246158.718    24754.076    14740.497    37868.706      118.880  -368305.189    44664.311       26.391       26.267        3.073        3.065        3.038        3.237        3.236        3.057        2.692        2.468        2.701        2.681        2.497        2.508        2.942        2.979        3.217        2.904        0.468        2.000        0.000        0.000        0.000        0.000        4.000        0.000        0.000        0.000        0.000        0.000        0.000        0.000        2.000        0.000        0.000        0.000        0.000        0.000        0.000        0.000        0.000        0.000        0.000        1.000        3.000        0.000        3.000        1.000        6.000        0.000        0.000        0.000        0.000        0.000      100.000        0.000        0.000        2.148        2.143        2.624
     770.000  -245323.057    23212.827    14748.429    38081.764      135.808  -367066.684    45564.800       25.880       25.977        3.046        3.042        3.087        3.256        3.201        3.039        2.692        2.537        2.646        2.678        2.470        2.529        2.958        2.987        3.230        2.950        0.487        1.000        0.000        0.000        0.000        0.000        3.000        0.000        0.000        0.000        0.000        0.000        0.000        0.000        0.000        0.000        1.000        0.000        0.000        0.000        0.000        0.000        0.000        0.000        0.000        1.000        1.000        0.000        0.000        3.000       11.000        0.000        2.000        0.000        0.000        0.000      100.000        0.000        0.000        1.856        1.832        2.553
     780.000  -245461.135    24242.936    14621.177    37702.427      142.392  -367127.523    44957.458       26.296       26.060        3.070        3.115        3.060        3.256        3.209        2.988        2.698        2.542        2.682        2.723        2.427        2.515        2.897        3.010        3.212        2.932        0.477        1.000        0.000        0.000        0.000        0.000        3.000        0.000        0.000        0.000        1.000        0.000        0.000        0.000        1.000        0.000        1.000        0.000        0.000        0.000        0.000        0.000        0.000        0.000        0.000        1.000        2.000        0.000        0.000        1.000        7.000        0.000        4.000        0.000        0.000        0.000      100.000        0.000        0.000        1.752        1.764        2.266
     790.000  -245408.582    24711.772    14989.674    37716.868      131.665  -366995.505    44036.944       26.216       25.902        2.994        3.022        3.061        3.247        3.243        2.935        2.687        2.568        2.740        2.650        2.440        2.527        2.877        2.964        3.217        2.912        0.482        2.000        0.000        0.000        0.000        0.000        3.000        0.000        0.000        0.000        0.000        0.000        0.000        0.000        1.000        0.000        1.000        0.000        0.000        0.000        0.000        0.000        0.000        0.000        0.000        0.000        0.000        0.000        0.000        0.000        3.000        0.000        0.000        0.000        4.494        0.000       95.506        0.000        0.000        1.990        2.015        2.508
     800.000  -245715.318    23407.122    14873.815    37876.663      114.055  -366792.841    44805.868       26.082       25.924        2.964        3.107        3.096        3.186        3.217        3.029        2.719        2.628        2.623        2.726        2.458        2.547        2.929        2.948        3.181        2.989        0.491        1.000        0.000        0.000        1.000        0.000        3.000        0.000        0.000        0.000        0.000        0.000        0.000        0.000        0.000        0.000        1.000        0.000        0.000        0.000        0.000        0.000        0.000        0.000        0.000        1.000        2.000        0.000        3.000        1.000        6.000        0.000        1.000        0.000        0.000        0.000      100.000        0.000        0.000        1.684        1.716        2.210
     810.000  -245988.370    25183.236    14478.572    37747.141      111.077  -367847.465    44339.069       26.293       25.976        3.119        3.056        3.120        3.229        3.246        3.008        2.707        2.527        2.650        2.703        2.440        2.514        2.937        3.060        3.179        2.989        0.486        1.000        0.000        0.000        1.000        0.000        3.000        0.000        0.000        0.000        1.000        0.000        0.000        0.000        1.000        0.000        1.000        0.000        0.000        0.000        0.000        0.000        0.000        0.000        0.000        0.000        1.000        0.000        5.000        4.000        6.000        0.000        1.000        0.000        0.000        0.000      100.000        0.000        0.000        1.804        1.845        2.314
     820.000  -245683.456    24518.972    14678.786    37787.413      115.924  -367305.025    44520.473       26.310       26.240        3.114        3.078        3.071        3.229        3.230        3.066        2.696        2.543        2.643        2.612        2.433        2.516        2.922        2.998        3.185        2.956        0.478        1.000        0.000        0.000        1.000        0.000        3.000        0.000        0.000        0.000        0.000        0.000        0.000        0.000        0.000        0.000        1.000        0.000        0.000        0.000        0.000        0.000        0.000        0.000        0.000        0.000        1.000        0.000        2.000        2.000        8.000        0.000        1.000        0.000        0.000        0.000      100.000        0.000        0.000        2.221        2.265        2.667
     830.000  -246191.872    24941.415    14710.568    37737.235      143.258  -366841.235    43116.886       26.076       25.876        3.075        3.103        2.961        3.281        3.253        3.053        2.718        2.441        2.630        2.716        2.476        2.514        3.021        3.010        3.200        3.010        0.499        2.000        0.000        0.000        1.000        0.000        4.000        0.000        0.000        0.000        0.000        0.000        0.000        0.000        0.000        0.000        3.000        0.000        0.000        0.000        0.000        0.000        0.000        0.000        0.000        2.000        1.000        0.000        4.000        3.000        4.000        0.000        4.000        0.000        0.000        0.000      100.000        0.000        0.000        1.865        1.934        2.353
     840.000  -246016.912    24745.429    14486.594    37437.938      104.923  -366058.140    43266.344       26.327       25.936        2.995        3.071        3.063        3.233        3.224        3.046        2.695        2.538        2.636        2.665        2.459        2.522        2.899        3.024        3.235        2.949        0.476        1.000        0.000        0.000        0.000        0.000        3.000        0.000        0.000        0.000        0.000        0.000        0.000        0.000        0.000        0.000        0.000        0.000        0.000        0.000        0.000        0.000        0.000        0.000        0.000        2.000        2.000        0.000        2.000        2.000        6.000        0.000        1.000        0.000        0.000        0.000      100.000        0.000        0.000        2.124        2.177        2.421
     850.000  -245345.713    23872.929    14920.163    37719.447      113.066  -367025.163    45053.844       26.076       25.444        2.948        3.065        3.034        3.234        3.253        2.914        2.650        2.532        2.656        2.623        2.436        2.538        2.954        3.035        3.207        3.019        0.495        1.000        0.000        0.000        1.000        1.000        2.000        0.000        0.000        0.000        0.000        0.000        0.000        0.000        1.000        0.000        1.000        0.000        0.000        0.000        0.000        0.000        0.000        0.000        0.000        3.000        2.000        0.000        2.000        3.000        7.000        0.000        0.000        0.000        0.000        0.000      100.000        0.000        0.000        1.868        1.919        2.290
     860.000  -245183.797    24336.515    14548.227    37735.086      119.985  -365746.915    43823.306       26.173       25.793        3.112        3.007        3.009        3.244        3.212        3.068        2.740        2.521        2.595        2.705        2.494        2.479        2.954        3.034        3.202        2.977        0.464        1.000        0.000        0.000        1.000        1.000        2.000        0.000        0.000        0.000        0.000        0.000        0.000        0.000        2.000        0.000        1.000        0.000        0.000        0.000        0.000        0.000        0.000        0.000        0.000        1.000        1.000        0.000        5.000        3.000        2.000        0.000        0.000        0.000        0.000        0.000      100.000        0.000        0.000        1.737        1.802        2.221
     870.000  -245645.887    25369.547    14468.436    37631.378      121.217  -367779.734    44543.269       25.918       25.713        3.053        3.040        3.033        3.289        3.207        2.939        2.720        2.476        2.641        2.620        2.451        2.527        2.902        3.003        3.234        3.108        0.505        1.000        0.000        0.000        1.000        1.000        3.000        0.000        0.000        0.000        0.000        0.000        0.000        0.000        0.000        0.000        1.000        0.000        0.000        0.000        0.000        0.000        0.000        0.000        0.000        2.000        4.000        0.000        4.000        1.000        1.000        0.000        3.000        0.000        0.000        0.000      100.000        0.000        0.000        1.834        1.919        2.275
     880.000  -244653.545    23829.804    14669.319    37874.249      104.593  -365808.712    44677.203       25.906       25.698        3.027        2.875        3.031        3.206        3.202        2.938        2.708        2.509        2.660        2.611        2.478        2.486        2.974        3.030        3.205        3.011        0.488        1.000        0.000        0.000        1.000        0.000        4.000        0.000        0.000        0.000        0.000        0.000        0.000        0.000        0.000        0.000        1.000        0.000        0.000        0.000        0.000        0.000        0.000        0.000        0.000        1.000        1.000        0.000        3.000        3.000        4.000        0.000        1.000        0.000        0.000        0.000      100.000        0.000        0.000        2.280        2.351        2.572
     890.000  -246086.011    24204.890    14879.387    37829.547      120.069  -368522.604    45402.700       25.939       25.368        3.019        3.034        3.003        3.217        3.219        3.025        2.755        2.481        2.628        2.672        2.462        2.526        2.930        3.038        3.271        2.986        0.479        1.000        0.000        0.000        1.000        0.000        4.000        0.000        0.000        0.000        0.000        0.000        0.000        0.000        0.000        0.000        1.000        0.000        0.000        0.000        0.000        0.000        0.000        0.000        0.000        0.000        2.000        0.000        4.000        3.000        4.000        0.000        5.000        0.000        4.494        0.000       95.506        0.000        0.000        1.998        2.061        2.382
     900.000  -245956.942    24895.634    14669.824    37686.972      132.205  -368108.490    44766.913       26.196       25.812        3.078        3.097        3.098        3.255        3.229        2.949        2.706        2.495        2.660        2.677        2.499        2.500        2.876        3.042        3.200        2.977        0.481        1.000        0.000        0.000        1.000        0.000        4.000        0.000        0.000        0.000        0.000        0.000        0.000        0.000        0.000        0.000        0.000        0.000        0.000        0.000        0.000        0.000        0.000        0.000        0.000        0.000        2.000        0.000        3.000        3.000        6.000        0.000        1.000        0.000        0.000        0.000      100.000        0.000        0.000        1.980        2.030        2.340
     910.000  -245719.052    23997.287    14935.725    37859.979      106.029  -368410.509    45792.437       26.208       25.580        3.123        3.014        3.088        3.223        3.161        2.936        2.644        2.496        2.678        2.619        2.483        2.519        2.930        3.007        3.236        2.954        0.492        1.000        0.000        0.000        1.000        0.000        4.000        0.000        0.000        0.000        0.000        0.000        0.000        0.000        0.000        0.000        1.000        0.000        0.000        0.000        0.000        0.000        0.000        0.000        0.000        1.000        3.000        0.000        3.000        1.000        2.000        0.000        0.000        0.000        4.494        0.000       95.506        0.000        0.000        2.290        2.355        2.522
     920.000  -245280.556    23995.924    14692.435    37710.230      136.845  -366592.354    44776.364       26.151       25.914        3.044        2.991        3.057        3.262        3.234        3.065        2.648        2.557        2.717        2.662        2.478        2.502        3.024        3.097        3.168        2.915        0.498        2.000        0.000        0.000        0.000        0.000        3.000        0.000        0.000        0.000        0.000        0.000        0.000        0.000        0.000        0.000        0.000        0.000        0.000        0.000        0.000        0.000        0.000        0.000        0.000        0.000        2.000        0.000        2.000        2.000        3.000        0.000        4.000        0.000        0.000        0.000      100.000        0.000        0.000        2.292        2.353        2.543
     930.000  -246080.635    24108.689    14671.913    37847.845       95.121  -368513.964    45709.760       25.938       25.482        3.182        3.001        3.094        3.255        3.193        2.987        2.648        2.539        2.685        2.605        2.409        2.556        2.895        3.032        3.229        2.976        0.477        1.000        0.000        0.000        0.000        0.000        3.000        0.000        0.000        0.000        0.000        0.000        0.000        0.000        1.000        0.000        0.000        0.000        0.000        0.000        0.000        0.000        0.000        0.000        0.000        1.000        1.000        0.000        2.000        2.000        1.000        0.000        3.000        0.000        0.000        0.000      100.000        0.000        0.000        2.915        2.994        3.101
     940.000  -245620.620    24600.542    14812.279    37695.817      101.314  -367365.923    44535.352       25.927       25.666        3.148        3.055        3.083        3.263        3.244        3.059        2.656        2.529        2.660        2.683        2.458        2.494        2.929        3.068        3.238        3.008        0.495        1.000        0.000        0.000        0.000        0.000        5.000        0.000        0.000        0.000        0.000        0.000        0.000        0.000        0.000        0.000        1.000        0.000        0.000        0.000        0.000        0.000        0.000        0.000        0.000        1.000        6.000        0.000        7.000        1.000        1.000        0.000        2.000        0.000        0.000        0.000      100.000        0.000        0.000        2.886        2.959        3.082
     950.000  -245584.823    25385.827    14782.992    37849.616      118.912  -367048.044    43325.874       26.124       25.752        3.110        3.012        3.058        3.268        3.234        2.962        2.697        2.514        2.670        2.708        2.509        2.498        3.007        3.059        3.227        2.987        0.468        2.000        0.000        0.000        1.000        0.000        4.000        0.000        0.000        0.000        0.000        0.000        0.000        0.000        0.000        0.000        1.000        0.000        0.000        0.000        0.000        0.000        0.000        0.000        0.000        1.000        3.000        0.000        3.000        2.000        6.000        0.000        2.000        0.000        4.494        0.000       95.506        0.000        0.000        2.813        2.867        3.004
     960.000  -245409.852    23541.138    14545.146    37636.000      108.324  -366806.521    45566.061       26.290       26.016        2.967        3.048        3.054        3.250        3.232        3.016        2.704        2.556        2.644        2.674        2.466        2.488        2.990        3.072        3.259        3.025        0.500        2.000        0.000        0.000        0.000        0.000        4.000        0.000        0.000        0.000        0.000        0.000        0.000        0.000        1.000        0.000        0.000        0.000        0.000        0.000        0.000        0.000        0.000        0.000        0.000        1.000        2.000        0.000        2.000        3.000        5.000        0.000        2.000        0.000        0.000        0.000      100.000        0.000        0.000        2.910        2.966        3.189
     970.000  -245657.405    24261.002    14690.998    37891.215      111.939  -367588.529    44975.970       25.978       25.666        2.929        3.097        3.096        3.241        3.271        3.046        2.689        2.567        2.681        2.686        2.453        2.459        2.856        3.060        3.245        3.066        0.482        2.000        0.000        0.000        0.000        0.000        4.000        0.000        0.000        0.000        0.000        0.000        0.000        0.000        0.000        0.000        0.000        0.000        0.000        0.000        0.000        0.000        0.000        0.000        0.000        0.000        2.000        0.000        4.000        1.000        4.000        0.000        3.000        0.000        0.000        0.000      100.000        0.000        0.000        2.980        3.063        3.293
     980.000  -246413.348    25133.381    14458.468    37486.293      114.615  -366808.344    43202.238       26.181       25.700        2.938        3.068        3.104        3.259        3.229        3.036        2.736        2.581        2.684        2.695        2.468        2.543        2.957        3.048        3.281        3.068        0.509        1.000        0.000        0.000        1.000        0.000        3.000        0.000        0.000        0.000        0.000        0.000        0.000        0.000        2.000        0.000        0.000        0.000        0.000        0.000        0.000        0.000        0.000        0.000        0.000        0.000        3.000        0.000        2.000        2.000        7.000        0.000        1.000        0.000        0.000        0.000      100.000        0.000        0.000        3.339        3.407        3.531
     990.000  -246120.807    24234.872    14750.189    37793.932      100.688  -368920.718    45920.231       26.073       25.541        3.059        3.050        3.087        3.283        3.205        2.998        2.695        2.551        2.648        2.629        2.440        2.509        3.000        3.097        3.257        3.036        0.499        1.000        0.000        0.000        0.000        0.000        4.000        0.000        0.000        0.000        0.000        0.000        0.000        0.000        1.000        0.000        0.000        0.000        0.000        0.000        0.000        0.000        0.000        0.000        0.000        0.000        3.000        0.000        4.000        1.000        3.000        0.000        1.000        0.000        4.494        0.000       95.506        0.000        0.000        2.997        3.071        3.206
    1000.000  -245846.876    24912.157    14532.668    37584.560      123.145  -369173.336    46173.930       25.947       25.711        3.016        3.008        3.082        3.286        3.245        3.058        2.651        2.584        2.684        2.643        2.457        2.526        2.964        2.984        3.264        3.026        0.505        1.000        0.000        0.000        1.000        0.000        4.000        0.000        0.000        0.000        0.000        0.000        0.000        0.000        1.000        0.000        0.000        0.000        0.000        0.000        0.000        0.000        0.000        0.000        0.000        1.000        1.000        0.000        0.000        1.000        1.000        0.000        3.000        0.000        0.000        0.000      100.000        0.000        0.000        3.041        3.121        3.253
     Average  -247443.833    24801.043    14760.760    37730.215      113.864  -370231.486    45381.771       26.042       25.878        3.002        3.006        3.069        3.254        3.198        2.999        2.688        2.570        2.678        2.674        2.501        2.519        2.935        3.008        3.206        2.970        0.486        1.327        0.327        0.000        0.248        1.079        4.614        0.000        0.000        0.059        0.119        0.000        0.040        0.139        0.762        0.000        0.950        0.000        0.000        0.000        0.000        0.000        0.000        0.000        0.000        0.693        2.446        0.000        1.911        1.416        4.495        0.000        1.733        0.000        0.567        0.000       99.433        0.000        0.000        2.039        2.077        2.419

