____Time[ps] Energy[ kJ/mol ]_____Bond _______Angle ____Dihedral ___Planarity _____Coulomb _________VdW _Your result _Your result _Your result _Your result _Your result _Your result _Your result _Your result _Your result _Your result _Your result _Your result _Your result _Your result _Your result _Your result _Your result _Your result _Your result _Your result _Your result _Your result _Your result _Your result _Your result _Your result _Your result _Your result _Your result _Your result _Your result _Your result _Your result _Your result _Your result _Your result _Your result _Your result _Your result _Your result _Your result _Your result _Your result _Your result _Your result _Your result _Your result _Your result _Your result _Your result _Your result _Your result _Your result _Your result _Your result _Your result _Your result _RMSDs[A]:CA ____Backbone __HeavyAtoms
       0.000  -346156.091     6976.590     5499.218    40146.869       20.492  -466580.706    67781.445       25.343       25.190        2.588        2.581        2.553        2.621        2.684        2.542        2.717        2.565        2.678        2.631        2.625        2.642        2.570        2.567        2.512        2.513        0.487        2.000        2.000        0.000        1.000        3.000        1.000        0.000        0.000        1.000        0.000        0.000        0.000        0.000        0.000        0.000        0.000        0.000        0.000        0.000        1.000        0.000        0.000        0.000        0.000        1.000        7.000        0.000        2.000        2.000        3.000        0.000        1.000        0.000        0.000        0.000      100.000        0.000        0.000        0.464        0.497        0.588
      10.000  -262009.330    30642.921    15335.981    40172.200      104.012  -398764.321    50499.877       25.713       25.834        2.620        2.589        2.542        2.652        2.684        2.594        2.695        2.527        2.675        2.616        2.650        2.583        2.571        2.510        2.512        2.525        0.515        2.000        2.000        0.000        2.000        4.000        1.000        0.000        0.000        0.000        0.000        0.000        0.000        0.000        0.000        0.000        0.000        0.000        0.000        0.000        1.000        0.000        0.000        0.000        0.000        3.000        2.000        0.000        3.000        0.000        4.000        0.000        0.000        0.000        0.000        0.000      100.000        0.000        0.000        0.999        1.041        1.130
      20.000  -262183.533    29930.380    15324.124    39842.071      119.097  -397068.454    49669.249       25.839       25.825        2.531        2.574        2.667        2.548        2.648        2.537        2.691        2.583        2.711        2.619        2.656        2.609        2.529        2.529        2.582        2.532        0.485        1.000        1.000        0.000        1.000        3.000        1.000        0.000        0.000        0.000        0.000        0.000        0.000        0.000        0.000        0.000        2.000        0.000        0.000        0.000        1.000        0.000        0.000        0.000        0.000        3.000        4.000        0.000        2.000        2.000        4.000        0.000        0.000        0.000        4.494        0.000       95.506        0.000        0.000        1.218        1.241        1.418
      30.000  -260465.094    29462.767    15645.722    39943.115       97.018  -395925.544    50311.828       26.016       26.038        2.614        2.608        2.660        2.637        2.648        2.562        2.698        2.565        2.729        2.541        2.689        2.601        2.548        2.449        2.484        2.535        0.491        2.000        1.000        0.000        1.000        4.000        1.000        0.000        0.000        1.000        1.000        0.000        0.000        0.000        1.000        0.000        0.000        0.000        0.000        0.000        1.000        0.000        0.000        0.000        0.000        4.000        2.000        0.000        3.000        2.000        2.000        0.000        0.000        0.000        0.000        0.000      100.000        0.000        0.000        1.524        1.548        1.715
      40.000  -260017.357    27888.153    15610.222    40052.678      107.544  -394253.619    50577.665       25.728       25.836        2.521        2.513        2.628        2.629        2.640        2.589        2.678        2.567        2.702        2.583        2.638        2.647        2.539        2.453        2.506        2.541        0.503        2.000        1.000        0.000        1.000        3.000        2.000        0.000        0.000        0.000        0.000        0.000        0.000        0.000        0.000        0.000        1.000        0.000        0.000        0.000        1.000        0.000        0.000        0.000        0.000        1.000        1.000        0.000        2.000        1.000        2.000        0.000        0.000        0.000        4.494        0.000       95.506        0.000        0.000        1.332        1.367        1.523
      50.000  -260188.321    28499.260    15907.637    39944.034       98.163  -394347.837    49710.421       26.050       26.144        2.558        2.504        2.634        2.623        2.659        2.562        2.762        2.598        2.715        2.579        2.652        2.638        2.535        2.497        2.552        2.502        0.503        2.000        2.000        0.000        2.000        3.000        2.000        0.000        0.000        0.000        0.000        0.000        0.000        0.000        0.000        0.000        0.000        0.000        0.000        0.000        1.000        0.000        0.000        0.000        0.000        2.000        3.000        0.000        2.000        1.000        2.000        0.000        4.000        0.000        0.000        0.000      100.000        0.000        0.000        1.499        1.527        1.690
      60.000  -260443.875    28598.104    15882.475    39944.882      105.957  -394530.810    49555.516       25.974       26.151        2.584        2.513        2.660        2.613        2.645        2.574        2.722        2.589        2.699        2.610        2.586        2.625        2.552        2.548        2.500        2.505        0.481        1.000        2.000        0.000        2.000        4.000        2.000        0.000        0.000        1.000        0.000        0.000        0.000        0.000        0.000        0.000        0.000        0.000        0.000        0.000        0.000        0.000        0.000        0.000        0.000        1.000        8.000        0.000        4.000        1.000        2.000        0.000        1.000        0.000        4.494        0.000       95.506        0.000        0.000        1.610        1.633        1.796
      70.000  -259102.118    27611.516    15958.335    39990.835       95.791  -391430.609    48672.013       25.542       25.710        2.549        2.452        2.634        2.609        2.704        2.583        2.673        2.593        2.731        2.566        2.655        2.577        2.509        2.446        2.486        2.512        0.484        1.000        2.000        0.000        1.000        3.000        2.000        0.000        0.000        0.000        0.000        0.000        0.000        0.000        0.000        0.000        0.000        0.000        0.000        0.000        0.000        0.000        0.000        0.000        0.000        3.000        4.000        0.000        3.000        2.000        3.000        0.000        0.000        0.000        0.000        0.000      100.000        0.000        0.000        1.617        1.638        1.911
      80.000  -258825.098    28734.536    15919.677    39742.284      110.583  -390988.316    47656.137       26.234       26.226        2.584        2.452        2.689        2.661        2.606        2.593        2.697        2.554        2.730        2.622        2.585        2.668        2.483        2.503        2.502        2.540        0.494        2.000        1.000        0.000        1.000        3.000        2.000        0.000        0.000        0.000        1.000        0.000        0.000        0.000        1.000        0.000        0.000        0.000        0.000        0.000        0.000        0.000        0.000        0.000        0.000        2.000        6.000        0.000        1.000        2.000        2.000        0.000        0.000        0.000        0.000        0.000      100.000        0.000        0.000        2.201        2.229        2.405
      90.000  -258587.373    28328.557    15937.657    39826.791      109.143  -390235.741    47446.220       26.013       26.291        2.588        2.493        2.683        2.652        2.616        2.591        2.734        2.560        2.682        2.586        2.620        2.657        2.479        2.572        2.500        2.532        0.483        3.000        1.000        0.000        1.000        3.000        1.000        0.000        0.000        0.000        0.000        0.000        0.000        0.000        0.000        0.000        1.000        0.000        0.000        0.000        0.000        0.000        0.000        0.000        0.000        1.000        3.000        0.000        2.000        1.000        3.000        0.000        0.000        0.000        4.494        0.000       95.506        0.000        0.000        1.949        1.983        2.280
     100.000  -259108.593    28620.253    15765.346    39838.908      123.388  -391686.214    48229.725       26.014       26.149        2.513        2.527        2.658        2.669        2.609        2.601        2.700        2.630        2.718        2.562        2.640        2.661        2.488        2.469        2.528        2.494        0.504        3.000        1.000        0.000        1.000        4.000        2.000        0.000        0.000        0.000        0.000        0.000        0.000        0.000        1.000        0.000        1.000        0.000        0.000        0.000        0.000        0.000        0.000        0.000        0.000        0.000        2.000        0.000        2.000        1.000        3.000        0.000        1.000        0.000        4.494        0.000       95.506        0.000        0.000        1.916        1.952        2.203
     110.000  -258365.434    26976.579    15656.247    40107.226       78.998  -389940.834    48756.350       25.822       26.010        2.549        2.466        2.662        2.652        2.646        2.573        2.707        2.555        2.722        2.636        2.603        2.615        2.548        2.461        2.506        2.513        0.481        2.000        2.000        0.000        1.000        3.000        2.000        0.000        0.000        0.000        0.000        0.000        0.000        0.000        0.000        0.000        0.000        0.000        0.000        0.000        0.000        0.000        0.000        0.000        0.000        1.000        1.000        0.000        3.000        2.000        3.000        0.000        4.000        0.000        0.000        0.000      100.000        0.000        0.000        1.929        1.958        2.180
     120.000  -259168.969    27861.094    15648.447    40027.549      104.715  -390000.888    47190.114       26.014       26.035        2.542        2.474        2.662        2.694        2.609        2.586        2.750        2.603        2.702        2.598        2.663        2.660        2.512        2.491        2.508        2.509        0.509        2.000        2.000        0.000        1.000        4.000        1.000        0.000        0.000        0.000        0.000        0.000        0.000        0.000        0.000        0.000        0.000        0.000        0.000        0.000        0.000        0.000        0.000        0.000        0.000        0.000        2.000        0.000        3.000        1.000        0.000        0.000        1.000        0.000        4.494        0.000       95.506        0.000        0.000        1.717        1.748        2.030
     130.000  -258644.028    26899.750    15838.546    40108.861      109.194  -389133.827    47533.448       26.024       25.950        2.530        2.495        2.680        2.653        2.642        2.623        2.690        2.554        2.693        2.579        2.633        2.637        2.495        2.515        2.507        2.513        0.464        2.000        1.000        0.000        1.000        3.000        2.000        0.000        0.000        0.000        0.000        0.000        0.000        0.000        1.000        0.000        0.000        0.000        0.000        0.000        0.000        0.000        0.000        0.000        0.000        0.000        4.000        0.000        1.000        3.000        0.000        0.000        1.000        0.000        4.494        0.000       95.506        0.000        0.000        1.639        1.666        1.999
     140.000  -257753.279    27702.282    15710.309    39799.483      106.477  -387687.932    46616.102       26.302       26.402        2.528        2.485        2.672        2.647        2.636        2.541        2.718        2.573        2.671        2.553        2.659        2.645        2.552        2.554        2.536        2.522        0.491        1.000        1.000        0.000        2.000        4.000        2.000        0.000        0.000        0.000        0.000        0.000        0.000        0.000        0.000        0.000        0.000        0.000        0.000        0.000        0.000        0.000        0.000        0.000        0.000        1.000        3.000        0.000        4.000        2.000        1.000        0.000        1.000        0.000        4.494        0.000       95.506        0.000        0.000        1.739        1.747        2.047
     150.000  -257867.864    27214.034    15565.810    39869.294       75.875  -389017.932    48425.055       26.238       26.147        2.571        2.497        2.685        2.621        2.647        2.594        2.715        2.589        2.700        2.605        2.658        2.641        2.566        2.525        2.534        2.501        0.497        1.000        1.000        0.000        2.000        3.000        2.000        0.000        0.000        0.000        1.000        0.000        0.000        0.000        0.000        0.000        0.000        0.000        0.000        0.000        0.000        0.000        0.000        0.000        0.000        1.000        3.000        0.000        3.000        0.000        0.000        0.000        2.000        0.000        4.494        0.000       95.506        0.000        0.000        1.773        1.815        2.024
     160.000  -257600.120    27691.051    15751.357    39844.120       84.937  -388528.048    47556.463       26.248       26.155        2.571        2.508        2.630        2.617        2.626        2.561        2.675        2.593        2.665        2.656        2.621        2.683        2.586        2.595        2.515        2.552        0.501        2.000        1.000        0.000        2.000        4.000        2.000        0.000        0.000        0.000        0.000        0.000        0.000        0.000        0.000        0.000        0.000        0.000        0.000        0.000        0.000        0.000        0.000        0.000        0.000        0.000        0.000        0.000        3.000        0.000        0.000        0.000        0.000        0.000        4.494        0.000       95.506        0.000        0.000        1.662        1.689        1.956
     170.000  -257254.882    26139.618    15239.525    40211.583      112.151  -387525.222    48567.462       25.893       25.953        2.564        2.459        2.621        2.660        2.617        2.572        2.716        2.559        2.599        2.578        2.697        2.636        2.500        2.537        2.512        2.499        0.475        1.000        1.000        0.000        1.000        4.000        2.000        0.000        0.000        0.000        0.000        0.000        0.000        0.000        0.000        0.000        0.000        0.000        0.000        0.000        0.000        0.000        0.000        0.000        0.000        1.000        0.000        0.000        1.000        1.000        4.000        0.000        2.000        0.000        4.494        0.000       95.506        0.000        0.000        1.676        1.709        1.997
     180.000  -257037.976    26172.683    15542.704    40248.563       95.848  -386601.347    47503.572       25.924       25.779        2.550        2.478        2.629        2.654        2.619        2.546        2.724        2.589        2.649        2.608        2.611        2.662        2.521        2.464        2.483        2.531        0.457        2.000        1.000        0.000        1.000        4.000        2.000        0.000        0.000        0.000        0.000        0.000        0.000        0.000        1.000        0.000        0.000        0.000        0.000        0.000        0.000        0.000        0.000        0.000        0.000        2.000        3.000        0.000        2.000        1.000        2.000        0.000        2.000        0.000        4.494        0.000       95.506        0.000        0.000        2.304        2.331        2.508
     190.000  -256809.475    25963.567    15505.688    40028.438       95.190  -387381.076    48978.718       25.861       25.556        2.501        2.512        2.690        2.646        2.618        2.571        2.699        2.597        2.665        2.552        2.641        2.629        2.540        2.554        2.540        2.518        0.476        2.000        1.000        0.000        0.000        4.000        2.000        0.000        0.000        1.000        0.000        0.000        0.000        0.000        0.000        0.000        0.000        0.000        0.000        0.000        0.000        0.000        0.000        0.000        0.000        2.000        2.000        0.000        4.000        0.000        3.000        0.000        1.000        0.000        0.000        0.000      100.000        0.000        0.000        2.196        2.230        2.431
     200.000  -257119.361    25448.035    15582.203    39956.472      121.392  -386982.367    48754.904       26.119       25.682        2.533        2.480        2.618        2.673        2.625        2.595        2.718        2.622        2.667        2.579        2.665        2.611        2.562        2.616        2.450        2.499        0.507        1.000        1.000        0.000        2.000        4.000        2.000        0.000        0.000        0.000        0.000        0.000        0.000        0.000        1.000        0.000        0.000        0.000        0.000        0.000        0.000        0.000        0.000        0.000        0.000        2.000        1.000        0.000        6.000        1.000        1.000        0.000        1.000        0.000        0.000        0.000      100.000        0.000        0.000        2.614        2.643        2.893
     210.000  -256299.040    25609.893    15691.485    40138.641      124.685  -384888.414    47024.671       26.029       25.551        2.495        2.514        2.667        2.648        2.576        2.618        2.717        2.577        2.663        2.519        2.663        2.651        2.503        2.558        2.504        2.513        0.483        1.000        1.000        0.000        1.000        4.000        2.000        0.000        0.000        1.000        0.000        0.000        0.000        0.000        0.000        0.000        0.000        0.000        0.000        0.000        0.000        0.000        0.000        0.000        0.000        1.000        3.000        0.000        2.000        1.000        0.000        0.000        0.000        0.000        0.000        0.000      100.000        0.000        0.000        2.147        2.169        2.432
     220.000  -256788.207    25620.038    15518.430    39784.982      111.145  -386297.942    48475.140       26.059       25.930        2.517        2.432        2.708        2.655        2.637        2.548        2.698        2.578        2.683        2.594        2.670        2.645        2.467        2.576        2.501        2.557        0.479        3.000        1.000        0.000        1.000        4.000        2.000        0.000        0.000        0.000        0.000        0.000        0.000        0.000        0.000        0.000        0.000        0.000        0.000        0.000        0.000        0.000        0.000        0.000        0.000        2.000        2.000        0.000        2.000        2.000        1.000        0.000        1.000        0.000        0.000        0.000      100.000        0.000        0.000        2.235        2.258        2.452
     230.000  -257062.121    25923.763    15405.934    39832.417      110.764  -384953.203    46618.204       26.066       25.935        2.548        2.486        2.708        2.585        2.633        2.566        2.753        2.592        2.678        2.681        2.611        2.660        2.480        2.594        2.494        2.514        0.506        3.000        1.000        0.000        2.000        2.000        2.000        0.000        0.000        0.000        1.000        0.000        0.000        0.000        0.000        0.000        0.000        0.000        0.000        0.000        0.000        0.000        0.000        0.000        0.000        1.000        2.000        0.000        5.000        1.000        2.000        0.000        2.000        0.000        4.494        0.000       95.506        0.000        0.000        1.996        2.006        2.211
     240.000  -256506.632    25730.103    15196.998    40011.594       89.349  -383958.083    46423.407       26.191       26.086        2.534        2.477        2.659        2.666        2.640        2.592        2.755        2.609        2.649        2.613        2.601        2.624        2.518        2.592        2.479        2.548        0.480        2.000        1.000        0.000        2.000        4.000        1.000        0.000        0.000        0.000        1.000        0.000        0.000        0.000        0.000        0.000        0.000        0.000        0.000        0.000        0.000        0.000        0.000        0.000        0.000        0.000        3.000        0.000        7.000        3.000        1.000        0.000        2.000        0.000        0.000        0.000      100.000        0.000        0.000        1.933        1.959        2.187
     250.000  -256962.032    25759.706    15232.327    40036.340      106.824  -385703.266    47606.037       25.966       26.093        2.528        2.476        2.681        2.692        2.645        2.597        2.718        2.610        2.707        2.585        2.604        2.606        2.599        2.501        2.515        2.550        0.480        2.000        1.000        0.000        1.000        4.000        1.000        0.000        0.000        0.000        1.000        0.000        0.000        0.000        0.000        0.000        0.000        0.000        0.000        0.000        0.000        0.000        0.000        0.000        0.000        0.000        1.000        0.000        5.000        1.000        2.000        0.000        1.000        0.000        0.000        0.000      100.000        0.000        0.000        1.711        1.729        1.975
     260.000  -256035.609    25613.342    15258.909    39864.748       89.905  -384408.072    47545.558       25.933       26.092        2.506        2.478        2.695        2.637        2.652        2.612        2.717        2.569        2.666        2.543        2.649        2.656        2.516        2.532        2.483        2.534        0.484        3.000        1.000        0.000        1.000        4.000        1.000        0.000        0.000        0.000        0.000        0.000        0.000        0.000        0.000        0.000        1.000        0.000        0.000        0.000        1.000        0.000        0.000        0.000        0.000        1.000        2.000        0.000        2.000        2.000        0.000        0.000        1.000        0.000        0.000        0.000      100.000        0.000        0.000        1.705        1.711        1.963
     270.000  -256663.853    24572.512    15421.857    39845.503       98.643  -384940.106    48337.738       25.959       26.208        2.486        2.471        2.653        2.664        2.666        2.556        2.730        2.612        2.660        2.632        2.574        2.713        2.532        2.547        2.479        2.527        0.476        2.000        2.000        0.000        2.000        4.000        1.000        0.000        0.000        1.000        2.000        0.000        0.000        0.000        0.000        0.000        0.000        0.000        0.000        0.000        0.000        0.000        0.000        0.000        0.000        1.000        1.000        0.000        2.000        1.000        0.000        0.000        4.000        0.000        0.000        0.000      100.000        0.000        0.000        1.885        1.917        2.157
     280.000  -256276.512    26836.131    15282.470    39738.329      106.102  -385023.813    46784.269       25.549       25.928        2.563        2.510        2.688        2.638        2.570        2.557        2.707        2.602        2.656        2.624        2.625        2.664        2.539        2.517        2.493        2.527        0.505        2.000        2.000        0.000        2.000        4.000        2.000        0.000        0.000        1.000        1.000        0.000        0.000        0.000        0.000        0.000        1.000        0.000        0.000        0.000        1.000        0.000        0.000        0.000        0.000        0.000        3.000        0.000        3.000        1.000        3.000        0.000        2.000        0.000        0.000        0.000      100.000        0.000        0.000        1.898        1.917        2.199
     290.000  -255248.373    26493.368    15488.489    40034.467       78.727  -382674.711    45331.287       25.555       26.031        2.541        2.469        2.705        2.640        2.600        2.609        2.689        2.557        2.735        2.544        2.678        2.632        2.518        2.485        2.549        2.552        0.504        2.000        2.000        0.000        2.000        3.000        1.000        0.000        0.000        0.000        0.000        0.000        0.000        0.000        0.000        0.000        0.000        0.000        0.000        0.000        1.000        0.000        0.000        0.000        0.000        1.000        7.000        0.000        3.000        3.000        1.000        0.000        2.000        0.000        0.000        0.000      100.000        0.000        0.000        1.655        1.692        1.907
     300.000  -255761.006    25750.608    15137.038    39814.680       90.230  -382872.878    46319.317       26.032       26.347        2.580        2.492        2.694        2.638        2.572        2.541        2.746        2.573        2.675        2.608        2.672        2.595        2.529        2.570        2.559        2.565        0.494        1.000        2.000        0.000        2.000        3.000        2.000        0.000        0.000        1.000        0.000        0.000        0.000        0.000        0.000        0.000        0.000        0.000        0.000        0.000        0.000        0.000        0.000        0.000        0.000        1.000        0.000        0.000        2.000        2.000        2.000        0.000        1.000        0.000        0.000        0.000      100.000        0.000        0.000        1.965        1.973        2.216
     310.000  -256361.189    26159.669    15143.587    39684.184      108.321  -382793.013    45336.064       26.214       26.259        2.546        2.476        2.668        2.580        2.625        2.553        2.729        2.610        2.692        2.606        2.588        2.624        2.502        2.573        2.457        2.539        0.484        1.000        2.000        0.000        2.000        4.000        1.000        0.000        0.000        0.000        0.000        0.000        0.000        0.000        0.000        0.000        0.000        0.000        0.000        0.000        1.000        0.000        0.000        0.000        0.000        0.000        1.000        0.000        4.000        1.000        1.000        0.000        0.000        0.000        0.000        0.000      100.000        0.000        0.000        2.138        2.144        2.409
     320.000  -256462.488    25139.231    15140.397    39982.883      106.449  -384248.859    47417.411       26.121       26.008        2.544        2.432        2.665        2.580        2.634        2.606        2.677        2.553        2.659        2.596        2.610        2.643        2.476        2.568        2.513        2.521        0.482        2.000        2.000        0.000        2.000        3.000        2.000        0.000        0.000        0.000        0.000        0.000        0.000        0.000        0.000        0.000        0.000        0.000        0.000        0.000        1.000        0.000        0.000        0.000        0.000        1.000        3.000        0.000        3.000        1.000        1.000        0.000        2.000        0.000        0.000        0.000      100.000        0.000        0.000        1.888        1.900        2.192
     330.000  -256203.756    24577.212    14839.557    40207.832      108.689  -383294.685    47357.638       25.927       25.843        2.502        2.484        2.631        2.595        2.624        2.556        2.726        2.570        2.667        2.551        2.610        2.620        2.479        2.487        2.495        2.493        0.508        3.000        1.000        0.000        2.000        3.000        2.000        0.000        0.000        1.000        1.000        0.000        0.000        0.000        0.000        0.000        0.000        0.000        0.000        0.000        1.000        0.000        0.000        0.000        0.000        1.000        2.000        0.000        5.000        2.000        0.000        0.000        3.000        0.000        0.000        0.000      100.000        0.000        0.000        1.978        1.972        2.335
     340.000  -255758.390    25968.881    15022.612    39716.494      110.091  -382961.213    46384.744       25.970       25.987        2.511        2.488        2.680        2.643        2.640        2.601        2.623        2.582        2.751        2.587        2.640        2.673        2.552        2.514        2.475        2.524        0.470        2.000        2.000        0.000        2.000        3.000        2.000        0.000        0.000        0.000        0.000        0.000        0.000        0.000        0.000        0.000        0.000        0.000        0.000        0.000        1.000        0.000        0.000        0.000        0.000        0.000        0.000        0.000        4.000        2.000        2.000        0.000        4.000        0.000        0.000        0.000      100.000        0.000        0.000        1.945        1.953        2.209
     350.000  -257255.043    25021.877    14838.357    39824.557      121.827  -384435.511    47373.850       25.887       25.821        2.532        2.502        2.673        2.654        2.615        2.584        2.655        2.612        2.721        2.606        2.575        2.629        2.552        2.541        2.487        2.547        0.500        1.000        1.000        0.000        2.000        2.000        1.000        0.000        0.000        0.000        0.000        0.000        1.000        0.000        0.000        0.000        0.000        0.000        0.000        0.000        0.000        0.000        0.000        0.000        0.000        0.000        3.000        0.000        2.000        2.000        1.000        0.000        1.000        0.000        0.000        0.000      100.000        0.000        0.000        1.764        1.764        2.095
     360.000  -256415.556    24204.805    15106.583    39804.043       93.703  -384327.303    48702.613       26.198       25.920        2.564        2.468        2.707        2.565        2.627        2.515        2.693        2.629        2.682        2.584        2.661        2.579        2.518        2.567        2.534        2.516        0.484        2.000        1.000        0.000        2.000        4.000        1.000        0.000        0.000        0.000        0.000        0.000        0.000        0.000        0.000        0.000        0.000        0.000        0.000        0.000        1.000        0.000        0.000        0.000        0.000        1.000        2.000        0.000        4.000        2.000        2.000        0.000        0.000        0.000        4.494        0.000       95.506        0.000        0.000        2.349        2.365        2.613
     370.000  -255997.501    25721.215    14820.785    39946.005       96.691  -383301.802    46719.604       25.734       25.645        2.575        2.487        2.644        2.675        2.648        2.620        2.711        2.567        2.664        2.550        2.682        2.617        2.483        2.542        2.446        2.535        0.495        3.000        1.000        0.000        2.000        4.000        1.000        0.000        0.000        2.000        3.000        0.000        0.000        0.000        0.000        0.000        0.000        0.000        0.000        0.000        1.000        0.000        0.000        0.000        0.000        1.000        5.000        0.000        5.000        3.000        0.000        0.000        0.000        0.000        4.494        0.000       95.506        0.000        0.000        2.140        2.156        2.523
     380.000  -255119.810    25255.628    15176.707    39958.390       92.955  -382870.896    47267.407       26.042       26.083        2.551        2.460        2.714        2.632        2.613        2.585        2.690        2.601        2.668        2.580        2.592        2.626        2.568        2.556        2.532        2.532        0.485        3.000        2.000        0.000        2.000        4.000        2.000        0.000        0.000        0.000        0.000        0.000        0.000        0.000        0.000        0.000        0.000        0.000        0.000        0.000        1.000        0.000        0.000        0.000        0.000        4.000        4.000        0.000        3.000        5.000        0.000        0.000        1.000        0.000        0.000        0.000      100.000        0.000        0.000        1.736        1.743        2.119
     390.000  -255536.784    24963.512    15406.750    39945.497      101.682  -382820.191    46865.966       25.828       26.125        2.536        2.461        2.707        2.659        2.619        2.582        2.736        2.575        2.631        2.585        2.661        2.610        2.490        2.514        2.479        2.474        0.467        2.000        1.000        0.000        2.000        4.000        1.000        0.000        0.000        0.000        1.000        0.000        0.000        0.000        0.000        0.000        0.000        0.000        0.000        0.000        1.000        0.000        0.000        0.000        0.000        0.000        3.000        0.000        1.000        3.000        0.000        0.000        0.000        0.000        0.000        0.000      100.000        0.000        0.000        1.539        1.547        1.994
     400.000  -255901.816    26485.916    14975.193    39980.593       98.187  -384180.251    46738.546       25.837       25.955        2.548        2.486        2.649        2.661        2.602        2.586        2.692        2.552        2.690        2.647        2.671        2.575        2.521        2.495        2.512        2.504        0.477        2.000        1.000        0.000        2.000        3.000        2.000        0.000        0.000        1.000        0.000        0.000        0.000        0.000        0.000        0.000        0.000        0.000        0.000        0.000        0.000        0.000        0.000        0.000        0.000        4.000        4.000        0.000        3.000        2.000        0.000        0.000        1.000        0.000        0.000        0.000      100.000        0.000        0.000        1.819        1.835        2.213
     410.000  -254975.726    25344.396    15238.725    40020.312       96.687  -382958.094    47282.247       25.988       25.872        2.487        2.446        2.685        2.694        2.599        2.599        2.718        2.593        2.650        2.626        2.670        2.610        2.558        2.571        2.559        2.513        0.494        1.000        2.000        0.000        2.000        4.000        1.000        0.000        0.000        0.000        0.000        0.000        0.000        0.000        0.000        0.000        0.000        0.000        0.000        0.000        0.000        0.000        0.000        0.000        0.000        1.000        0.000        0.000        2.000        1.000        1.000        0.000        0.000        0.000        4.494        0.000       95.506        0.000        0.000        1.963        1.954        2.360
     420.000  -255204.181    25775.567    15048.964    39827.981      101.151  -380998.290    45040.447       25.878       25.873        2.516        2.484        2.711        2.662        2.638        2.571        2.739        2.562        2.646        2.634        2.570        2.647        2.532        2.546        2.551        2.547        0.507        2.000        1.000        0.000        2.000        4.000        1.000        0.000        0.000        1.000        2.000        0.000        0.000        0.000        1.000        0.000        0.000        0.000        0.000        0.000        0.000        0.000        0.000        0.000        0.000        1.000        3.000        0.000        3.000        1.000        3.000        0.000        1.000        0.000        0.000        0.000      100.000        0.000        0.000        1.957        1.977        2.218
     430.000  -255215.590    24801.077    15409.981    39948.762      118.018  -382859.614    47366.186       26.070       25.971        2.555        2.425        2.676        2.641        2.629        2.587        2.715        2.551        2.680        2.674        2.678        2.625        2.573        2.542        2.550        2.522        0.491        3.000        1.000        0.000        0.000        4.000        2.000        0.000        0.000        1.000        0.000        0.000        0.000        0.000        0.000        0.000        0.000        0.000        0.000        0.000        0.000        0.000        0.000        0.000        0.000        1.000        1.000        0.000        4.000        1.000        1.000        0.000        1.000        0.000        4.494        0.000       95.506        0.000        0.000        2.265        2.293        2.544
     440.000  -255207.536    25667.475    14966.677    40032.983       97.647  -382786.499    46814.180       25.908       25.911        2.560        2.466        2.671        2.658        2.568        2.601        2.713        2.570        2.670        2.576        2.592        2.571        2.486        2.597        2.522        2.531        0.495        1.000        1.000        0.000        1.000        4.000        1.000        0.000        0.000        1.000        0.000        0.000        0.000        0.000        2.000        0.000        0.000        0.000        0.000        0.000        1.000        0.000        0.000        0.000        0.000        3.000        0.000        0.000        8.000        1.000        1.000        0.000        1.000        0.000        0.000        0.000      100.000        0.000        0.000        2.247        2.275        2.474
     450.000  -255430.844    25371.540    15034.219    40083.533      123.264  -382971.030    46927.631       25.957       25.720        2.541        2.452        2.665        2.673        2.637        2.583        2.727        2.537        2.730        2.596        2.565        2.669        2.547        2.536        2.506        2.512        0.498        2.000        1.000        0.000        2.000        3.000        2.000        0.000        0.000        0.000        0.000        0.000        0.000        0.000        0.000        0.000        0.000        0.000        0.000        0.000        1.000        0.000        0.000        0.000        0.000        1.000        2.000        0.000        4.000        1.000        1.000        0.000        3.000        0.000        4.494        0.000       95.506        0.000        0.000        1.864        1.885        2.123
     460.000  -255772.388    24790.536    14780.022    40093.959      112.442  -383244.664    47695.317       25.958       25.809        2.533        2.467        2.617        2.664        2.618        2.556        2.719        2.572        2.688        2.631        2.677        2.653        2.566        2.534        2.446        2.529        0.483        2.000        2.000        0.000        2.000        4.000        2.000        0.000        0.000        0.000        2.000        0.000        0.000        0.000        0.000        0.000        0.000        0.000        0.000        0.000        0.000        0.000        0.000        0.000        0.000        0.000        5.000        0.000        1.000        3.000        0.000        0.000        2.000        0.000        0.000        0.000      100.000        0.000        0.000        2.245        2.280        2.533
     470.000  -254830.102    25836.175    15269.396    39906.499       85.681  -382589.996    46662.143       25.719       25.743        2.555        2.489        2.627        2.678        2.659        2.642        2.707        2.568        2.731        2.616        2.700        2.675        2.557        2.586        2.509        2.533        0.481        3.000        1.000        0.000        2.000        4.000        2.000        0.000        0.000        1.000        0.000        0.000        0.000        0.000        1.000        0.000        0.000        0.000        0.000        0.000        1.000        0.000        0.000        0.000        0.000        0.000        2.000        0.000        4.000        2.000        4.000        0.000        3.000        0.000        0.000        0.000      100.000        0.000        0.000        2.288        2.318        2.554
     480.000  -254942.283    26389.278    15120.518    39941.590      118.011  -382239.975    45728.296       25.679       25.772        2.545        2.484        2.651        2.648        2.656        2.579        2.665        2.537        2.745        2.565        2.675        2.604        2.495        2.628        2.506        2.523        0.494        2.000        0.000        0.000        1.000        2.000        2.000        0.000        0.000        1.000        1.000        0.000        0.000        0.000        0.000        0.000        0.000        0.000        0.000        0.000        0.000        0.000        0.000        0.000        0.000        0.000        6.000        0.000        1.000        1.000        1.000        0.000        1.000        0.000        0.000        0.000      100.000        0.000        0.000        1.749        1.786        2.162
     490.000  -255546.918    24647.871    15045.503    40058.113      107.760  -381722.653    46316.487       25.823       25.680        2.589        2.482        2.596        2.672        2.651        2.601        2.727        2.618        2.693        2.623        2.679        2.586        2.507        2.613        2.474        2.509        0.481        2.000        1.000        0.000        2.000        3.000        1.000        0.000        0.000        1.000        0.000        0.000        0.000        0.000        0.000        0.000        0.000        0.000        0.000        0.000        1.000        0.000        0.000        0.000        0.000        0.000        3.000        0.000        4.000        1.000        2.000        0.000        2.000        0.000        0.000        0.000      100.000        0.000        0.000        2.119        2.155        2.522
     500.000  -255598.237    25830.469    15092.037    39874.022      101.477  -382550.814    46054.573       25.955       25.749        2.554        2.480        2.616        2.651        2.591        2.595        2.703        2.587        2.707        2.568        2.672        2.565        2.551        2.602        2.516        2.508        0.472        2.000        1.000        0.000        2.000        3.000        2.000        0.000        0.000        0.000        0.000        0.000        0.000        0.000        0.000        0.000        0.000        0.000        0.000        0.000        1.000        0.000        0.000        0.000        0.000        2.000        6.000        0.000        4.000        2.000        3.000        0.000        2.000        0.000        0.000        0.000      100.000        0.000        0.000        2.758        2.788        3.057
     510.000  -254987.325    25999.772    15021.854    39965.222      104.455  -381450.479    45371.851       25.551       25.761        2.546        2.454        2.630        2.636        2.619        2.580        2.704        2.552        2.721        2.572        2.684        2.620        2.534        2.593        2.487        2.522        0.470        3.000        0.000        0.000        2.000        2.000        1.000        0.000        0.000        1.000        0.000        0.000        0.000        0.000        0.000        0.000        1.000        0.000        0.000        0.000        0.000        0.000        0.000        0.000        0.000        3.000        2.000        0.000        2.000        0.000        3.000        0.000        4.000        0.000        0.000        0.000      100.000        0.000        0.000        2.779        2.807        3.163
     520.000  -255578.073    25558.068    15111.799    39786.229       89.604  -382139.222    46015.448       25.877       26.152        2.537        2.505        2.611        2.656        2.624        2.597        2.707        2.560        2.734        2.574        2.648        2.633        2.533        2.574        2.546        2.460        0.505        1.000        0.000        0.000        2.000        2.000        1.000        0.000        0.000        1.000        0.000        0.000        0.000        0.000        0.000        0.000        0.000        0.000        0.000        0.000        0.000        0.000        0.000        0.000        0.000        0.000        4.000        0.000        3.000        0.000        2.000        0.000        1.000        0.000        0.000        0.000      100.000        0.000        0.000        2.270        2.323        2.618
     530.000  -255287.187    25231.341    14999.469    40070.051      109.690  -382573.521    46875.783       25.830       25.848        2.557        2.441        2.662        2.598        2.585        2.572        2.711        2.586        2.659        2.572        2.641        2.581        2.488        2.521        2.498        2.474        0.496        2.000        1.000        0.000        2.000        3.000        1.000        0.000        0.000        2.000        0.000        0.000        0.000        0.000        0.000        0.000        0.000        0.000        0.000        0.000        0.000        0.000        0.000        0.000        0.000        3.000        5.000        0.000        4.000        1.000        4.000        0.000        1.000        0.000        0.000        0.000      100.000        0.000        0.000        2.319        2.370        2.744
     540.000  -255565.140    24776.481    14830.246    40237.050      106.714  -382730.226    47214.595       25.755       25.783        2.521        2.402        2.635        2.643        2.644        2.601        2.685        2.615        2.613        2.606        2.730        2.612        2.469        2.559        2.538        2.490        0.465        1.000        0.000        0.000        2.000        4.000        2.000        0.000        0.000        0.000        0.000        0.000        0.000        0.000        0.000        0.000        0.000        0.000        0.000        0.000        0.000        0.000        0.000        0.000        0.000        0.000        5.000        0.000        0.000        0.000        3.000        0.000        1.000        0.000        0.000        0.000      100.000        0.000        0.000        2.021        2.071        2.454
     550.000  -255509.517    25903.909    15088.370    39988.470       99.132  -381926.539    45337.142       25.909       25.910        2.506        2.466        2.648        2.616        2.655        2.579        2.677        2.605        2.717        2.569        2.676        2.654        2.505        2.485        2.483        2.493        0.477        2.000        0.000        0.000        2.000        4.000        1.000        0.000        0.000        0.000        0.000        0.000        0.000        0.000        0.000        0.000        0.000        0.000        0.000        0.000        0.000        0.000        0.000        0.000        0.000        0.000        3.000        0.000        4.000        2.000        1.000        0.000        1.000        0.000        0.000        0.000      100.000        0.000        0.000        1.844        1.892        2.339
     560.000  -255376.714    25298.371    15296.214    39999.620      101.129  -382715.014    46642.966       25.968       25.876        2.538        2.471        2.669        2.673        2.632        2.559        2.681        2.582        2.712        2.582        2.672        2.651        2.489        2.520        2.564        2.479        0.498        3.000        1.000        0.000        2.000        3.000        3.000        0.000        0.000        0.000        0.000        0.000        0.000        0.000        0.000        0.000        0.000        0.000        0.000        0.000        1.000        0.000        0.000        0.000        0.000        1.000        1.000        0.000        5.000        2.000        0.000        0.000        1.000        0.000        0.000        0.000      100.000        0.000        0.000        1.920        1.963        2.411
     570.000  -255751.860    24942.177    14945.368    39920.386      126.731  -383195.246    47508.724       26.089       26.077        2.548        2.421        2.646        2.660        2.634        2.618        2.655        2.570        2.708        2.596        2.685        2.589        2.507        2.577        2.480        2.471        0.471        2.000        0.000        0.000        1.000        4.000        2.000        0.000        0.000        1.000        0.000        0.000        0.000        0.000        0.000        0.000        0.000        0.000        0.000        0.000        0.000        0.000        0.000        0.000        0.000        1.000        9.000        0.000        2.000        4.000        5.000        0.000        3.000        0.000        0.000        0.000      100.000        0.000        0.000        1.901        1.934        2.424
     580.000  -255503.074    25172.492    15155.456    39780.691      119.994  -381834.073    46102.365       25.943       25.986        2.557        2.474        2.698        2.661        2.662        2.561        2.691        2.569        2.673        2.609        2.681        2.635        2.483        2.539        2.503        2.509        0.502        3.000        1.000        0.000        2.000        3.000        2.000        0.000        0.000        0.000        0.000        0.000        0.000        0.000        1.000        0.000        0.000        0.000        0.000        0.000        0.000        0.000        0.000        0.000        0.000        1.000        3.000        0.000        2.000        3.000        3.000        0.000        2.000        0.000        4.494        0.000       95.506        0.000        0.000        1.963        1.988        2.611
     590.000  -255642.157    25539.756    15356.635    39921.477      120.911  -383412.132    46831.197       25.828       25.875        2.580        2.470        2.615        2.680        2.689        2.618        2.666        2.609        2.622        2.606        2.662        2.650        2.436        2.527        2.610        2.492        0.479        2.000        0.000        0.000        1.000        3.000        2.000        0.000        0.000        1.000        0.000        0.000        0.000        0.000        0.000        0.000        0.000        0.000        0.000        0.000        0.000        0.000        0.000        0.000        0.000        2.000        3.000        0.000        3.000        2.000        2.000        0.000        4.000        0.000        0.000        0.000      100.000        0.000        0.000        2.154        2.181        2.806
     600.000  -255797.329    24806.257    15308.210    39963.207      101.330  -382744.153    46767.820       26.226       26.030        2.530        2.455        2.598        2.656        2.629        2.594        2.683        2.591        2.644        2.584        2.679        2.655        2.495        2.477        2.571        2.504        0.489        3.000        0.000        0.000        1.000        3.000        2.000        0.000        0.000        1.000        0.000        0.000        0.000        0.000        0.000        0.000        0.000        0.000        0.000        0.000        0.000        0.000        0.000        0.000        0.000        1.000        2.000        0.000        3.000        4.000        2.000        0.000        2.000        0.000        0.000        0.000      100.000        0.000        0.000        2.074        2.101        2.752
     610.000  -255757.278    25474.506    15294.680    39862.991       86.087  -381983.662    45508.120       26.343       26.058        2.531        2.455        2.679        2.667        2.635        2.586        2.700        2.581        2.648        2.618        2.701        2.613        2.461        2.511        2.489        2.543        0.476        2.000        1.000        0.000        1.000        4.000        1.000        0.000        0.000        1.000        0.000        0.000        0.000        0.000        0.000        0.000        0.000        0.000        0.000        0.000        0.000        0.000        0.000        0.000        0.000        1.000        0.000        0.000        1.000        1.000        2.000        0.000        1.000        0.000        0.000        0.000      100.000        0.000        0.000        1.785        1.795        2.524
     620.000  -255985.616    24957.133    15101.663    39818.026      113.865  -383306.576    47330.274       26.087       26.020        2.582        2.443        2.679        2.678        2.629        2.580        2.708        2.547        2.684        2.607        2.640        2.556        2.478        2.556        2.542        2.478        0.467        3.000        1.000        0.000        1.000        3.000        1.000        0.000        0.000        2.000        0.000        0.000        0.000        0.000        0.000        0.000        0.000        0.000        0.000        0.000        0.000        0.000        0.000        0.000        0.000        1.000        4.000        0.000        4.000        5.000        0.000        0.000        2.000        0.000        0.000        0.000      100.000        0.000        0.000        1.999        2.060        2.677
     630.000  -255510.420    26010.103    15260.122    39883.382       93.672  -382053.543    45295.845       26.164       26.228        2.535        2.465        2.632        2.661        2.643        2.602        2.745        2.574        2.678        2.577        2.680        2.627        2.468        2.549        2.510        2.489        0.489        2.000        1.000        0.000        2.000        2.000        2.000        0.000        0.000        1.000        0.000        0.000        0.000        0.000        0.000        0.000        0.000        0.000        0.000        0.000        1.000        0.000        0.000        0.000        0.000        1.000        1.000        0.000        2.000        0.000        0.000        0.000        2.000        0.000        0.000        0.000      100.000        0.000        0.000        2.141        2.165        2.677
     640.000  -255236.598    25528.893    14787.280    39913.843      109.177  -381901.055    46325.264       26.001       25.922        2.554        2.466        2.654        2.630        2.643        2.538        2.662        2.602        2.674        2.561        2.688        2.568        2.445        2.544        2.517        2.514        0.493        2.000        0.000        0.000        2.000        2.000        2.000        0.000        0.000        0.000        0.000        0.000        0.000        0.000        0.000        0.000        0.000        0.000        0.000        0.000        1.000        0.000        0.000        0.000        0.000        0.000        3.000        0.000        2.000        1.000        0.000        0.000        2.000        0.000        0.000        0.000      100.000        0.000        0.000        2.156        2.189        2.759
     650.000  -255738.140    25641.445    14662.503    39504.887       80.613  -381274.739    45647.152       26.071       26.227        2.533        2.436        2.646        2.652        2.640        2.531        2.621        2.603        2.676        2.629        2.653        2.660        2.478        2.505        2.544        2.492        0.501        3.000        0.000        0.000        1.000        3.000        2.000        0.000        0.000        3.000        0.000        0.000        0.000        0.000        0.000        0.000        0.000        0.000        0.000        0.000        1.000        0.000        0.000        0.000        0.000        1.000        1.000        0.000        2.000        4.000        1.000        0.000        1.000        0.000        0.000        0.000      100.000        0.000        0.000        2.550        2.595        3.051
     660.000  -255866.140    24476.852    15064.910    40113.559       88.654  -383156.690    47546.575       25.887       25.924        2.532        2.502        2.642        2.653        2.653        2.602        2.691        2.561        2.670        2.535        2.636        2.608        2.456        2.532        2.471        2.507        0.497        3.000        1.000        0.000        1.000        2.000        1.000        0.000        0.000        1.000        0.000        0.000        0.000        0.000        0.000        0.000        0.000        0.000        0.000        0.000        1.000        0.000        0.000        0.000        0.000        1.000        3.000        0.000        4.000        1.000        6.000        0.000        1.000        0.000        4.494        0.000       95.506        0.000        0.000        2.218        2.242        2.747
     670.000  -255760.663    25794.770    15059.420    39917.907      107.484  -383332.433    46692.189       25.665       25.805        2.557        2.487        2.615        2.646        2.660        2.610        2.679        2.588        2.671        2.577        2.666        2.638        2.513        2.570        2.512        2.437        0.487        3.000        1.000        0.000        2.000        2.000        2.000        0.000        0.000        1.000        0.000        0.000        0.000        0.000        0.000        0.000        0.000        0.000        0.000        0.000        0.000        0.000        0.000        0.000        0.000        1.000        6.000        0.000        2.000        2.000        4.000        0.000        5.000        0.000        0.000        0.000      100.000        0.000        0.000        2.599        2.648        3.116
     680.000  -255025.545    25567.068    15382.133    39933.253       85.274  -382321.443    46328.169       25.824       25.915        2.571        2.462        2.672        2.628        2.680        2.592        2.660        2.547        2.697        2.642        2.658        2.659        2.494        2.607        2.506        2.473        0.478        3.000        1.000        0.000        1.000        1.000        0.000        0.000        0.000        2.000        0.000        0.000        1.000        0.000        0.000        0.000        0.000        0.000        0.000        0.000        0.000        0.000        0.000        0.000        0.000        0.000        4.000        0.000        3.000        1.000        0.000        0.000        1.000        0.000        0.000        0.000      100.000        0.000        0.000        2.651        2.698        3.207
     690.000  -254872.420    24250.673    15326.026    39921.937       94.074  -381355.369    46890.239       26.165       26.304        2.549        2.511        2.631        2.672        2.657        2.613        2.693        2.555        2.690        2.656        2.659        2.672        2.429        2.553        2.465        2.435        0.509        3.000        1.000        0.000        2.000        2.000        1.000        0.000        0.000        1.000        0.000        0.000        0.000        0.000        0.000        0.000        0.000        0.000        0.000        0.000        0.000        0.000        0.000        0.000        0.000        3.000        4.000        0.000        1.000        3.000        2.000        0.000        1.000        0.000        0.000        0.000      100.000        0.000        0.000        2.598        2.631        3.155
     700.000  -255504.808    24742.737    14751.836    39954.578      129.258  -381826.826    46743.607       25.952       25.861        2.572        2.511        2.632        2.651        2.622        2.566        2.681        2.590        2.662        2.621        2.633        2.637        2.505        2.552        2.544        2.389        0.486        3.000        1.000        0.000        2.000        1.000        2.000        0.000        0.000        1.000        0.000        0.000        0.000        0.000        0.000        0.000        0.000        0.000        0.000        0.000        1.000        0.000        0.000        0.000        0.000        1.000        2.000        0.000        4.000        3.000        0.000        0.000        2.000        0.000        0.000        0.000      100.000        0.000        0.000        2.680        2.720        3.214
     710.000  -255503.102    24237.798    15224.438    39938.822       87.408  -382293.754    47302.185       25.890       25.819        2.567        2.494        2.646        2.655        2.629        2.603        2.680        2.596        2.659        2.676        2.668        2.644        2.521        2.494        2.519        2.533        0.492        3.000        1.000        0.000        2.000        3.000        2.000        0.000        0.000        1.000        0.000        0.000        0.000        0.000        0.000        0.000        0.000        0.000        0.000        0.000        1.000        0.000        0.000        0.000        0.000        3.000        2.000        0.000        2.000        3.000        3.000        0.000        2.000        0.000        4.494        0.000       95.506        0.000        0.000        2.548        2.594        3.069
     720.000  -255142.864    24397.805    15034.249    39821.592       99.829  -381134.000    46637.660       26.064       26.123        2.542        2.507        2.671        2.595        2.661        2.554        2.688        2.587        2.672        2.636        2.656        2.594        2.488        2.575        2.550        2.492        0.488        3.000        0.000        0.000        2.000        2.000        0.000        0.000        0.000        1.000        0.000        0.000        0.000        0.000        1.000        0.000        0.000        0.000        0.000        0.000        1.000        0.000        0.000        0.000        0.000        4.000        5.000        0.000        3.000        0.000        2.000        0.000        1.000        0.000        0.000        0.000      100.000        0.000        0.000        2.586        2.638        3.016
     730.000  -255187.991    25276.645    15021.481    39971.682      116.469  -381760.934    46186.666       25.770       25.883        2.547        2.480        2.694        2.683        2.619        2.558        2.658        2.589        2.702        2.649        2.625        2.618        2.500        2.555        2.479        2.507        0.489        2.000        0.000        0.000        2.000        1.000        1.000        0.000        0.000        0.000        0.000        0.000        0.000        0.000        1.000        0.000        0.000        0.000        0.000        0.000        1.000        0.000        0.000        0.000        0.000        0.000        1.000        0.000        2.000        0.000        3.000        0.000        0.000        0.000        0.000        0.000      100.000        0.000        0.000        2.365        2.424        2.779
     740.000  -254855.465    24189.364    15475.356    39802.323      107.188  -381852.684    47422.989       26.176       26.034        2.592        2.461        2.682        2.635        2.608        2.564        2.652        2.596        2.658        2.641        2.667        2.645        2.516        2.549        2.512        2.559        0.488        3.000        0.000        0.000        2.000        1.000        2.000        0.000        0.000        2.000        0.000        0.000        0.000        0.000        1.000        0.000        0.000        0.000        0.000        0.000        0.000        0.000        0.000        0.000        0.000        1.000        4.000        0.000        2.000        1.000        3.000        0.000        2.000        0.000        4.494        0.000       95.506        0.000        0.000        2.702        2.743        3.046
     750.000  -255326.719    24946.996    15134.310    39912.783      115.426  -383073.705    47637.471       25.923       25.878        2.569        2.488        2.652        2.650        2.613        2.538        2.693        2.591        2.681        2.575        2.661        2.677        2.462        2.604        2.473        2.564        0.494        3.000        0.000        0.000        2.000        1.000        1.000        0.000        0.000        0.000        0.000        0.000        0.000        0.000        1.000        0.000        0.000        0.000        0.000        0.000        1.000        0.000        0.000        0.000        0.000        0.000        5.000        0.000        1.000        0.000        2.000        0.000        2.000        0.000        4.494        0.000       95.506        0.000        0.000        2.470        2.513        2.916
     760.000  -255831.627    24913.824    15066.918    39728.669       92.656  -383153.015    47519.320       26.631       26.344        2.596        2.483        2.654        2.602        2.609        2.550        2.678        2.588        2.676        2.575        2.642        2.667        2.495        2.512        2.554        2.598        0.492        0.000        0.000        0.000        2.000        1.000        3.000        0.000        0.000        1.000        0.000        0.000        0.000        0.000        0.000        0.000        0.000        0.000        0.000        0.000        0.000        0.000        0.000        0.000        0.000        1.000        7.000        0.000        1.000        2.000        3.000        0.000        0.000        0.000        0.000        0.000      100.000        0.000        0.000        3.160        3.196        3.410
     770.000  -255084.876    24784.219    15114.821    40231.399       87.857  -382309.057    47005.884       25.664       25.409        2.564        2.459        2.704        2.658        2.608        2.552        2.648        2.521        2.667        2.657        2.647        2.670        2.470        2.523        2.499        2.609        0.491        3.000        0.000        0.000        2.000        1.000        2.000        0.000        0.000        1.000        0.000        0.000        0.000        0.000        0.000        0.000        0.000        0.000        0.000        0.000        1.000        0.000        0.000        0.000        0.000        1.000        7.000        0.000        3.000        0.000        2.000        0.000        0.000        0.000        0.000        0.000      100.000        0.000        0.000        3.096        3.137        3.397
     780.000  -255792.004    26521.274    14922.202    39863.299      105.755  -382809.650    45605.116       26.202       26.025        2.534        2.478        2.662        2.674        2.623        2.568        2.650        2.571        2.719        2.670        2.645        2.660        2.460        2.632        2.517        2.621        0.475        3.000        0.000        0.000        2.000        2.000        2.000        0.000        0.000        2.000        0.000        0.000        0.000        0.000        0.000        0.000        0.000        0.000        0.000        0.000        0.000        0.000        0.000        0.000        0.000        1.000        1.000        0.000        0.000        0.000        7.000        0.000        2.000        0.000        0.000        0.000      100.000        0.000        0.000        2.934        2.965        3.357
     790.000  -255372.879    25528.766    15371.782    39919.026      115.305  -382218.605    45910.847       25.794       25.883        2.571        2.451        2.611        2.667        2.655        2.583        2.662        2.597        2.694        2.597        2.670        2.700        2.465        2.597        2.516        2.581        0.473        3.000        1.000        0.000        2.000        0.000        3.000        0.000        0.000        1.000        0.000        0.000        0.000        0.000        0.000        0.000        0.000        0.000        0.000        0.000        0.000        0.000        0.000        0.000        0.000        3.000        2.000        0.000        4.000        0.000        0.000        0.000        2.000        0.000        0.000        0.000      100.000        0.000        0.000        2.449        2.503        3.086
     800.000  -255702.444    25759.279    15162.423    39932.878      131.611  -383450.524    46761.889       26.495       26.071        2.548        2.455        2.668        2.650        2.629        2.595        2.669        2.590        2.715        2.628        2.667        2.657        2.477        2.573        2.495        2.586        0.468        2.000        0.000        0.000        2.000        1.000        2.000        0.000        0.000        1.000        0.000        0.000        0.000        0.000        0.000        0.000        0.000        0.000        0.000        0.000        0.000        0.000        0.000        0.000        0.000        0.000        2.000        0.000        5.000        2.000        1.000        0.000        1.000        0.000        0.000        0.000      100.000        0.000        0.000        2.951        2.989        3.421
     810.000  -256354.623    25741.508    14881.913    39843.597      138.306  -383009.167    46049.221       26.295       26.012        2.556        2.475        2.618        2.629        2.642        2.545        2.661        2.595        2.696        2.671        2.625        2.668        2.500        2.561        2.504        2.594        0.507        3.000        0.000        0.000        2.000        2.000        2.000        0.000        0.000        1.000        0.000        0.000        0.000        0.000        0.000        0.000        0.000        0.000        0.000        0.000        0.000        0.000        0.000        0.000        0.000        1.000        3.000        0.000        0.000        1.000        0.000        0.000        1.000        0.000        0.000        0.000      100.000        0.000        0.000        2.583        2.609        3.046
     820.000  -255758.763    25311.603    15381.504    39952.939      101.218  -382599.547    46093.521       26.056       25.853        2.578        2.481        2.655        2.650        2.629        2.615        2.694        2.575        2.743        2.619        2.620        2.643        2.473        2.532        2.583        2.553        0.486        3.000        0.000        0.000        2.000        1.000        1.000        0.000        0.000        0.000        0.000        0.000        0.000        0.000        0.000        0.000        0.000        0.000        0.000        0.000        1.000        0.000        0.000        0.000        0.000        0.000        7.000        0.000        6.000        0.000        0.000        0.000        1.000        0.000        0.000        0.000      100.000        0.000        0.000        2.568        2.593        3.055
     830.000  -256010.965    24931.518    15004.235    39875.145      115.603  -382909.213    46971.747       25.894       25.691        2.540        2.468        2.622        2.609        2.660        2.572        2.672        2.577        2.720        2.587        2.643        2.636        2.503        2.611        2.507        2.545        0.478        3.000        0.000        0.000        2.000        0.000        2.000        0.000        0.000        1.000        0.000        0.000        1.000        0.000        0.000        0.000        0.000        0.000        0.000        0.000        0.000        0.000        0.000        0.000        0.000        1.000        1.000        0.000        2.000        1.000        0.000        0.000        1.000        0.000        0.000        0.000      100.000        0.000        0.000        2.830        2.857        3.212
     840.000  -255029.287    24411.556    15477.168    39846.773       97.622  -381932.052    47069.647       25.919       25.718        2.547        2.436        2.628        2.649        2.604        2.585        2.598        2.601        2.778        2.544        2.646        2.656        2.479        2.568        2.543        2.486        0.479        3.000        1.000        0.000        2.000        2.000        1.000        0.000        0.000        1.000        0.000        0.000        0.000        0.000        0.000        0.000        0.000        0.000        0.000        0.000        0.000        0.000        0.000        0.000        0.000        0.000        6.000        0.000        1.000        1.000        1.000        0.000        0.000        0.000        0.000        0.000      100.000        0.000        0.000        2.979        3.019        3.363
     850.000  -256080.237    24798.648    15001.662    39771.466       73.236  -383918.073    48192.824       26.121       25.793        2.543        2.472        2.649        2.624        2.609        2.585        2.667        2.582        2.705        2.602        2.644        2.673        2.497        2.568        2.536        2.525        0.494        2.000        0.000        0.000        2.000        2.000        0.000        0.000        0.000        1.000        0.000        0.000        0.000        0.000        0.000        0.000        0.000        0.000        0.000        0.000        1.000        0.000        0.000        0.000        0.000        1.000        6.000        0.000        5.000        1.000        1.000        0.000        2.000        0.000        0.000        0.000      100.000        0.000        0.000        2.693        2.740        3.164
     860.000  -255569.894    25375.629    15340.267    39604.475      103.635  -382569.511    46575.612       26.142       25.966        2.562        2.435        2.728        2.590        2.640        2.611        2.660        2.549        2.725        2.684        2.616        2.611        2.472        2.524        2.528        2.554        0.490        3.000        0.000        0.000        1.000        1.000        1.000        0.000        0.000        0.000        0.000        0.000        0.000        0.000        1.000        0.000        0.000        0.000        0.000        0.000        1.000        0.000        0.000        0.000        0.000        0.000        1.000        0.000        4.000        0.000        2.000        0.000        4.000        0.000        0.000        0.000      100.000        0.000        0.000        2.235        2.263        2.766
     870.000  -255149.905    25049.086    14920.477    39760.018      112.087  -382531.202    47539.629       26.122       26.043        2.552        2.465        2.668        2.638        2.570        2.555        2.668        2.546        2.709        2.638        2.646        2.622        2.504        2.558        2.559        2.538        0.491        3.000        0.000        0.000        2.000        1.000        1.000        0.000        0.000        0.000        0.000        0.000        0.000        0.000        0.000        0.000        0.000        0.000        0.000        0.000        0.000        0.000        0.000        0.000        0.000        1.000        4.000        0.000        4.000        0.000        2.000        0.000        4.000        0.000        0.000        0.000      100.000        0.000        0.000        2.261        2.317        2.854
     880.000  -255327.683    25085.610    15007.466    39754.254      110.778  -381055.847    45770.056       26.126       26.207        2.567        2.460        2.687        2.667        2.626        2.611        2.654        2.545        2.720        2.623        2.658        2.604        2.464        2.520        2.524        2.626        0.488        2.000        0.000        0.000        2.000        2.000        1.000        0.000        0.000        2.000        0.000        0.000        0.000        0.000        0.000        0.000        0.000        0.000        0.000        0.000        0.000        0.000        0.000        0.000        0.000        0.000        0.000        0.000        4.000        1.000        1.000        0.000        3.000        0.000        0.000        0.000      100.000        0.000        0.000        2.584        2.618        3.081
     890.000  -255969.412    24888.153    15315.818    39941.069       78.357  -384002.366    47809.558       26.044       25.892        2.555        2.462        2.658        2.669        2.677        2.556        2.636        2.552        2.631        2.642        2.653        2.623        2.493        2.553        2.540        2.573        0.506        3.000        0.000        0.000        2.000        1.000        1.000        0.000        0.000        2.000        0.000        0.000        0.000        0.000        0.000        0.000        0.000        0.000        0.000        0.000        1.000        0.000        0.000        0.000        0.000        1.000        3.000        0.000        4.000        0.000        1.000        0.000        4.000        0.000        0.000        0.000      100.000        0.000        0.000        2.446        2.465        2.952
     900.000  -253944.059    25232.680    15097.362    39914.491       97.235  -380780.252    46494.425       26.037       26.132        2.525        2.470        2.675        2.652        2.638        2.615        2.654        2.589        2.661        2.643        2.701        2.600        2.482        2.507        2.557        2.498        0.482        2.000        0.000        0.000        2.000        2.000        2.000        0.000        0.000        0.000        0.000        0.000        0.000        0.000        0.000        0.000        0.000        0.000        0.000        0.000        1.000        0.000        0.000        0.000        0.000        0.000        4.000        0.000        3.000        1.000        2.000        0.000        0.000        0.000        0.000        0.000      100.000        0.000        0.000        2.472        2.480        3.026
     910.000  -256250.819    25526.268    14784.620    39817.350       90.866  -383657.606    47187.682       25.986       25.993        2.541        2.475        2.682        2.648        2.602        2.587        2.690        2.522        2.645        2.645        2.662        2.598        2.505        2.535        2.512        2.503        0.480        2.000        0.000        0.000        2.000        1.000        2.000        0.000        0.000        0.000        0.000        0.000        0.000        0.000        0.000        0.000        0.000        0.000        0.000        0.000        0.000        0.000        0.000        0.000        0.000        3.000        5.000        0.000        4.000        1.000        1.000        0.000        4.000        0.000        4.494        0.000       95.506        0.000        0.000        2.669        2.693        3.142
     920.000  -255742.314    26304.366    14821.222    39509.151      107.550  -382259.671    45775.069       26.289       26.074        2.571        2.459        2.639        2.617        2.666        2.594        2.639        2.541        2.684        2.630        2.630        2.617        2.442        2.528        2.475        2.548        0.469        2.000        0.000        0.000        2.000        2.000        2.000        0.000        0.000        1.000        0.000        0.000        0.000        0.000        0.000        0.000        0.000        0.000        0.000        0.000        0.000        0.000        0.000        0.000        0.000        0.000        1.000        0.000        3.000        1.000        1.000        0.000        3.000        0.000        4.494        0.000       95.506        0.000        0.000        2.524        2.570        2.987
     930.000  -254919.862    25700.921    15155.076    39672.186       86.139  -380793.472    45259.289       26.393       26.095        2.531        2.467        2.664        2.668        2.642        2.632        2.654        2.521        2.728        2.644        2.684        2.610        2.426        2.604        2.540        2.495        0.474        2.000        0.000        0.000        1.000        2.000        1.000        0.000        0.000        2.000        0.000        0.000        0.000        0.000        0.000        0.000        0.000        0.000        0.000        0.000        0.000        0.000        0.000        0.000        0.000        0.000        3.000        0.000        3.000        0.000        1.000        0.000        1.000        0.000        0.000        0.000      100.000        0.000        0.000        2.408        2.429        2.884
     940.000  -255665.276    25564.327    15025.222    39884.572       84.375  -382839.178    46615.407       26.088       25.980        2.527        2.484        2.649        2.585        2.635        2.601        2.651        2.530        2.682        2.581        2.693        2.677        2.508        2.605        2.506        2.516        0.492        2.000        1.000        0.000        2.000        1.000        2.000        0.000        0.000        1.000        0.000        0.000        0.000        0.000        0.000        0.000        0.000        0.000        0.000        0.000        0.000        0.000        0.000        0.000        0.000        3.000        5.000        0.000        4.000        1.000        0.000        0.000        3.000        0.000        0.000        0.000      100.000        0.000        0.000        2.358        2.366        2.864
     950.000  -255483.670    24889.326    14778.753    39698.719      114.448  -381061.216    46096.301       25.911       25.989        2.558        2.486        2.623        2.631        2.631        2.575        2.688        2.604        2.681        2.644        2.650        2.575        2.496        2.539        2.577        2.441        0.470        2.000        0.000        0.000        2.000        1.000        1.000        0.000        0.000        0.000        0.000        0.000        0.000        0.000        0.000        0.000        0.000        0.000        0.000        0.000        0.000        0.000        0.000        0.000        0.000        0.000        1.000        0.000        5.000        1.000        1.000        0.000        0.000        0.000        0.000        0.000      100.000        0.000        0.000        2.521        2.567        2.969
     960.000  -255771.205    25917.467    14975.845    39780.194       87.140  -382047.904    45516.054       25.966       26.090        2.550        2.449        2.660        2.666        2.651        2.645        2.657        2.564        2.654        2.659        2.622        2.614        2.514        2.520        2.470        2.468        0.485        3.000        0.000        0.000        1.000        1.000        2.000        0.000        0.000        2.000        0.000        0.000        0.000        0.000        0.000        0.000        0.000        0.000        0.000        0.000        0.000        0.000        0.000        0.000        0.000        1.000        7.000        0.000        2.000        0.000        2.000        0.000        4.000        0.000        0.000        0.000      100.000        0.000        0.000        2.379        2.423        2.842
     970.000  -255434.001    24997.360    15105.448    39887.875       88.021  -382649.467    47136.762       26.385       26.559        2.537        2.469        2.673        2.604        2.643        2.589        2.627        2.617        2.705        2.633        2.695        2.642        2.494        2.585        2.539        2.479        0.501        2.000        0.000        0.000        2.000        1.000        2.000        0.000        0.000        0.000        0.000        0.000        0.000        0.000        0.000        0.000        0.000        0.000        0.000        0.000        0.000        0.000        0.000        0.000        0.000        0.000        1.000        0.000        3.000        0.000        1.000        0.000        2.000        0.000        0.000        0.000      100.000        0.000        0.000        2.289        2.299        2.843
     980.000  -255323.390    24957.597    15121.106    39796.448      109.490  -382901.096    47593.066       26.564       26.816        2.547        2.454        2.648        2.649        2.628        2.615        2.647        2.600        2.738        2.631        2.615        2.649        2.502        2.559        2.464        2.490        0.507        3.000        0.000        0.000        2.000        1.000        1.000        0.000        0.000        1.000        0.000        0.000        0.000        0.000        0.000        0.000        0.000        0.000        0.000        0.000        1.000        0.000        0.000        0.000        0.000        0.000        2.000        0.000        6.000        0.000        1.000        0.000        1.000        0.000        0.000        0.000      100.000        0.000        0.000        2.401        2.432        2.932
     990.000  -255167.285    24440.922    15056.300    39966.551       86.962  -381075.231    46357.211       25.992       26.163        2.591        2.430        2.623        2.667        2.659        2.620        2.669        2.585        2.634        2.547        2.650        2.639        2.477        2.575        2.546        2.497        0.502        2.000        0.000        0.000        2.000        2.000        1.000        0.000        0.000        0.000        0.000        0.000        0.000        0.000        0.000        0.000        0.000        0.000        0.000        0.000        0.000        0.000        0.000        0.000        0.000        2.000        6.000        0.000        5.000        1.000        0.000        0.000        1.000        0.000        0.000        0.000      100.000        0.000        0.000        2.191        2.230        2.783
    1000.000  -255617.779    24957.484    14896.073    39667.906      104.998  -383289.223    48044.985       26.043       26.171        2.549        2.470        2.661        2.689        2.631        2.588        2.665        2.555        2.690        2.605        2.617        2.629        2.481        2.606        2.572        2.493        0.500        3.000        0.000        0.000        1.000        1.000        2.000        0.000        0.000        0.000        0.000        0.000        0.000        0.000        0.000        0.000        0.000        0.000        0.000        0.000        0.000        0.000        0.000        0.000        0.000        0.000        1.000        0.000        3.000        0.000        0.000        0.000        1.000        0.000        0.000        0.000      100.000        0.000        0.000        2.509        2.546        3.092
     Average  -257194.793    25638.954    15132.846    39911.986      101.965  -385283.739    47303.195       25.991       25.973        2.549        2.477        2.657        2.644        2.633        2.583        2.690        2.578        2.687        2.605        2.648        2.632        2.506        2.545        2.514        2.519        0.488        2.208        0.812        0.000        1.653        2.693        1.574        0.000        0.000        0.624        0.188        0.000        0.030        0.000        0.158        0.000        0.079        0.000        0.000        0.000        0.386        0.000        0.000        0.000        0.000        1.089        3.050        0.000        3.020        1.366        1.624        0.000        1.545        0.000        1.112        0.000       98.888        0.000        0.000        2.151        2.180        2.539

