____Time[ps] Energy[ kJ/mol ]_____Bond _______Angle ____Dihedral ___Planarity _____Coulomb _________VdW _Your result _Your result _Your result _Your result _Your result _Your result _Your result _Your result _Your result _Your result _Your result _Your result _Your result _Your result _Your result _Your result _Your result _Your result _Your result _Your result _Your result _Your result _Your result _Your result _Your result _Your result _Your result _Your result _Your result _Your result _Your result _Your result _Your result _Your result _Your result _Your result _Your result _Your result _Your result _Your result _Your result _Your result _Your result _Your result _Your result _Your result _Your result _Your result _Your result _Your result _Your result _Your result _Your result _Your result _Your result _Your result _Your result _RMSDs[A]:CA ____Backbone __HeavyAtoms
       0.000  -351900.546    12544.273     5144.793    33506.757       17.531  -472292.089    69178.189       25.207       25.236        2.420        2.571        2.513        2.655        2.676        3.011        2.669        2.547        3.212        2.672        2.504        2.669        3.048        3.050        2.509        2.613        0.488        2.000        0.000        1.000        1.000        1.000        0.000        0.000        2.000        1.000        0.000        0.000        0.000        0.000        0.000        0.000        1.000        0.000        0.000        0.000        0.000        0.000        0.000        0.000        0.000        0.000        0.000        1.000        0.000        2.000        0.000        1.000        1.000        0.000        0.000        0.000      100.000        0.000        0.000        0.506        0.547        0.700
      10.000  -264782.534    30550.200    15350.387    33288.386      167.065  -393958.394    49819.823       25.603       25.502        2.503        2.598        2.560        2.717        2.616        3.096        2.683        2.579        3.239        2.660        2.539        2.673        3.140        3.002        2.529        2.555        0.499        2.000        0.000        1.000        1.000        1.000        0.000        0.000        2.000        1.000        0.000        0.000        1.000        0.000        0.000        0.000        0.000        0.000        0.000        0.000        0.000        0.000        0.000        0.000        0.000        1.000        0.000        5.000        2.000        1.000        0.000        1.000        1.000        0.000        0.000        0.000      100.000        0.000        0.000        1.042        1.063        1.160
      20.000  -263358.659    29033.909    15956.454    33419.237      132.381  -393286.721    51386.082       25.905       25.604        2.524        2.619        2.503        2.631        2.631        3.006        2.628        2.572        3.207        2.693        2.504        2.535        3.032        2.967        2.550        2.567        0.470        2.000        0.000        1.000        1.000        1.000        0.000        0.000        2.000        0.000        0.000        0.000        0.000        0.000        0.000        0.000        0.000        0.000        0.000        0.000        0.000        0.000        0.000        0.000        0.000        0.000        0.000        1.000        1.000        1.000        0.000        1.000        3.000        0.000        0.000        0.000      100.000        0.000        0.000        1.282        1.278        1.461
      30.000  -263486.696    29733.912    15566.220    33270.054      116.521  -390701.550    48528.148       25.789       25.462        2.480        2.650        2.473        2.689        2.628        3.066        2.685        2.583        3.225        2.695        2.518        2.556        3.048        2.938        2.527        2.530        0.486        1.000        0.000        1.000        1.000        2.000        0.000        0.000        1.000        0.000        0.000        0.000        0.000        0.000        0.000        0.000        0.000        0.000        0.000        0.000        0.000        0.000        0.000        0.000        0.000        2.000        0.000        5.000        2.000        0.000        0.000        1.000        2.000        0.000        7.865        0.000       92.135        0.000        0.000        1.368        1.360        1.561
      40.000  -263076.655    27951.049    15800.623    33371.681      126.902  -390343.474    50016.563       25.678       25.416        2.573        2.622        2.501        2.644        2.638        3.070        2.617        2.587        3.206        2.672        2.487        2.521        3.071        2.985        2.559        2.561        0.488        1.000        0.000        1.000        1.000        3.000        0.000        0.000        2.000        0.000        0.000        0.000        0.000        0.000        0.000        1.000        1.000        0.000        0.000        0.000        0.000        0.000        0.000        0.000        0.000        0.000        0.000        4.000        2.000        1.000        0.000        1.000        3.000        0.000        0.000        0.000      100.000        0.000        0.000        1.522        1.491        1.749
      50.000  -263855.008    28680.945    16038.455    33142.967      117.397  -391807.040    49972.268       26.017       25.425        2.634        2.635        2.516        2.677        2.597        3.018        2.665        2.556        3.242        2.665        2.547        2.528        3.107        2.997        2.543        2.550        0.489        1.000        0.000        1.000        1.000        3.000        0.000        1.000        2.000        0.000        0.000        0.000        0.000        0.000        0.000        0.000        1.000        0.000        0.000        0.000        0.000        0.000        0.000        0.000        0.000        0.000        0.000        4.000        1.000        2.000        0.000        1.000        2.000        0.000        4.494        0.000       95.506        0.000        0.000        1.688        1.680        1.889
      60.000  -262330.166    27669.277    16077.431    33373.935      126.576  -390401.047    50823.661       25.658       25.299        2.621        2.601        2.513        2.641        2.626        3.106        2.673        2.581        3.271        2.647        2.521        2.546        3.065        2.981        2.556        2.560        0.474        1.000        0.000        1.000        1.000        3.000        0.000        0.000        2.000        1.000        0.000        0.000        0.000        0.000        0.000        0.000        3.000        0.000        0.000        0.000        0.000        0.000        0.000        0.000        0.000        1.000        0.000        2.000        0.000        0.000        0.000        1.000        4.000        0.000        0.000        0.000      100.000        0.000        0.000        2.135        2.112        2.245
      70.000  -262990.365    28504.228    16329.807    33129.526       99.010  -389853.051    48800.115       25.643       25.389        2.651        2.626        2.565        2.644        2.694        3.098        2.640        2.556        3.251        2.692        2.537        2.519        3.057        3.048        2.621        2.586        0.483        1.000        0.000        1.000        1.000        1.000        0.000        0.000        2.000        0.000        0.000        0.000        0.000        0.000        0.000        1.000        0.000        0.000        0.000        0.000        0.000        0.000        0.000        0.000        0.000        0.000        0.000        2.000        0.000        1.000        0.000        1.000        1.000        0.000        0.000        0.000      100.000        0.000        0.000        2.148        2.149        2.317
      80.000  -262224.039    27015.528    16178.215    33312.306      145.566  -389441.072    50565.419       25.689       25.379        2.623        2.622        2.510        2.683        2.639        3.007        2.619        2.579        3.227        2.691        2.498        2.542        3.122        3.088        2.560        2.540        0.492        1.000        0.000        1.000        1.000        1.000        0.000        0.000        2.000        0.000        0.000        0.000        0.000        0.000        0.000        1.000        1.000        0.000        0.000        0.000        0.000        0.000        0.000        0.000        0.000        2.000        0.000        2.000        2.000        1.000        0.000        3.000        5.000        0.000        0.000        0.000      100.000        0.000        0.000        2.161        2.143        2.301
      90.000  -261809.965    28555.436    16448.056    33212.692      107.181  -388334.640    48201.311       25.817       25.532        2.584        2.636        2.535        2.683        2.680        2.969        2.648        2.615        3.284        2.677        2.505        2.531        3.166        2.970        2.544        2.550        0.509        1.000        0.000        1.000        1.000        2.000        0.000        0.000        2.000        0.000        0.000        0.000        0.000        0.000        0.000        1.000        1.000        0.000        0.000        0.000        0.000        0.000        0.000        0.000        0.000        1.000        0.000        2.000        2.000        3.000        0.000        3.000        4.000        0.000        4.494        0.000       95.506        0.000        0.000        2.087        2.097        2.204
     100.000  -261111.361    26181.103    15947.766    33472.399      116.365  -386178.941    49349.946       25.672       25.547        2.615        2.642        2.545        2.662        2.689        3.022        2.602        2.598        3.238        2.683        2.511        2.520        3.121        3.047        2.604        2.612        0.486        1.000        0.000        1.000        0.000        2.000        0.000        0.000        2.000        0.000        0.000        0.000        0.000        0.000        0.000        0.000        3.000        0.000        0.000        0.000        0.000        0.000        0.000        0.000        0.000        0.000        0.000        7.000        1.000        4.000        0.000        2.000        4.000        0.000        0.000        0.000      100.000        0.000        0.000        2.148        2.155        2.333
     110.000  -261627.656    26605.317    15764.505    33370.152      123.589  -387490.391    49999.171       25.774       25.683        2.616        2.672        2.580        2.633        2.573        3.009        2.642        2.560        3.253        2.657        2.485        2.543        3.109        3.016        2.588        2.559        0.477        2.000        0.000        1.000        1.000        2.000        0.000        0.000        2.000        0.000        0.000        0.000        0.000        0.000        0.000        1.000        0.000        0.000        0.000        0.000        0.000        0.000        0.000        0.000        0.000        2.000        0.000        6.000        1.000        5.000        0.000        1.000        4.000        0.000        0.000        0.000      100.000        0.000        0.000        1.808        1.812        2.069
     120.000  -260705.077    26958.231    15848.683    33444.697      143.269  -386590.069    49490.112       25.861       25.595        2.643        2.616        2.565        2.604        2.620        2.950        2.626        2.554        3.257        2.662        2.504        2.543        3.052        2.968        2.557        2.556        0.471        1.000        0.000        1.000        1.000        1.000        0.000        0.000        2.000        0.000        0.000        0.000        0.000        0.000        0.000        0.000        1.000        0.000        0.000        0.000        0.000        0.000        0.000        0.000        0.000        0.000        0.000        6.000        3.000        2.000        0.000        2.000        5.000        0.000        0.000        0.000      100.000        0.000        0.000        1.634        1.651        1.900
     130.000  -260725.653    27547.871    16424.088    33035.295      113.164  -385940.900    48094.829       26.063       25.871        2.603        2.594        2.500        2.723        2.679        3.091        2.629        2.615        3.224        2.679        2.547        2.512        3.165        3.007        2.595        2.552        0.503        1.000        0.000        1.000        1.000        1.000        0.000        0.000        2.000        0.000        0.000        0.000        0.000        0.000        0.000        0.000        0.000        0.000        0.000        0.000        0.000        0.000        0.000        0.000        0.000        0.000        0.000        2.000        3.000        0.000        0.000        2.000        3.000        0.000        0.000        0.000      100.000        0.000        0.000        1.779        1.804        2.057
     140.000  -260520.545    26923.175    16026.597    33383.083      118.098  -384949.662    47978.164       25.776       25.687        2.615        2.622        2.530        2.595        2.662        3.072        2.665        2.618        3.256        2.687        2.485        2.528        3.075        3.030        2.538        2.572        0.500        1.000        0.000        1.000        1.000        1.000        0.000        0.000        1.000        1.000        0.000        0.000        0.000        0.000        0.000        0.000        1.000        0.000        0.000        0.000        0.000        0.000        0.000        0.000        0.000        0.000        0.000        2.000        1.000        2.000        0.000        2.000        8.000        0.000        0.000        0.000      100.000        0.000        0.000        1.502        1.524        1.965
     150.000  -260619.698    26684.632    15721.362    33332.536      132.437  -385648.384    49157.720       25.900       25.353        2.643        2.620        2.529        2.644        2.641        3.031        2.657        2.576        3.268        2.658        2.489        2.540        3.115        2.949        2.590        2.582        0.486        1.000        0.000        1.000        1.000        1.000        0.000        0.000        2.000        0.000        0.000        0.000        0.000        0.000        0.000        1.000        0.000        0.000        0.000        0.000        0.000        0.000        0.000        0.000        0.000        2.000        0.000        1.000        3.000        2.000        0.000        2.000        2.000        0.000        0.000        0.000      100.000        0.000        0.000        1.669        1.683        2.069
     160.000  -260255.734    25919.746    15791.355    33424.310      160.110  -384614.935    49063.680       25.830       25.501        2.659        2.600        2.502        2.604        2.663        3.012        2.626        2.514        3.226        2.660        2.523        2.533        3.025        2.936        2.576        2.552        0.483        1.000        0.000        1.000        1.000        1.000        0.000        0.000        2.000        0.000        0.000        0.000        0.000        0.000        0.000        1.000        2.000        0.000        0.000        0.000        0.000        0.000        0.000        0.000        0.000        0.000        0.000        1.000        0.000        3.000        0.000        3.000        4.000        0.000        0.000        0.000      100.000        0.000        0.000        1.370        1.385        1.836
     170.000  -260224.318    27267.858    15685.596    33235.458      119.825  -383213.872    46680.816       26.102       25.776        2.672        2.612        2.534        2.656        2.679        2.961        2.668        2.558        3.260        2.714        2.509        2.530        3.044        2.966        2.608        2.587        0.502        1.000        0.000        1.000        1.000        1.000        0.000        0.000        2.000        1.000        0.000        0.000        0.000        0.000        0.000        0.000        0.000        0.000        0.000        0.000        0.000        0.000        0.000        0.000        0.000        1.000        0.000        4.000        0.000        3.000        0.000        2.000        5.000        0.000        0.000        0.000      100.000        0.000        0.000        1.587        1.609        1.985
     180.000  -260057.301    25590.540    15455.589    33683.322      121.986  -383259.169    48350.431       26.103       25.418        2.645        2.568        2.544        2.651        2.628        2.971        2.674        2.611        3.248        2.620        2.535        2.550        3.030        2.985        2.482        2.577        0.478        1.000        0.000        1.000        1.000        1.000        0.000        0.000        1.000        0.000        0.000        0.000        0.000        0.000        0.000        1.000        0.000        0.000        0.000        0.000        0.000        0.000        0.000        0.000        0.000        1.000        0.000        4.000        2.000        2.000        0.000        1.000        3.000        0.000        0.000        0.000      100.000        0.000        0.000        1.595        1.616        2.120
     190.000  -260651.650    26128.484    15639.056    33531.196      103.690  -384537.564    48483.489       26.102       25.522        2.585        2.621        2.522        2.652        2.695        3.080        2.623        2.552        3.282        2.654        2.519        2.519        3.043        2.979        2.543        2.573        0.494        1.000        0.000        1.000        1.000        1.000        0.000        0.000        1.000        0.000        0.000        0.000        0.000        0.000        0.000        1.000        1.000        0.000        0.000        0.000        0.000        0.000        0.000        0.000        0.000        0.000        0.000        1.000        1.000        2.000        0.000        5.000        4.000        0.000        4.494        0.000       95.506        0.000        0.000        1.616        1.648        2.310
     200.000  -259792.778    25991.531    16190.074    33400.892      144.898  -383289.385    47769.212       26.136       25.594        2.646        2.627        2.509        2.664        2.667        3.140        2.683        2.585        3.292        2.699        2.532        2.548        3.042        3.001        2.509        2.580        0.509        1.000        0.000        1.000        1.000        1.000        0.000        0.000        1.000        0.000        0.000        0.000        0.000        0.000        0.000        1.000        0.000        0.000        0.000        0.000        0.000        0.000        0.000        0.000        0.000        2.000        0.000        1.000        1.000        4.000        0.000        3.000        4.000        0.000        0.000        0.000      100.000        0.000        0.000        1.672        1.690        2.313
     210.000  -259241.236    25787.969    15957.373    33578.635      134.583  -384199.744    49499.948       25.913       25.362        2.639        2.621        2.542        2.649        2.691        3.166        2.632        2.530        3.245        2.659        2.529        2.502        3.059        3.011        2.582        2.548        0.458        1.000        0.000        1.000        1.000        1.000        0.000        0.000        1.000        1.000        0.000        0.000        0.000        0.000        0.000        0.000        2.000        0.000        0.000        0.000        0.000        0.000        0.000        0.000        0.000        1.000        0.000        3.000        2.000        4.000        0.000        1.000        3.000        0.000        0.000        0.000      100.000        0.000        0.000        2.109        2.137        2.705
     220.000  -259606.041    25368.885    15540.132    33341.572      110.571  -383085.607    49118.405       26.035       25.427        2.601        2.603        2.493        2.672        2.702        2.969        2.678        2.563        3.242        2.731        2.547        2.502        3.104        2.992        2.581        2.585        0.481        1.000        0.000        1.000        1.000        1.000        0.000        0.000        1.000        0.000        0.000        0.000        0.000        0.000        0.000        2.000        1.000        0.000        0.000        0.000        0.000        0.000        0.000        0.000        0.000        2.000        0.000        1.000        1.000        2.000        0.000        2.000        2.000        0.000        0.000        0.000      100.000        0.000        0.000        1.980        2.004        2.523
     230.000  -259330.086    25980.394    15217.604    33342.009      113.279  -381999.380    48016.009       26.150       25.749        2.587        2.618        2.523        2.670        2.749        2.982        2.623        2.549        3.290        2.674        2.509        2.544        3.119        2.952        2.565        2.563        0.465        1.000        0.000        1.000        1.000        1.000        0.000        0.000        1.000        0.000        0.000        0.000        0.000        0.000        0.000        0.000        0.000        0.000        0.000        0.000        0.000        0.000        0.000        0.000        0.000        0.000        0.000        5.000        3.000        1.000        0.000        3.000        3.000        0.000        4.494        0.000       95.506        0.000        0.000        1.722        1.747        2.237
     240.000  -259607.722    25933.615    15393.246    33412.242      119.365  -382434.471    47968.281       26.152       26.030        2.605        2.621        2.501        2.668        2.692        3.088        2.666        2.560        3.315        2.656        2.510        2.515        3.110        2.975        2.581        2.573        0.497        1.000        0.000        1.000        1.000        1.000        0.000        0.000        1.000        0.000        0.000        0.000        0.000        0.000        0.000        1.000        0.000        0.000        0.000        0.000        0.000        0.000        0.000        0.000        0.000        0.000        0.000        2.000        1.000        3.000        0.000        2.000        3.000        0.000        0.000        0.000      100.000        0.000        0.000        1.922        1.965        2.386
     250.000  -258918.868    25697.894    15674.824    33426.028      133.413  -381991.885    48140.858       26.132       25.742        2.557        2.605        2.522        2.650        2.676        2.937        2.692        2.606        3.267        2.690        2.512        2.457        3.104        2.975        2.579        2.545        0.475        1.000        0.000        1.000        1.000        1.000        0.000        0.000        1.000        0.000        0.000        0.000        0.000        0.000        0.000        2.000        1.000        0.000        0.000        0.000        0.000        0.000        0.000        0.000        0.000        1.000        0.000        1.000        1.000        2.000        0.000        5.000        0.000        0.000        0.000        0.000      100.000        0.000        0.000        2.240        2.265        2.703
     260.000  -259643.684    26026.380    15515.494    33456.365      141.669  -382516.462    47732.871       25.788       25.652        2.584        2.699        2.511        2.605        2.720        2.966        2.646        2.610        3.196        2.663        2.516        2.480        3.089        3.007        2.562        2.543        0.476        2.000        0.000        1.000        1.000        1.000        0.000        0.000        1.000        1.000        0.000        0.000        0.000        0.000        0.000        1.000        1.000        0.000        0.000        0.000        0.000        0.000        0.000        0.000        0.000        0.000        0.000        1.000        1.000        2.000        0.000        6.000        2.000        0.000        4.494        0.000       95.506        0.000        0.000        1.973        1.983        2.485
     270.000  -259103.239    26094.799    15549.558    33330.214      123.912  -382178.445    47976.725       25.820       25.842        2.561        2.602        2.631        2.627        2.745        2.956        2.651        2.609        3.262        2.688        2.505        2.492        3.112        2.991        2.596        2.538        0.476        1.000        0.000        1.000        1.000        1.000        0.000        0.000        1.000        0.000        0.000        0.000        0.000        0.000        0.000        0.000        1.000        0.000        0.000        0.000        0.000        0.000        0.000        0.000        0.000        0.000        0.000        2.000        4.000        2.000        0.000        4.000        2.000        0.000        4.494        0.000       95.506        0.000        0.000        1.828        1.825        2.354
     280.000  -259248.743    25915.597    15693.830    33315.830      108.692  -381607.497    47324.805       25.819       25.710        2.620        2.646        2.673        2.695        2.646        3.045        2.655        2.587        3.230        2.670        2.510        2.480        3.066        3.028        2.534        2.573        0.509        1.000        0.000        1.000        1.000        1.000        0.000        0.000        1.000        1.000        0.000        0.000        0.000        0.000        0.000        0.000        0.000        0.000        0.000        0.000        0.000        0.000        0.000        0.000        0.000        1.000        0.000        4.000        4.000        3.000        0.000        4.000        2.000        0.000        0.000        0.000      100.000        0.000        0.000        1.589        1.574        2.210
     290.000  -259056.641    25592.876    15280.791    33514.316      101.388  -380630.229    47084.217       25.705       25.695        2.564        2.656        2.657        2.659        2.610        3.002        2.660        2.582        3.237        2.711        2.500        2.504        3.099        2.980        2.547        2.536        0.490        1.000        0.000        1.000        1.000        1.000        0.000        0.000        1.000        0.000        0.000        0.000        0.000        0.000        0.000        0.000        1.000        0.000        0.000        0.000        0.000        0.000        0.000        0.000        0.000        0.000        0.000        4.000        3.000        0.000        0.000        2.000        3.000        0.000        0.000        0.000      100.000        0.000        0.000        1.312        1.314        2.196
     300.000  -259168.775    24850.680    15153.395    33435.272      159.693  -380765.215    47997.400       25.924       25.776        2.669        2.697        2.603        2.709        2.584        3.002        2.641        2.541        3.226        2.670        2.521        2.528        3.095        3.020        2.548        2.535        0.484        1.000        0.000        1.000        1.000        1.000        0.000        0.000        1.000        0.000        0.000        0.000        0.000        0.000        0.000        1.000        0.000        0.000        0.000        0.000        0.000        0.000        0.000        0.000        0.000        0.000        0.000        3.000        1.000        1.000        0.000        3.000        2.000        0.000        0.000        0.000      100.000        0.000        0.000        2.135        2.149        2.762
     310.000  -259507.787    26287.783    15190.383    33385.495      131.813  -381647.790    47144.530       25.988       25.847        2.579        2.617        2.605        2.690        2.661        2.978        2.665        2.590        3.249        2.672        2.499        2.569        3.109        2.985        2.574        2.550        0.509        0.000        0.000        1.000        1.000        1.000        0.000        0.000        1.000        0.000        0.000        0.000        0.000        0.000        0.000        0.000        2.000        0.000        0.000        0.000        0.000        0.000        0.000        0.000        0.000        0.000        0.000        3.000        3.000        6.000        0.000        4.000        8.000        0.000        0.000        0.000      100.000        0.000        0.000        2.018        2.026        2.729
     320.000  -259334.364    27076.533    15436.866    33079.403      126.991  -380450.713    45396.557       26.263       25.857        2.631        2.654        2.661        2.641        2.687        3.044        2.647        2.567        3.295        2.660        2.526        2.483        3.068        3.120        2.639        2.593        0.510        1.000        0.000        1.000        1.000        1.000        0.000        0.000        1.000        1.000        0.000        0.000        0.000        0.000        0.000        1.000        2.000        0.000        0.000        0.000        0.000        0.000        0.000        0.000        0.000        2.000        0.000        3.000        1.000        1.000        0.000        2.000        4.000        0.000        0.000        0.000      100.000        0.000        0.000        2.134        2.155        2.960
     330.000  -259038.683    25835.321    15460.597    33381.933      134.353  -380642.048    46791.161       25.954       25.990        2.679        2.637        2.629        2.608        2.709        3.047        2.651        2.560        3.265        2.686        2.529        2.507        3.013        3.034        2.611        2.579        0.474        1.000        0.000        1.000        1.000        1.000        0.000        0.000        1.000        0.000        0.000        0.000        0.000        0.000        0.000        0.000        0.000        0.000        0.000        0.000        0.000        0.000        0.000        0.000        0.000        1.000        0.000        4.000        1.000        2.000        0.000        4.000        3.000        0.000        0.000        0.000      100.000        0.000        0.000        2.048        2.092        3.065
     340.000  -258761.516    25578.013    15531.462    33288.836      129.121  -381067.642    47778.694       25.885       25.930        2.599        2.594        2.695        2.652        2.740        3.082        2.694        2.463        3.210        2.675        2.520        2.532        3.114        3.027        2.619        2.585        0.477        1.000        0.000        1.000        1.000        1.000        0.000        0.000        0.000        1.000        0.000        0.000        0.000        0.000        0.000        0.000        0.000        0.000        0.000        0.000        0.000        0.000        0.000        0.000        0.000        0.000        0.000        7.000        3.000        2.000        0.000        1.000        3.000        0.000        0.000        0.000      100.000        0.000        0.000        1.873        1.905        2.793
     350.000  -258755.173    25223.239    15243.508    33397.220      119.278  -380645.734    47907.316       25.644       25.740        2.644        2.632        2.648        2.683        2.700        3.014        2.651        2.603        3.216        2.694        2.512        2.493        3.019        2.930        2.626        2.605        0.481        1.000        0.000        0.000        1.000        1.000        0.000        0.000        1.000        1.000        0.000        0.000        0.000        0.000        0.000        0.000        0.000        0.000        0.000        0.000        0.000        0.000        0.000        0.000        0.000        0.000        0.000        2.000        2.000        2.000        0.000        6.000        3.000        0.000        0.000        0.000      100.000        0.000        0.000        1.771        1.805        2.816
     360.000  -259104.055    26403.538    15004.556    33178.480      118.168  -380038.665    46229.869       26.155       26.330        2.655        2.596        2.624        2.658        2.704        3.026        2.667        2.626        3.226        2.653        2.534        2.524        3.066        3.050        2.594        2.578        0.504        2.000        0.000        1.000        1.000        1.000        0.000        0.000        0.000        0.000        0.000        0.000        0.000        0.000        0.000        0.000        0.000        0.000        0.000        0.000        0.000        0.000        0.000        0.000        0.000        0.000        0.000        7.000        3.000        4.000        0.000        2.000        6.000        0.000        0.000        0.000      100.000        0.000        0.000        2.009        2.024        2.980
     370.000  -259212.034    26414.399    15101.001    33137.410      108.662  -380415.466    46441.959       25.980       26.062        2.688        2.609        2.684        2.642        2.698        3.087        2.674        2.597        3.253        2.701        2.566        2.468        3.038        3.065        2.624        2.617        0.477        2.000        0.000        1.000        1.000        1.000        0.000        0.000        1.000        0.000        0.000        0.000        0.000        0.000        0.000        0.000        1.000        0.000        0.000        0.000        0.000        0.000        0.000        0.000        0.000        1.000        0.000        4.000        1.000        1.000        0.000        2.000        3.000        0.000        0.000        0.000      100.000        0.000        0.000        1.860        1.898        2.983
     380.000  -258796.303    26006.552    15136.608    33375.137       99.225  -380076.755    46662.931       25.793       25.886        2.584        2.583        2.693        2.676        2.705        2.999        2.615        2.615        3.251        2.691        2.494        2.513        3.064        3.038        2.632        2.578        0.494        2.000        0.000        1.000        0.000        1.000        0.000        0.000        1.000        0.000        0.000        0.000        0.000        0.000        0.000        0.000        1.000        0.000        0.000        0.000        0.000        0.000        0.000        0.000        0.000        0.000        0.000        8.000        1.000        1.000        0.000        0.000        1.000        0.000        0.000        0.000      100.000        0.000        0.000        1.726        1.764        2.826
     390.000  -259772.519    25426.906    15551.338    33287.654      131.170  -381832.114    47662.527       25.795       25.793        2.561        2.588        2.691        2.682        2.700        3.016        2.628        2.601        3.290        2.723        2.509        2.475        3.127        3.001        2.640        2.549        0.477        1.000        0.000        1.000        0.000        1.000        0.000        0.000        1.000        0.000        0.000        0.000        0.000        0.000        0.000        1.000        0.000        0.000        0.000        0.000        0.000        0.000        0.000        0.000        0.000        0.000        0.000        5.000        2.000        0.000        0.000        2.000        1.000        0.000        0.000        0.000      100.000        0.000        0.000        1.863        1.903        2.885
     400.000  -259703.920    25759.241    15357.999    33411.604      120.425  -381671.460    47318.272       25.564       25.696        2.575        2.597        2.626        2.656        2.719        3.074        2.642        2.588        3.222        2.678        2.521        2.484        3.053        3.036        2.636        2.627        0.480        2.000        0.000        1.000        0.000        1.000        0.000        0.000        1.000        0.000        0.000        0.000        0.000        0.000        0.000        0.000        0.000        0.000        0.000        0.000        0.000        0.000        0.000        0.000        0.000        2.000        0.000        3.000        1.000        0.000        0.000        3.000        2.000        0.000        0.000        0.000      100.000        0.000        0.000        1.764        1.786        2.798
     410.000  -258776.633    25949.216    15388.569    33183.409      131.127  -379019.933    45590.979       25.840       25.947        2.634        2.542        2.628        2.646        2.746        2.951        2.654        2.599        3.205        2.710        2.532        2.534        3.041        3.025        2.639        2.568        0.481        2.000        0.000        1.000        0.000        1.000        0.000        0.000        1.000        0.000        0.000        0.000        0.000        0.000        0.000        0.000        0.000        0.000        0.000        0.000        0.000        0.000        0.000        0.000        0.000        1.000        0.000        3.000        1.000        3.000        0.000        0.000        2.000        0.000        4.494        0.000       95.506        0.000        0.000        2.232        2.254        3.132
     420.000  -259743.522    24744.872    15237.308    33464.559      149.781  -383059.203    49719.159       25.730       25.611        2.662        2.605        2.698        2.688        2.681        3.006        2.646        2.637        3.247        2.675        2.520        2.545        3.010        3.032        2.618        2.566        0.477        2.000        0.000        1.000        0.000        1.000        0.000        0.000        1.000        1.000        0.000        0.000        0.000        0.000        0.000        0.000        0.000        0.000        0.000        0.000        0.000        0.000        0.000        0.000        0.000        1.000        0.000        5.000        1.000        1.000        0.000        0.000        2.000        0.000        4.494        0.000       95.506        0.000        0.000        1.696        1.720        3.025
     430.000  -258590.064    25664.413    15546.492    33329.294      147.562  -380611.216    47333.390       25.756       25.707        2.603        2.586        2.679        2.644        2.716        3.022        2.656        2.595        3.273        2.665        2.535        2.545        3.074        3.042        2.623        2.594        0.491        2.000        0.000        1.000        0.000        2.000        0.000        0.000        0.000        0.000        0.000        0.000        0.000        0.000        0.000        0.000        0.000        0.000        0.000        0.000        0.000        0.000        0.000        0.000        0.000        0.000        0.000        2.000        1.000        1.000        0.000        0.000        1.000        0.000        0.000        0.000      100.000        0.000        0.000        1.752        1.795        2.976
     440.000  -258237.004    26219.004    15389.363    33238.986      118.930  -379325.292    46122.005       25.676       25.881        2.532        2.590        2.608        2.656        2.724        3.055        2.671        2.624        3.295        2.674        2.521        2.519        3.044        3.062        2.606        2.599        0.495        2.000        0.000        1.000        0.000        1.000        0.000        0.000        1.000        0.000        0.000        0.000        0.000        0.000        0.000        1.000        0.000        0.000        0.000        0.000        0.000        0.000        0.000        0.000        0.000        0.000        0.000        7.000        0.000        0.000        0.000        4.000        2.000        0.000        0.000        0.000      100.000        0.000        0.000        1.524        1.563        2.980
     450.000  -258264.061    26521.832    14917.921    33234.631      134.233  -379432.295    46359.616       25.715       25.885        2.624        2.622        2.656        2.690        2.708        3.000        2.602        2.605        3.281        2.693        2.516        2.504        3.078        3.066        2.675        2.584        0.465        2.000        0.000        1.000        0.000        1.000        0.000        0.000        1.000        0.000        0.000        0.000        0.000        0.000        0.000        1.000        0.000        0.000        0.000        0.000        0.000        0.000        0.000        0.000        0.000        1.000        0.000        2.000        2.000        1.000        0.000        3.000        4.000        0.000        4.494        0.000       95.506        0.000        0.000        1.737        1.767        3.009
     460.000  -258289.545    25751.710    15380.559    33298.633      119.224  -379479.726    46640.055       25.520       25.734        2.632        2.559        2.716        2.654        2.717        3.021        2.657        2.598        3.280        2.661        2.515        2.488        3.073        3.059        2.612        2.572        0.493        2.000        0.000        1.000        0.000        1.000        0.000        0.000        1.000        0.000        0.000        0.000        0.000        0.000        0.000        0.000        0.000        0.000        0.000        0.000        0.000        0.000        0.000        0.000        0.000        1.000        0.000        3.000        3.000        2.000        0.000        3.000        4.000        0.000        0.000        0.000      100.000        0.000        0.000        1.963        2.034        3.069
     470.000  -258889.358    24762.591    15085.453    33521.339      135.924  -380779.970    48385.305       25.367       25.800        2.584        2.577        2.616        2.661        2.694        3.098        2.606        2.604        3.234        2.648        2.544        2.509        3.091        3.014        2.606        2.571        0.504        1.000        0.000        1.000        0.000        2.000        0.000        0.000        1.000        1.000        0.000        0.000        0.000        0.000        0.000        1.000        0.000        0.000        0.000        0.000        0.000        0.000        0.000        0.000        0.000        1.000        0.000        5.000        2.000        2.000        0.000        1.000        3.000        0.000        0.000        0.000      100.000        0.000        0.000        2.080        2.131        3.104
     480.000  -259006.354    25253.143    15210.271    33399.987      138.760  -380621.425    47612.909       25.626       26.154        2.559        2.589        2.677        2.744        2.677        3.088        2.615        2.543        3.282        2.662        2.617        2.459        3.025        3.074        2.650        2.573        0.474        2.000        0.000        1.000        0.000        1.000        0.000        0.000        1.000        0.000        0.000        0.000        0.000        0.000        0.000        1.000        0.000        0.000        0.000        0.000        0.000        0.000        0.000        0.000        0.000        1.000        0.000        1.000        2.000        3.000        0.000        6.000        1.000        0.000        0.000        0.000      100.000        0.000        0.000        2.059        2.098        3.381
     490.000  -258498.249    26148.346    15718.988    33183.199      130.438  -379648.785    45969.565       25.662       26.188        2.562        2.580        2.637        2.702        2.708        2.971        2.647        2.590        3.287        2.696        2.507        2.556        3.082        3.036        2.636        2.588        0.485        2.000        0.000        1.000        0.000        1.000        0.000        0.000        1.000        0.000        0.000        0.000        0.000        0.000        0.000        0.000        1.000        0.000        0.000        0.000        0.000        0.000        0.000        0.000        0.000        0.000        0.000        2.000        2.000        2.000        0.000        1.000        4.000        0.000        0.000        0.000      100.000        0.000        0.000        2.046        2.099        3.421
     500.000  -259059.481    24683.910    15164.563    33586.884      131.114  -380483.873    47857.920       25.291       25.761        2.582        2.598        2.626        2.638        2.723        3.025        2.609        2.628        3.244        2.669        2.528        2.557        3.051        3.109        2.605        2.545        0.509        0.000        0.000        1.000        0.000        1.000        0.000        0.000        1.000        1.000        0.000        0.000        0.000        0.000        0.000        0.000        0.000        0.000        0.000        0.000        0.000        0.000        0.000        0.000        0.000        0.000        0.000        5.000        1.000        3.000        0.000        3.000        2.000        0.000        4.494        0.000       95.506        0.000        0.000        1.972        2.022        3.246
     510.000  -258618.454    25928.737    15121.358    33496.687      118.439  -379561.912    46278.236       25.631       25.975        2.610        2.598        2.613        2.629        2.695        3.033        2.645        2.616        3.257        2.710        2.509        2.520        3.093        3.058        2.638        2.598        0.494        2.000        0.000        1.000        0.000        1.000        0.000        0.000        1.000        0.000        0.000        0.000        0.000        0.000        0.000        0.000        0.000        0.000        0.000        0.000        0.000        0.000        0.000        0.000        0.000        0.000        0.000        4.000        1.000        1.000        0.000        2.000        1.000        0.000        0.000        0.000      100.000        0.000        0.000        1.634        1.699        3.257
     520.000  -258381.402    26427.086    15363.959    33296.170      135.873  -380102.547    46498.058       25.824       25.931        2.629        2.665        2.575        2.636        2.730        3.068        2.635        2.601        3.282        2.634        2.529        2.536        3.066        3.055        2.637        2.583        0.488        2.000        0.000        1.000        0.000        0.000        0.000        0.000        1.000        1.000        0.000        0.000        0.000        0.000        0.000        0.000        1.000        0.000        0.000        0.000        0.000        0.000        0.000        0.000        0.000        1.000        0.000        4.000        1.000        1.000        0.000        3.000        4.000        0.000        0.000        0.000      100.000        0.000        0.000        1.493        1.529        3.229
     530.000  -258695.139    26342.930    15264.343    33350.678      132.637  -379615.227    45829.498       25.608       26.146        2.610        2.606        2.611        2.651        2.713        2.988        2.644        2.554        3.236        2.676        2.551        2.454        3.077        3.040        2.653        2.583        0.479        2.000        0.000        1.000        0.000        1.000        0.000        0.000        1.000        0.000        0.000        0.000        0.000        0.000        0.000        0.000        1.000        0.000        0.000        0.000        0.000        0.000        0.000        0.000        0.000        0.000        0.000        2.000        1.000        3.000        0.000        2.000        5.000        0.000        0.000        0.000      100.000        0.000        0.000        1.642        1.711        3.425
     540.000  -258764.833    25203.850    15606.586    33285.899      144.958  -380914.165    47908.040       25.822       26.209        2.540        2.587        2.713        2.653        2.701        3.009        2.637        2.580        3.230        2.663        2.531        2.520        3.136        3.061        2.630        2.506        0.508        2.000        0.000        1.000        0.000        1.000        0.000        0.000        1.000        1.000        0.000        0.000        0.000        0.000        0.000        0.000        0.000        0.000        0.000        0.000        0.000        0.000        0.000        0.000        0.000        2.000        0.000        4.000        0.000        0.000        0.000        2.000        1.000        0.000        4.494        0.000       95.506        0.000        0.000        1.691        1.719        3.513
     550.000  -258100.859    25612.055    14952.853    33339.608      115.051  -380378.650    48258.224       25.708       26.090        2.540        2.518        2.606        2.631        2.705        3.078        2.635        2.572        3.244        2.641        2.506        2.513        3.011        3.061        2.620        2.585        0.496        2.000        0.000        1.000        0.000        1.000        0.000        0.000        0.000        1.000        0.000        0.000        0.000        0.000        0.000        1.000        0.000        0.000        0.000        0.000        0.000        0.000        0.000        0.000        0.000        0.000        0.000        5.000        1.000        0.000        0.000        1.000        3.000        0.000        0.000        0.000      100.000        0.000        0.000        1.670        1.707        3.524
     560.000  -258356.146    25169.931    14967.556    33321.434      145.662  -378574.675    46613.946       25.643       26.088        2.555        2.553        2.605        2.654        2.694        3.037        2.686        2.625        3.261        2.584        2.529        2.504        3.060        3.046        2.620        2.536        0.483        1.000        0.000        1.000        0.000        1.000        0.000        0.000        0.000        0.000        0.000        0.000        0.000        0.000        0.000        0.000        3.000        0.000        0.000        0.000        0.000        0.000        0.000        0.000        0.000        0.000        0.000        4.000        1.000        4.000        0.000        2.000        1.000        0.000        0.000        0.000      100.000        0.000        0.000        1.895        1.945        3.611
     570.000  -258240.172    24994.144    14994.079    33205.660      146.042  -378731.474    47151.377       25.710       26.004        2.485        2.555        2.579        2.710        2.663        3.067        2.637        2.578        3.250        2.646        2.528        2.542        3.072        3.028        2.586        2.588        0.516        2.000        0.000        1.000        0.000        1.000        0.000        0.000        0.000        1.000        0.000        0.000        0.000        0.000        0.000        1.000        0.000        0.000        0.000        0.000        0.000        0.000        0.000        0.000        0.000        0.000        0.000        3.000        1.000        0.000        0.000        4.000        2.000        0.000        0.000        0.000      100.000        0.000        0.000        1.734        1.787        3.438
     580.000  -258837.584    25445.045    15238.529    33329.519      128.624  -380553.760    47574.459       25.647       25.875        2.578        2.518        2.566        2.711        2.666        3.058        2.633        2.584        3.247        2.688        2.547        2.550        2.952        3.060        2.668        2.567        0.487        2.000        0.000        1.000        0.000        1.000        0.000        0.000        1.000        0.000        0.000        0.000        0.000        0.000        0.000        0.000        0.000        0.000        0.000        0.000        0.000        0.000        0.000        0.000        0.000        2.000        0.000        8.000        2.000        2.000        0.000        3.000        2.000        0.000        0.000        0.000      100.000        0.000        0.000        1.724        1.774        3.207
     590.000  -258328.177    25615.082    15365.141    33328.135      143.335  -379676.741    46896.871       25.582       25.878        2.628        2.555        2.600        2.748        2.693        3.115        2.665        2.629        3.247        2.668        2.509        2.541        3.104        3.027        2.603        2.603        0.474        1.000        0.000        1.000        0.000        1.000        0.000        0.000        0.000        0.000        0.000        0.000        0.000        0.000        0.000        0.000        0.000        0.000        0.000        0.000        0.000        0.000        0.000        0.000        0.000        0.000        0.000        3.000        1.000        0.000        0.000        3.000        4.000        0.000        0.000        0.000      100.000        0.000        0.000        1.610        1.669        3.214
     600.000  -258795.264    24743.049    15447.517    33482.000      149.525  -380653.117    48035.761       25.550       25.808        2.626        2.539        2.630        2.692        2.602        3.119        2.677        2.604        3.256        2.663        2.453        2.495        3.033        2.996        2.621        2.603        0.502        1.000        0.000        1.000        0.000        1.000        0.000        0.000        0.000        0.000        0.000        0.000        0.000        0.000        0.000        0.000        0.000        0.000        0.000        0.000        0.000        0.000        0.000        0.000        0.000        0.000        0.000        2.000        0.000        0.000        0.000        5.000        3.000        0.000        0.000        0.000      100.000        0.000        0.000        1.650        1.701        3.256
     610.000  -258112.481    25462.751    15275.208    33384.106      137.434  -378961.473    46589.494       25.716       25.948        2.646        2.533        2.664        2.703        2.659        3.038        2.668        2.617        3.246        2.694        2.544        2.477        3.070        2.995        2.644        2.624        0.481        1.000        0.000        1.000        0.000        1.000        0.000        0.000        1.000        1.000        0.000        0.000        0.000        0.000        0.000        0.000        1.000        0.000        0.000        0.000        0.000        0.000        0.000        0.000        0.000        1.000        0.000        3.000        0.000        1.000        0.000        2.000        3.000        0.000        0.000        0.000      100.000        0.000        0.000        1.514        1.540        3.338
     620.000  -258128.418    25687.928    15172.237    33380.258      142.716  -379129.503    46617.947       25.668       25.794        2.696        2.515        2.654        2.669        2.628        3.041        2.621        2.592        3.239        2.616        2.502        2.482        3.081        3.062        2.642        2.645        0.481        0.000        0.000        1.000        0.000        1.000        0.000        0.000        0.000        0.000        0.000        0.000        0.000        0.000        0.000        0.000        1.000        0.000        0.000        0.000        0.000        0.000        0.000        0.000        0.000        3.000        0.000        3.000        1.000        1.000        0.000        2.000        2.000        0.000        0.000        0.000      100.000        0.000        0.000        1.738        1.770        3.403
     630.000  -257746.497    25027.786    15128.708    33457.193      124.183  -378172.415    46688.047       25.633       25.896        2.652        2.566        2.604        2.714        2.637        3.073        2.686        2.623        3.229        2.637        2.480        2.544        3.043        3.008        2.611        2.667        0.496        0.000        0.000        1.000        0.000        0.000        0.000        0.000        0.000        0.000        0.000        0.000        0.000        0.000        0.000        0.000        0.000        0.000        0.000        0.000        0.000        0.000        0.000        0.000        0.000        3.000        0.000        1.000        0.000        1.000        0.000        2.000        1.000        0.000        0.000        0.000      100.000        0.000        0.000        1.940        1.970        3.698
     640.000  -257690.585    25324.666    15222.061    33544.708      124.497  -379476.246    47569.729       25.593       25.703        2.696        2.530        2.636        2.687        2.605        3.143        2.656        2.536        3.229        2.651        2.475        2.504        2.985        3.019        2.638        2.639        0.497        0.000        0.000        1.000        0.000        1.000        0.000        0.000        0.000        0.000        0.000        0.000        0.000        0.000        0.000        0.000        1.000        0.000        0.000        0.000        0.000        0.000        0.000        0.000        0.000        3.000        0.000        5.000        1.000        1.000        0.000        5.000        5.000        0.000        4.494        0.000       95.506        0.000        0.000        1.825        1.867        3.421
     650.000  -258304.694    25050.934    15473.951    33384.113      116.286  -379783.977    47453.999       25.803       25.958        2.634        2.495        2.623        2.705        2.659        3.042        2.689        2.598        3.247        2.701        2.464        2.486        3.074        3.016        2.635        2.636        0.491        0.000        0.000        2.000        0.000        2.000        0.000        0.000        0.000        0.000        0.000        0.000        0.000        0.000        0.000        0.000        0.000        0.000        0.000        0.000        0.000        0.000        0.000        0.000        0.000        3.000        0.000        4.000        2.000        1.000        0.000        1.000        3.000        0.000        0.000        0.000      100.000        0.000        0.000        1.834        1.881        3.318
     660.000  -258491.607    25898.294    15313.823    33484.996      185.417  -380196.500    46822.364       25.979       26.046        2.686        2.540        2.616        2.656        2.614        3.147        2.661        2.617        3.184        2.638        2.526        2.478        3.023        3.008        2.626        2.659        0.457        0.000        0.000        2.000        0.000        1.000        0.000        0.000        0.000        0.000        0.000        0.000        0.000        0.000        0.000        0.000        0.000        0.000        0.000        0.000        0.000        0.000        0.000        0.000        0.000        2.000        0.000        2.000        2.000        2.000        0.000        2.000        6.000        0.000        0.000        0.000      100.000        0.000        0.000        1.456        1.487        3.369
     670.000  -258618.779    24432.138    15533.805    33371.332      117.225  -379835.719    47762.439       25.753       25.850        2.664        2.589        2.619        2.702        2.652        3.034        2.644        2.626        3.190        2.647        2.478        2.569        2.979        2.919        2.641        2.641        0.476        0.000        0.000        1.000        0.000        1.000        0.000        0.000        0.000        1.000        0.000        0.000        0.000        0.000        0.000        0.000        0.000        0.000        0.000        0.000        0.000        0.000        0.000        0.000        0.000        1.000        0.000        3.000        0.000        2.000        0.000        2.000        5.000        0.000        0.000        0.000      100.000        0.000        0.000        1.466        1.511        3.425
     680.000  -258346.425    25507.359    15188.469    33557.693      114.291  -379267.685    46553.447       25.749       25.799        2.681        2.549        2.632        2.700        2.640        3.140        2.633        2.599        3.211        2.589        2.545        2.495        3.075        2.941        2.651        2.634        0.477        0.000        0.000        1.000        0.000        1.000        0.000        0.000        0.000        0.000        0.000        0.000        0.000        0.000        0.000        0.000        1.000        0.000        0.000        0.000        0.000        0.000        0.000        0.000        0.000        1.000        0.000        4.000        2.000        2.000        0.000        2.000        4.000        0.000        0.000        0.000      100.000        0.000        0.000        1.556        1.589        3.618
     690.000  -259160.485    25368.903    15426.731    33291.252      130.979  -379659.964    46281.615       25.860       25.834        2.700        2.542        2.668        2.670        2.610        3.029        2.648        2.551        3.254        2.725        2.470        2.501        3.027        2.985        2.700        2.584        0.501        0.000        0.000        1.000        0.000        1.000        0.000        0.000        0.000        0.000        0.000        0.000        0.000        0.000        0.000        0.000        0.000        0.000        0.000        0.000        0.000        0.000        0.000        0.000        0.000        2.000        0.000        6.000        2.000        0.000        0.000        4.000        2.000        0.000        0.000        0.000      100.000        0.000        0.000        1.638        1.704        3.625
     700.000  -258417.682    25823.464    14952.105    33484.586      145.496  -380682.097    47858.763       25.784       25.537        2.624        2.521        2.634        2.686        2.641        3.053        2.646        2.526        3.214        2.637        2.500        2.490        3.129        3.002        2.626        2.558        0.482        0.000        0.000        1.000        0.000        0.000        0.000        0.000        1.000        0.000        0.000        0.000        0.000        0.000        0.000        0.000        0.000        0.000        0.000        0.000        0.000        0.000        0.000        0.000        0.000        2.000        0.000        5.000        1.000        0.000        0.000        3.000        1.000        0.000        4.494        0.000       95.506        0.000        0.000        1.900        1.959        3.822
     710.000  -258187.418    25543.879    15469.111    33216.787      147.517  -377818.835    45254.123       25.825       25.778        2.651        2.554        2.622        2.672        2.625        2.979        2.680        2.543        3.212        2.668        2.524        2.569        3.093        3.083        2.704        2.485        0.468        0.000        0.000        2.000        0.000        0.000        0.000        0.000        0.000        0.000        0.000        0.000        0.000        0.000        0.000        0.000        0.000        0.000        0.000        0.000        0.000        0.000        0.000        0.000        0.000        2.000        0.000        3.000        1.000        0.000        0.000        2.000        2.000        0.000        4.494        0.000       95.506        0.000        0.000        1.900        1.944        3.973
     720.000  -259121.209    25848.167    14804.800    33475.579      150.327  -380140.111    46740.030       25.708       25.942        2.638        2.532        2.650        2.712        2.630        3.041        2.612        2.592        3.181        2.617        2.521        2.518        3.087        3.018        2.670        2.531        0.497        0.000        0.000        2.000        0.000        0.000        0.000        0.000        0.000        0.000        0.000        0.000        0.000        0.000        0.000        0.000        0.000        0.000        0.000        0.000        0.000        0.000        0.000        0.000        0.000        2.000        0.000        5.000        1.000        2.000        0.000        2.000        4.000        0.000        0.000        0.000      100.000        0.000        0.000        1.818        1.880        3.854
     730.000  -258652.824    25496.752    15077.865    33478.026      120.798  -379443.071    46616.805       25.513       25.864        2.610        2.623        2.627        2.629        2.616        3.070        2.663        2.525        3.288        2.654        2.512        2.538        2.997        2.971        2.666        2.529        0.494        0.000        0.000        2.000        0.000        0.000        0.000        0.000        1.000        0.000        0.000        0.000        0.000        0.000        0.000        0.000        1.000        0.000        0.000        0.000        0.000        0.000        0.000        0.000        0.000        1.000        0.000        4.000        3.000        0.000        0.000        4.000        3.000        0.000        0.000        0.000      100.000        0.000        0.000        1.856        1.932        3.799
     740.000  -258698.148    25886.838    14978.288    33317.224      138.035  -379965.499    46946.966       25.422       25.784        2.556        2.610        2.621        2.668        2.586        3.136        2.655        2.525        3.277        2.648        2.554        2.582        3.137        2.963        2.649        2.486        0.499        0.000        0.000        1.000        0.000        0.000        0.000        0.000        0.000        0.000        0.000        0.000        0.000        0.000        0.000        1.000        1.000        0.000        0.000        0.000        0.000        0.000        0.000        0.000        0.000        1.000        0.000        1.000        1.000        1.000        0.000        2.000        4.000        0.000        0.000        0.000      100.000        0.000        0.000        2.116        2.177        3.970
     750.000  -258859.193    26043.726    14979.607    33492.799      139.336  -379418.921    45904.261       25.351       25.648        9.390        2.542        2.610        2.688        2.672        3.068        2.647        2.533        3.264        2.717        2.560        2.503        3.085        3.093        2.658        2.505        0.495        0.000        0.000        1.000        0.000        0.000        0.000        0.000        1.000        0.000        0.000        0.000        0.000        0.000        0.000        0.000        0.000        0.000        0.000        0.000        0.000        0.000        0.000        0.000        0.000        2.000        0.000        2.000        1.000        0.000        0.000        1.000        4.000        0.000        0.000        0.000      100.000        0.000        0.000        1.890        1.992        3.896
     760.000  -259121.261    24515.476    15371.684    33467.125      104.090  -381290.417    48710.780       25.356       25.840       12.897        2.541        2.661        2.720        2.651        3.087        2.694        2.517        3.217        2.705        2.502        2.512        3.074        3.034        2.640        2.500        0.480        0.000        0.000        2.000        0.000        0.000        0.000        0.000        1.000        0.000        0.000        0.000        0.000        0.000        0.000        0.000        0.000        0.000        0.000        0.000        0.000        0.000        0.000        0.000        0.000        1.000        0.000        1.000        1.000        0.000        0.000        1.000        2.000        0.000        7.865        0.000       92.135        0.000        0.000        2.571        2.687        4.284
     770.000  -258395.160    24350.401    14975.183    33515.055      142.289  -380002.247    48624.159       25.403       25.763        2.529        2.561        2.691        2.676        2.612        3.071        2.614        2.500        3.279        2.632        2.477        2.537        3.052        3.052        2.669        2.544        0.512        0.000        0.000        2.000        0.000        0.000        0.000        0.000        0.000        0.000        0.000        0.000        0.000        0.000        0.000        0.000        0.000        0.000        0.000        0.000        0.000        0.000        0.000        0.000        0.000        2.000        0.000        2.000        0.000        1.000        0.000        5.000        2.000        0.000        0.000        0.000      100.000        0.000        0.000        2.110        2.190        4.075
     780.000  -258093.437    25095.885    15409.770    33625.126      132.952  -379339.766    46982.596       25.567       25.590       15.347       12.954        2.662        2.646        2.590        3.085        2.631        2.540        3.222        2.631        2.552        2.511        3.043        3.017        2.626        2.608        0.492        0.000        0.000        1.000        0.000        0.000        0.000        0.000        0.000        0.000        0.000        0.000        0.000        0.000        0.000        0.000        0.000        0.000        0.000        0.000        0.000        0.000        0.000        0.000        0.000        1.000        0.000        4.000        3.000        0.000        0.000        3.000        1.000        0.000        0.000        0.000      100.000        0.000        0.000        2.061        2.119        4.243
     790.000  -258537.583    24244.671    15307.728    33622.241      118.426  -379475.077    47644.428       25.142       25.560        2.596        2.640        2.658        2.691        2.675        3.060        2.651        2.562        3.168        2.656        2.463        2.500        3.062        3.010        2.697        2.523        0.479        0.000        0.000        2.000        0.000        0.000        0.000        0.000        0.000        0.000        0.000        0.000        0.000        0.000        0.000        0.000        0.000        0.000        0.000        0.000        0.000        0.000        0.000        0.000        0.000        3.000        0.000        2.000        1.000        0.000        0.000        2.000        1.000        0.000        0.000        0.000      100.000        0.000        0.000        2.394        2.448        4.264
     800.000  -258867.648    25249.604    15186.691    33140.838      131.511  -378402.104    45825.812       25.536       25.959       22.296       12.941        2.644        2.716        2.620        3.013        2.651        2.475        3.190        2.629        2.539        2.524        3.084        2.957        2.677        2.514        0.473        0.000        0.000        1.000        0.000        0.000        0.000        0.000        0.000        0.000        0.000        0.000        0.000        0.000        0.000        0.000        0.000        0.000        0.000        0.000        0.000        0.000        0.000        0.000        0.000        2.000        0.000        3.000        1.000        0.000        0.000        2.000        3.000        0.000        0.000        0.000      100.000        0.000        0.000        2.288        2.370        4.237
     810.000  -258724.427    25333.683    15196.251    33263.343      153.984  -379169.338    46497.650       25.281       25.663       23.024        9.561        2.674        2.691        2.643        2.956        2.696        2.469        3.241        2.674        2.491        2.453        3.112        2.985        2.668        2.559        0.471        0.000        0.000        2.000        0.000        0.000        0.000        0.000        1.000        0.000        0.000        0.000        0.000        0.000        0.000        0.000        0.000        0.000        0.000        0.000        0.000        0.000        0.000        0.000        0.000        2.000        0.000        1.000        4.000        2.000        0.000        3.000        2.000        0.000        0.000        0.000      100.000        0.000        0.000        2.317        2.377        4.061
     820.000  -258217.654    24775.176    15501.777    33472.168      160.481  -378926.978    46799.722       25.450       25.866       22.406        2.511        2.696        2.682        2.643        3.036        2.616        2.554        3.185        2.638        2.548        2.536        3.069        2.989        2.673        2.574        0.495        0.000        0.000        2.000        0.000        0.000        0.000        0.000        0.000        0.000        0.000        0.000        0.000        0.000        0.000        0.000        1.000        0.000        0.000        0.000        0.000        0.000        0.000        0.000        0.000        1.000        0.000        1.000        2.000        0.000        0.000        1.000        2.000        0.000        0.000        0.000      100.000        0.000        0.000        1.787        1.866        3.835
     830.000  -258798.878    24271.440    14869.114    33478.713      112.181  -379227.084    47696.757       25.761       26.033       23.040       17.336        2.673        2.712        2.585        3.076        2.669        2.483        3.235        2.652        2.492        2.492        3.043        3.027        2.653        2.569        0.486        0.000        0.000        1.000        0.000        0.000        0.000        0.000        0.000        0.000        0.000        0.000        0.000        0.000        0.000        0.000        0.000        0.000        0.000        0.000        0.000        0.000        0.000        0.000        0.000        1.000        0.000        5.000        3.000        2.000        0.000        2.000        2.000        0.000        4.494        0.000       95.506        0.000        0.000        1.487        1.558        3.764
     840.000  -258678.588    25721.455    14928.082    33344.405      124.705  -379596.069    46798.835       25.864       26.077       17.470        9.526        2.670        2.695        2.640        3.051        2.636        2.506        3.261        2.650        2.502        2.532        3.079        3.006        2.645        2.586        0.502        0.000        0.000        1.000        0.000        0.000        0.000        0.000        0.000        0.000        0.000        0.000        0.000        0.000        0.000        0.000        0.000        0.000        0.000        0.000        0.000        0.000        0.000        0.000        0.000        0.000        0.000        5.000        4.000        0.000        0.000        1.000        2.000        0.000        0.000        0.000      100.000        0.000        0.000        1.368        1.436        3.722
     850.000  -257976.432    24420.993    15072.201    33355.915      151.742  -379918.325    48941.042       26.004       25.890       22.559        2.590        2.608        2.671        2.610        2.977        2.632        2.552        3.269        2.677        2.469        2.474        3.091        3.053        2.634        2.533        0.501        0.000        0.000        2.000        0.000        0.000        0.000        0.000        0.000        0.000        0.000        0.000        0.000        0.000        0.000        0.000        0.000        0.000        0.000        0.000        0.000        0.000        0.000        0.000        0.000        1.000        0.000        3.000        0.000        0.000        0.000        1.000        1.000        0.000        4.494        0.000       95.506        0.000        0.000        1.586        1.590        3.529
     860.000  -258864.707    25058.416    15124.632    33388.455      105.338  -380072.349    47530.801       25.965       25.903       16.832       18.800        2.654        2.686        2.607        3.054        2.646        2.588        3.267        2.676        2.484        2.495        3.084        2.987        2.663        2.582        0.474        0.000        0.000        2.000        0.000        0.000        0.000        0.000        0.000        0.000        0.000        0.000        0.000        0.000        0.000        0.000        1.000        0.000        0.000        0.000        0.000        0.000        0.000        0.000        0.000        2.000        0.000        1.000        0.000        0.000        0.000        2.000        2.000        0.000        0.000        0.000      100.000        0.000        0.000        1.606        1.616        3.622
     870.000  -256978.821    24704.884    14811.207    33550.172      125.083  -378242.738    48072.572       25.948       25.759       22.690        9.522        2.644        2.721        2.602        3.075        2.642        2.530        3.252        2.615        2.511        2.552        3.067        3.017        2.673        2.553        0.505        0.000        0.000        1.000        0.000        0.000        0.000        0.000        0.000        0.000        0.000        0.000        0.000        0.000        0.000        0.000        0.000        0.000        0.000        0.000        0.000        0.000        0.000        0.000        0.000        2.000        0.000        6.000        1.000        0.000        0.000        0.000        0.000        0.000        0.000        0.000      100.000        0.000        0.000        1.615        1.637        3.384
     880.000  -257426.447    24184.258    15313.638    33485.298      125.740  -377681.635    47146.254       25.730       25.919       15.318        2.553        2.568        2.684        2.604        3.002        2.659        2.578        3.253        2.673        2.541        2.463        3.104        3.029        2.611        2.544        0.513        0.000        0.000        1.000        0.000        0.000        0.000        0.000        0.000        0.000        0.000        1.000        0.000        0.000        0.000        0.000        0.000        0.000        0.000        0.000        0.000        0.000        0.000        0.000        0.000        2.000        0.000        0.000        0.000        0.000        0.000        0.000        2.000        0.000        0.000        0.000      100.000        0.000        0.000        1.776        1.807        3.744
     890.000  -258120.719    25593.097    14994.233    33484.744      118.790  -378905.090    46593.506       25.932       25.773       18.569        2.579        2.694        2.657        2.608        3.106        2.661        2.616        3.285        2.666        2.505        2.541        3.073        3.022        2.669        2.545        0.473        0.000        0.000        1.000        0.000        0.000        0.000        0.000        0.000        0.000        0.000        0.000        0.000        0.000        0.000        0.000        1.000        0.000        0.000        0.000        0.000        0.000        0.000        0.000        0.000        2.000        0.000        1.000        2.000        1.000        0.000        2.000        1.000        0.000        0.000        0.000      100.000        0.000        0.000        2.025        2.048        3.724
     900.000  -258152.424    25631.746    15023.101    33442.360      110.713  -378176.003    45815.660       25.985       26.095       19.453        9.537        2.669        2.660        2.612        3.020        2.678        2.585        3.198        2.665        2.671        2.519        3.005        3.005        2.654        2.495        0.477        1.000        0.000        2.000        0.000        0.000        0.000        0.000        0.000        1.000        0.000        0.000        0.000        0.000        0.000        0.000        1.000        0.000        0.000        0.000        0.000        0.000        0.000        0.000        0.000        0.000        0.000        2.000        3.000        0.000        0.000        1.000        3.000        0.000        0.000        0.000      100.000        0.000        0.000        2.539        2.573        3.969
     910.000  -258456.421    25449.689    14997.383    33450.693      125.556  -378500.109    46020.367       26.144       25.898       19.792        9.533        2.701        2.748        2.684        3.091        2.659        2.570        3.190        2.644        2.658        2.434        3.053        3.061        2.665        2.523        0.484        0.000        0.000        2.000        0.000        0.000        0.000        0.000        0.000        1.000        0.000        0.000        0.000        0.000        0.000        0.000        0.000        0.000        0.000        0.000        0.000        0.000        0.000        0.000        0.000        1.000        0.000        3.000        3.000        0.000        0.000        0.000        3.000        0.000        0.000        0.000      100.000        0.000        0.000        2.296        2.329        3.838
     920.000  -258735.175    25395.025    14850.493    33561.906      137.589  -379327.938    46647.750       25.844       25.706       20.533        2.593        2.666        2.652        2.723        3.054        2.674        2.560        3.276        2.634        2.623        2.532        2.996        3.054        2.716        2.610        0.469        0.000        0.000        1.000        0.000        0.000        0.000        0.000        0.000        1.000        0.000        0.000        0.000        0.000        0.000        0.000        2.000        0.000        0.000        0.000        0.000        0.000        0.000        0.000        0.000        1.000        0.000        0.000        1.000        0.000        0.000        1.000        3.000        0.000        0.000        0.000      100.000        0.000        0.000        2.311        2.367        3.980
     930.000  -257886.831    25923.716    14930.483    33418.367      114.725  -377739.401    45465.280       25.916       25.760        9.471        2.561        2.667        2.710        2.710        3.024        2.630        2.555        3.205        2.670        2.625        2.565        3.065        2.972        2.642        2.579        0.482        0.000        0.000        2.000        0.000        0.000        0.000        0.000        0.000        0.000        0.000        0.000        0.000        0.000        0.000        0.000        0.000        0.000        0.000        0.000        0.000        0.000        0.000        0.000        0.000        0.000        0.000        2.000        1.000        0.000        0.000        0.000        2.000        0.000        0.000        0.000      100.000        0.000        0.000        2.124        2.167        4.169
     940.000  -258323.679    24579.221    14939.088    33374.038      127.545  -379782.617    48439.047       26.054       25.842        2.562        2.563        2.666        2.710        2.705        3.033        2.626        2.597        3.198        2.647        2.607        2.538        3.048        3.022        2.642        2.591        0.483        0.000        0.000        2.000        0.000        0.000        0.000        0.000        0.000        0.000        0.000        0.000        0.000        0.000        0.000        0.000        0.000        0.000        0.000        0.000        0.000        0.000        0.000        0.000        0.000        1.000        0.000        1.000        3.000        1.000        0.000        1.000        1.000        0.000        0.000        0.000      100.000        0.000        0.000        2.516        2.582        4.407
     950.000  -257855.815    25740.005    15128.445    33382.487      119.290  -378901.251    46675.208       25.958       25.919        2.564       22.705        2.675        2.693        2.694        3.049        2.650        2.519        3.187        2.666        2.610        2.499        3.112        3.053        2.676        2.558        0.489        1.000        0.000        1.000        0.000        0.000        0.000        0.000        0.000        0.000        0.000        0.000        0.000        0.000        0.000        0.000        2.000        0.000        0.000        0.000        0.000        0.000        0.000        0.000        0.000        0.000        0.000        2.000        2.000        0.000        0.000        1.000        2.000        0.000        0.000        0.000      100.000        0.000        0.000        2.142        2.182        4.411
     960.000  -257618.301    24333.489    15382.625    33552.106      138.115  -379209.423    48184.787       26.089       25.985        2.589       15.548        2.629        2.610        2.695        3.115        2.650        2.502        3.233        2.653        2.611        2.437        3.057        3.019        2.652        2.578        0.488        0.000        0.000        1.000        0.000        0.000        0.000        0.000        0.000        0.000        0.000        0.000        0.000        0.000        0.000        0.000        1.000        0.000        0.000        0.000        0.000        0.000        0.000        0.000        0.000        0.000        0.000        1.000        2.000        1.000        0.000        3.000        2.000        0.000        0.000        0.000      100.000        0.000        0.000        2.762        2.792        4.605
     970.000  -258443.948    25758.709    15236.220    33334.973      137.729  -378394.623    45483.045       26.173       25.894        2.612        2.579        2.679        2.705        2.684        2.941        2.654        2.524        3.198        2.634        2.530        2.479        3.082        2.941        2.651        2.576        0.491        0.000        0.000        1.000        0.000        0.000        0.000        0.000        0.000        0.000        0.000        0.000        0.000        0.000        0.000        0.000        0.000        0.000        0.000        0.000        0.000        0.000        0.000        0.000        0.000        0.000        0.000        3.000        2.000        1.000        0.000        2.000        2.000        0.000        0.000        0.000      100.000        0.000        0.000        2.518        2.557        4.508
     980.000  -258543.732    24872.554    15146.029    33295.436      118.936  -379626.706    47650.019       25.896       25.754        2.612        2.573        2.671        2.690        2.697        2.977        2.663        2.481        3.221        2.642        2.551        2.504        3.066        2.917        2.654        2.598        0.483        0.000        0.000        1.000        0.000        0.000        0.000        0.000        0.000        0.000        0.000        0.000        0.000        0.000        0.000        0.000        0.000        0.000        0.000        0.000        0.000        0.000        0.000        0.000        0.000        1.000        0.000        3.000        0.000        1.000        0.000        0.000        2.000        0.000        0.000        0.000      100.000        0.000        0.000        2.256        2.282        4.321
     990.000  -258300.223    25264.327    15269.300    33368.068      163.612  -379040.665    46675.136       25.823       25.685        2.565        2.512        2.596        2.677        2.692        3.037        2.657        2.513        3.224        2.703        2.537        2.526        3.112        2.966        2.657        2.531        0.480        0.000        0.000        1.000        0.000        0.000        0.000        0.000        0.000        0.000        0.000        0.000        0.000        0.000        0.000        0.000        1.000        0.000        0.000        0.000        0.000        0.000        0.000        0.000        0.000        1.000        0.000        1.000        1.000        0.000        0.000        1.000        2.000        0.000        0.000        0.000      100.000        0.000        0.000        2.168        2.219        4.476
    1000.000  -257522.637    24832.278    15156.240    33537.494      150.828  -378538.814    47339.337       25.758       25.542        2.543        9.573        2.639        2.673        2.700        3.042        2.659        2.538        3.175        2.664        2.608        2.533        3.045        2.891        2.633        2.490        0.480        0.000        0.000        1.000        0.000        0.000        0.000        0.000        0.000        0.000        0.000        0.000        0.000        0.000        0.000        0.000        1.000        0.000        0.000        0.000        0.000        0.000        0.000        0.000        0.000        2.000        0.000        4.000        1.000        0.000        0.000        4.000        4.000        0.000        0.000        0.000      100.000        0.000        0.000        2.902        2.969        4.808
     Average  -260165.025    25724.580    15275.797    33381.440      128.743  -382442.499    47766.915       25.779       25.779        5.247        3.843        2.612        2.671        2.665        3.041        2.650        2.571        3.241        2.667        2.525        2.518        3.070        3.012        2.617        2.569        0.487        0.851        0.000        1.149        0.366        0.802        0.000        0.010        0.743        0.228        0.000        0.010        0.010        0.000        0.000        0.257        0.515        0.000        0.000        0.000        0.000        0.000        0.000        0.000        0.000        0.941        0.000        3.139        1.485        1.317        0.000        2.178        2.743        0.000        0.868        0.000       99.132        0.000        0.000        1.861        1.896        3.123

