____Time[ps] Energy[ kJ/mol ]_____Bond _______Angle ____Dihedral ___Planarity _____Coulomb _________VdW _Your result _Your result _Your result _Your result _Your result _Your result _Your result _Your result _Your result _Your result _Your result _Your result _Your result _Your result _Your result _Your result _Your result _Your result _Your result _Your result _Your result _Your result _Your result _Your result _Your result _Your result _Your result _Your result _Your result _Your result _Your result _Your result _Your result _Your result _Your result _Your result _Your result _Your result _Your result _Your result _Your result _Your result _Your result _Your result _Your result _Your result _Your result _Your result _Your result _Your result _Your result _Your result _Your result _Your result _Your result _Your result _Your result _RMSDs[A]:CA ____Backbone __HeavyAtoms
       0.000  -378323.349     8677.900     5377.123    32840.779       22.247  -499609.099    74367.701       25.354       25.268        3.018        3.087        3.109        3.205        3.205        2.990        3.174        3.012        3.224        3.155        3.066        3.197        2.487        2.569        2.515        2.565        0.489        2.000        0.000        1.000        2.000        1.000        0.000        0.000        0.000        0.000        1.000        0.000        0.000        0.000        0.000        1.000        1.000        0.000        0.000        0.000        0.000        0.000        0.000        0.000        0.000        3.000        2.000        3.000        2.000        1.000        0.000        0.000        6.000        0.000        0.000        0.000      100.000        0.000        0.000        0.559        0.584        0.639
      10.000  -284773.663    33056.428    16424.373    32833.467      141.302  -421101.046    53871.813       26.131       25.900        2.961        3.102        3.088        3.221        3.191        2.956        3.206        3.085        3.198        3.113        3.083        3.246        2.575        2.488        2.513        2.520        0.494        2.000        0.000        2.000        2.000        1.000        0.000        0.000        1.000        1.000        1.000        0.000        0.000        0.000        0.000        1.000        0.000        0.000        0.000        0.000        1.000        0.000        0.000        0.000        0.000        2.000        0.000        2.000        1.000        0.000        0.000        1.000        3.000        0.000        0.000        0.000      100.000        0.000        0.000        1.317        1.350        1.463
      20.000  -283849.711    31873.840    16951.802    32945.530      119.174  -421369.583    55629.527       26.112       25.848        2.920        3.113        3.088        3.206        3.269        2.931        3.167        3.065        3.232        3.173        3.076        3.179        2.571        2.605        2.536        2.507        0.469        1.000        0.000        1.000        2.000        1.000        0.000        0.000        1.000        0.000        0.000        0.000        0.000        0.000        0.000        0.000        0.000        0.000        0.000        0.000        1.000        0.000        0.000        0.000        0.000        0.000        0.000        4.000        3.000        1.000        0.000        0.000        3.000        0.000        0.000        0.000      100.000        0.000        0.000        1.311        1.325        1.555
      30.000  -283440.778    32153.141    17023.598    32810.420      112.681  -419961.501    54420.883       26.244       25.827        2.987        3.096        3.108        3.220        3.275        2.953        3.188        3.016        3.258        3.136        3.101        3.211        2.538        2.503        2.524        2.538        0.486        1.000        0.000        0.000        2.000        1.000        0.000        0.000        0.000        0.000        0.000        0.000        0.000        0.000        0.000        0.000        1.000        0.000        0.000        0.000        1.000        0.000        0.000        0.000        0.000        2.000        0.000        2.000        5.000        0.000        0.000        1.000        5.000        0.000        0.000        0.000      100.000        0.000        0.000        1.341        1.382        1.487
      40.000  -283455.525    31526.881    17640.612    32731.937      135.187  -419122.765    53632.624       25.963       25.965        3.066        3.069        3.100        3.289        3.208        2.926        3.210        3.064        3.265        3.218        3.056        3.198        2.521        2.474        2.502        2.525        0.490        1.000        0.000        0.000        2.000        1.000        0.000        0.000        0.000        0.000        0.000        0.000        0.000        0.000        0.000        1.000        0.000        0.000        0.000        0.000        1.000        0.000        0.000        0.000        0.000        2.000        1.000        3.000        2.000        1.000        0.000        0.000        5.000        0.000        0.000        0.000      100.000        0.000        0.000        1.567        1.595        1.760
      50.000  -282314.248    30529.493    17211.911    32781.421      138.435  -419190.725    56215.217       25.604       25.947        3.052        3.036        3.043        3.264        3.131        2.995        3.175        3.040        3.162        3.164        3.039        3.299        2.535        2.492        2.516        2.617        0.470        0.000        0.000        1.000        2.000        1.000        0.000        0.000        0.000        0.000        0.000        0.000        1.000        0.000        0.000        0.000        0.000        0.000        0.000        0.000        1.000        0.000        0.000        0.000        0.000        2.000        1.000        2.000        3.000        0.000        0.000        1.000        4.000        0.000        0.000        0.000      100.000        0.000        0.000        1.667        1.697        1.847
      60.000  -282730.189    29852.451    17129.737    32700.958      158.639  -417138.249    54566.277       25.672       25.839        3.024        3.082        3.135        3.243        3.139        2.945        3.229        3.012        3.121        3.244        3.044        3.246        2.508        2.522        2.521        2.493        0.487        1.000        0.000        1.000        2.000        1.000        0.000        0.000        0.000        1.000        0.000        0.000        0.000        0.000        0.000        1.000        0.000        0.000        0.000        0.000        1.000        0.000        0.000        0.000        0.000        2.000        0.000        1.000        3.000        1.000        0.000        0.000        1.000        0.000        0.000        0.000      100.000        0.000        0.000        1.653        1.680        1.897
      70.000  -282391.583    30424.070    17006.229    32909.128      122.204  -417273.048    54419.834       25.880       25.814        3.117        3.097        3.149        3.230        3.125        2.942        3.185        3.022        3.150        3.293        3.044        3.245        2.550        2.498        2.465        2.541        0.489        1.000        0.000        1.000        2.000        1.000        0.000        0.000        1.000        1.000        0.000        0.000        0.000        0.000        0.000        0.000        1.000        0.000        0.000        0.000        1.000        0.000        0.000        0.000        0.000        2.000        0.000        1.000        3.000        0.000        0.000        1.000        1.000        0.000        0.000        0.000      100.000        0.000        0.000        1.693        1.725        2.046
      80.000  -281956.280    29423.621    17101.982    32693.641      137.194  -414525.941    53213.223       25.711       25.696        3.085        3.024        3.087        3.248        3.134        3.051        3.229        2.987        3.163        3.213        3.065        3.195        2.505        2.573        2.505        2.567        0.491        1.000        0.000        0.000        2.000        1.000        0.000        0.000        0.000        0.000        0.000        0.000        0.000        0.000        0.000        0.000        1.000        0.000        0.000        0.000        1.000        0.000        0.000        0.000        0.000        0.000        0.000        0.000        3.000        1.000        0.000        2.000        1.000        0.000        4.494        0.000       95.506        0.000        0.000        1.638        1.644        2.035
      90.000  -280749.404    29794.853    17250.767    32910.905      137.791  -414195.017    53351.296       25.824       25.868        3.087        3.054        3.164        3.240        3.160        3.020        3.167        3.058        3.180        3.260        3.066        3.293        2.554        2.492        2.546        2.534        0.487        1.000        0.000        1.000        2.000        1.000        0.000        0.000        0.000        0.000        0.000        0.000        0.000        0.000        0.000        1.000        5.000        0.000        0.000        0.000        1.000        0.000        0.000        0.000        0.000        3.000        1.000        3.000        3.000        1.000        0.000        1.000        4.000        0.000        0.000        0.000      100.000        0.000        0.000        1.727        1.728        2.087
     100.000  -281130.269    29865.470    16894.146    32870.541      121.187  -412692.578    51810.965       25.869       25.847        3.105        2.975        3.182        3.266        3.087        3.074        3.172        2.964        3.181        3.223        3.043        3.290        2.520        2.477        2.509        2.536        0.492        1.000        0.000        1.000        2.000        1.000        0.000        0.000        0.000        0.000        0.000        0.000        0.000        0.000        0.000        1.000        3.000        0.000        0.000        0.000        1.000        0.000        0.000        0.000        0.000        0.000        1.000        0.000        2.000        0.000        0.000        0.000        2.000        0.000        0.000        0.000      100.000        0.000        0.000        1.783        1.797        2.164
     110.000  -280649.682    29653.382    16774.520    32874.922      152.099  -412219.249    52114.643       25.833       25.778        3.099        2.944        3.161        3.203        3.055        2.983        3.181        3.094        3.161        3.179        3.109        3.235        2.493        2.511        2.499        2.532        0.475        1.000        0.000        1.000        2.000        0.000        0.000        0.000        0.000        0.000        0.000        0.000        0.000        0.000        0.000        1.000        4.000        0.000        0.000        0.000        1.000        0.000        0.000        0.000        0.000        2.000        2.000        3.000        3.000        0.000        0.000        0.000        3.000        0.000        4.494        0.000       95.506        0.000        0.000        1.789        1.851        2.317
     120.000  -280622.085    28623.897    17049.269    32948.325      116.561  -411568.875    52208.738       25.893       25.888        3.053        2.994        3.185        3.220        3.096        2.907        3.166        3.046        3.211        3.107        3.036        3.235        2.489        2.517        2.504        2.548        0.494        1.000        1.000        2.000        2.000        1.000        0.000        0.000        1.000        1.000        0.000        0.000        0.000        0.000        0.000        1.000        0.000        0.000        0.000        0.000        1.000        0.000        0.000        0.000        0.000        0.000        0.000        0.000        3.000        0.000        0.000        1.000        0.000        0.000        0.000        0.000      100.000        0.000        0.000        1.778        1.840        2.275
     130.000  -281104.366    28625.522    16873.228    32963.233      131.576  -413126.929    53429.003       25.655       25.432        3.039        2.939        3.157        3.245        3.034        2.957        3.141        2.999        3.185        3.205        3.030        3.246        2.540        2.511        2.494        2.512        0.500        1.000        0.000        2.000        2.000        1.000        0.000        0.000        0.000        0.000        0.000        0.000        0.000        0.000        0.000        0.000        1.000        0.000        0.000        0.000        1.000        0.000        0.000        0.000        0.000        1.000        0.000        3.000        3.000        1.000        0.000        1.000        3.000        0.000        0.000        0.000      100.000        0.000        0.000        1.732        1.778        2.341
     140.000  -279535.751    29527.584    16878.657    32934.068      154.250  -411347.693    52317.383       26.095       25.902        3.137        3.043        3.212        3.227        3.155        2.902        3.148        2.957        3.175        3.203        3.099        3.239        2.487        2.557        2.478        2.543        0.477        1.000        0.000        2.000        2.000        1.000        0.000        0.000        2.000        0.000        0.000        0.000        0.000        0.000        0.000        1.000        0.000        0.000        0.000        0.000        1.000        0.000        0.000        0.000        0.000        1.000        0.000        2.000        1.000        0.000        0.000        0.000        3.000        0.000        0.000        0.000      100.000        0.000        0.000        1.999        2.070        2.412
     150.000  -280779.692    29590.338    16572.407    32899.039      134.766  -412957.035    52980.793       25.922       25.839        3.114        3.057        3.158        3.240        3.117        2.997        3.177        2.953        3.201        3.229        3.051        3.297        2.492        2.500        2.560        2.531        0.504        1.000        0.000        2.000        1.000        1.000        0.000        0.000        0.000        0.000        0.000        0.000        0.000        0.000        0.000        2.000        3.000        0.000        0.000        0.000        1.000        0.000        0.000        0.000        0.000        2.000        0.000        1.000        1.000        1.000        0.000        0.000        6.000        0.000        0.000        0.000      100.000        0.000        0.000        2.031        2.084        2.413
     160.000  -279680.860    29333.892    16904.647    32749.027      139.702  -410975.070    52166.943       26.256       25.928        3.080        3.003        3.191        3.210        3.091        3.043        3.150        2.957        3.204        3.171        3.031        3.268        2.479        2.461        2.483        2.544        0.498        1.000        0.000        2.000        1.000        1.000        0.000        0.000        1.000        0.000        0.000        0.000        0.000        0.000        0.000        0.000        3.000        0.000        0.000        0.000        1.000        0.000        0.000        0.000        0.000        0.000        1.000        2.000        2.000        0.000        0.000        3.000        5.000        0.000        0.000        0.000      100.000        0.000        0.000        1.747        1.770        2.103
     170.000  -280098.245    30239.864    16791.239    32666.327      117.396  -411645.117    51732.046       26.423       26.046        3.067        3.033        3.124        3.213        3.098        2.982        3.199        2.980        3.251        3.190        3.025        3.275        2.479        2.480        2.500        2.538        0.476        1.000        0.000        1.000        1.000        1.000        0.000        0.000        1.000        0.000        0.000        0.000        0.000        0.000        0.000        1.000        2.000        0.000        0.000        0.000        1.000        0.000        0.000        0.000        0.000        4.000        1.000        3.000        1.000        1.000        0.000        2.000        6.000        0.000        0.000        0.000      100.000        0.000        0.000        2.063        2.101        2.390
     180.000  -279989.701    29463.938    16755.538    32778.161      136.245  -410962.240    51838.658       26.116       25.904        3.068        3.074        3.178        3.218        3.121        2.992        3.196        3.001        3.197        3.171        3.162        3.275        2.465        2.460        2.494        2.564        0.505        1.000        1.000        1.000        1.000        1.000        0.000        0.000        1.000        0.000        0.000        0.000        0.000        0.000        0.000        2.000        2.000        0.000        0.000        0.000        1.000        0.000        0.000        0.000        0.000        1.000        1.000        2.000        2.000        0.000        0.000        5.000        6.000        0.000        4.494        0.000       95.506        0.000        0.000        2.195        2.240        2.492
     190.000  -279250.648    29848.439    16634.838    32803.283      151.684  -409628.890    50939.998       26.169       26.062        3.146        3.058        3.121        3.228        3.147        2.930        3.178        3.070        3.227        3.205        3.066        3.271        2.509        2.498        2.506        2.558        0.482        1.000        1.000        1.000        1.000        1.000        0.000        0.000        0.000        0.000        0.000        0.000        1.000        0.000        0.000        1.000        1.000        0.000        0.000        0.000        1.000        0.000        0.000        0.000        0.000        0.000        0.000        1.000        1.000        0.000        0.000        3.000        3.000        0.000        0.000        0.000      100.000        0.000        0.000        2.316        2.359        2.603
     200.000  -279311.845    27973.535    16630.359    32765.104      161.193  -410320.903    53478.867       26.274       26.103        3.086        3.071        3.147        3.196        3.181        2.979        3.246        3.059        3.245        3.117        3.053        3.259        2.487        2.505        2.526        2.528        0.496        1.000        0.000        2.000        1.000        1.000        0.000        0.000        0.000        0.000        0.000        0.000        0.000        0.000        0.000        0.000        2.000        0.000        0.000        0.000        1.000        0.000        0.000        0.000        0.000        1.000        0.000        1.000        1.000        1.000        0.000        0.000        9.000        0.000        0.000        0.000      100.000        0.000        0.000        2.342        2.386        2.557
     210.000  -278946.480    28095.616    16227.610    32883.833      125.524  -407643.570    51364.506       26.019       26.196        3.078        3.048        3.132        3.182        3.107        2.967        3.227        2.946        3.216        3.127        3.062        3.290        2.441        2.478        2.500        2.587        0.485        1.000        0.000        1.000        1.000        1.000        0.000        0.000        0.000        0.000        0.000        0.000        0.000        0.000        0.000        2.000        0.000        0.000        0.000        0.000        1.000        0.000        0.000        0.000        0.000        1.000        2.000        3.000        1.000        1.000        0.000        1.000        2.000        0.000        0.000        0.000      100.000        0.000        0.000        2.028        2.070        2.375
     220.000  -278802.218    28865.635    16570.747    32968.222      149.806  -408082.607    50725.978       26.022       26.032        3.065        3.003        3.198        3.234        3.131        3.007        3.208        2.995        3.212        3.162        3.096        3.285        2.478        2.450        2.548        2.588        0.486        1.000        0.000        2.000        1.000        1.000        0.000        0.000        0.000        1.000        0.000        0.000        1.000        0.000        0.000        0.000        3.000        0.000        0.000        0.000        1.000        0.000        0.000        0.000        0.000        2.000        2.000        0.000        2.000        0.000        0.000        2.000        4.000        0.000        0.000        0.000      100.000        0.000        0.000        2.143        2.164        2.504
     230.000  -279271.175    28769.184    16411.584    33011.482      120.493  -410090.566    52506.648       25.584       26.089        3.152        3.062        3.118        3.232        3.121        3.052        3.141        3.012        3.253        3.188        3.120        3.247        2.500        2.503        2.485        2.483        0.494        1.000        0.000        2.000        1.000        1.000        0.000        0.000        0.000        0.000        0.000        0.000        0.000        0.000        0.000        0.000        1.000        0.000        0.000        0.000        1.000        0.000        0.000        0.000        0.000        2.000        4.000        1.000        3.000        0.000        0.000        0.000        6.000        0.000        0.000        0.000      100.000        0.000        0.000        2.005        2.047        2.435
     240.000  -279180.825    29128.144    16772.511    32951.364      127.125  -409707.398    51547.428       25.809       26.042        3.071        3.053        3.115        3.216        3.019        3.025        3.135        3.092        3.222        3.162        3.063        3.256        2.499        2.476        2.534        2.485        0.472        1.000        0.000        2.000        1.000        1.000        0.000        0.000        1.000        0.000        0.000        0.000        0.000        1.000        0.000        0.000        1.000        0.000        0.000        0.000        1.000        0.000        0.000        0.000        0.000        2.000        0.000        2.000        3.000        1.000        0.000        0.000        6.000        0.000        4.494        0.000       95.506        0.000        0.000        2.166        2.220        2.594
     250.000  -278372.455    27843.985    16105.392    32857.675      114.330  -407133.225    51839.387       25.845       26.088        3.025        3.084        3.183        3.239        3.094        2.932        3.176        2.986        3.264        3.226        3.046        3.263        2.487        2.466        2.533        2.584        0.480        1.000        0.000        2.000        1.000        1.000        0.000        0.000        0.000        0.000        0.000        0.000        0.000        0.000        0.000        0.000        3.000        0.000        0.000        0.000        1.000        0.000        0.000        0.000        0.000        3.000        2.000        1.000        1.000        1.000        0.000        0.000        2.000        0.000        0.000        0.000      100.000        0.000        0.000        2.135        2.159        2.613
     260.000  -278995.985    28252.078    16343.005    32580.097      153.959  -408311.536    51986.412       26.222       26.264        3.030        3.045        3.109        3.186        3.088        2.882        3.274        2.991        3.239        3.160        3.040        3.231        2.506        2.466        2.510        2.575        0.473        1.000        0.000        2.000        1.000        1.000        0.000        0.000        2.000        0.000        0.000        0.000        0.000        0.000        0.000        2.000        2.000        0.000        0.000        0.000        1.000        0.000        0.000        0.000        0.000        3.000        0.000        1.000        2.000        0.000        0.000        0.000        2.000        0.000        0.000        0.000      100.000        0.000        0.000        2.165        2.195        2.532
     270.000  -279317.241    28926.511    16201.031    32894.610      138.969  -410023.903    52545.540       25.943       26.211        3.096        3.054        3.139        3.220        3.164        2.873        3.240        3.021        3.204        3.201        3.030        3.267        2.512        2.510        2.512        2.555        0.487        1.000        0.000        2.000        1.000        1.000        0.000        0.000        2.000        0.000        0.000        0.000        0.000        0.000        0.000        0.000        0.000        0.000        0.000        0.000        1.000        0.000        0.000        0.000        0.000        2.000        0.000        1.000        1.000        0.000        0.000        0.000        4.000        0.000        0.000        0.000      100.000        0.000        0.000        1.869        1.869        2.312
     280.000  -278462.221    27182.505    16416.157    32933.947      106.381  -408126.503    53025.292       25.843       25.830        3.035        3.071        3.122        3.191        3.151        2.923        3.245        3.041        3.247        3.233        3.078        3.187        2.530        2.523        2.538        2.566        0.490        1.000        0.000        2.000        1.000        1.000        0.000        0.000        2.000        0.000        0.000        0.000        2.000        0.000        0.000        1.000        1.000        0.000        0.000        0.000        1.000        0.000        0.000        0.000        0.000        0.000        1.000        0.000        3.000        1.000        0.000        2.000        2.000        0.000        4.494        0.000       95.506        0.000        0.000        1.883        1.895        2.455
     290.000  -278898.415    27945.717    16183.280    32987.458      139.752  -408458.136    52303.513       26.185       26.035        3.003        3.057        3.154        3.198        3.135        3.017        3.202        2.987        3.271        3.223        3.181        3.241        2.581        2.482        2.485        2.588        0.473        1.000        0.000        2.000        1.000        1.000        0.000        0.000        2.000        0.000        0.000        0.000        1.000        0.000        0.000        1.000        3.000        0.000        0.000        0.000        1.000        0.000        0.000        0.000        0.000        1.000        0.000        1.000        1.000        0.000        0.000        1.000        3.000        0.000        0.000        0.000      100.000        0.000        0.000        1.960        1.958        2.527
     300.000  -278147.681    27323.846    16457.229    32770.026      126.091  -406689.111    51864.239       25.949       25.939        3.008        3.110        3.132        3.231        3.125        2.988        3.231        2.935        3.182        3.181        3.129        3.239        2.576        2.439        2.508        2.562        0.483        1.000        0.000        2.000        1.000        1.000        0.000        0.000        1.000        0.000        0.000        0.000        0.000        0.000        0.000        2.000        1.000        0.000        0.000        0.000        1.000        0.000        0.000        0.000        0.000        3.000        2.000        1.000        3.000        0.000        0.000        2.000        4.000        0.000        0.000        0.000      100.000        0.000        0.000        2.069        2.069        2.634
     310.000  -278370.087    28037.812    16504.370    32887.427      152.765  -407024.934    51072.473       25.875       25.739        3.083        3.063        3.159        3.166        3.172        2.944        3.207        3.038        3.230        3.203        3.123        3.257        2.574        2.431        2.509        2.504        0.502        2.000        0.000        2.000        1.000        1.000        0.000        0.000        1.000        0.000        0.000        0.000        0.000        0.000        0.000        1.000        2.000        0.000        0.000        0.000        1.000        0.000        0.000        0.000        0.000        1.000        1.000        0.000        1.000        1.000        0.000        5.000        0.000        0.000        0.000        0.000      100.000        0.000        0.000        2.184        2.192        2.812
     320.000  -277850.997    26922.709    16567.354    33133.792      127.523  -408092.338    53489.963       26.204       25.782        3.094        3.047        3.176        3.221        3.146        2.917        3.216        3.005        3.202        3.160        3.176        3.255        2.518        2.460        2.500        2.500        0.506        1.000        0.000        2.000        1.000        1.000        0.000        0.000        1.000        0.000        0.000        0.000        0.000        0.000        0.000        0.000        0.000        0.000        0.000        0.000        1.000        0.000        0.000        0.000        0.000        2.000        4.000        0.000        2.000        0.000        0.000        1.000        2.000        0.000        0.000        0.000      100.000        0.000        0.000        2.273        2.287        2.857
     330.000  -278400.404    27829.665    16553.604    32775.711      136.125  -408472.009    52776.500       26.027       25.965        3.087        2.940        3.175        3.197        3.095        2.951        3.230        3.025        3.194        3.175        3.183        3.269        2.511        2.489        2.529        2.528        0.488        1.000        0.000        2.000        1.000        1.000        0.000        0.000        1.000        0.000        0.000        0.000        0.000        0.000        0.000        0.000        0.000        0.000        0.000        0.000        1.000        0.000        0.000        0.000        0.000        1.000        3.000        0.000        3.000        1.000        0.000        3.000        2.000        0.000        0.000        0.000      100.000        0.000        0.000        2.114        2.095        2.714
     340.000  -278809.576    27062.659    16537.146    33103.849      131.128  -408033.817    52389.458       25.952       25.790        3.038        2.994        3.129        3.211        3.015        2.941        3.223        3.093        3.219        3.202        3.204        3.292        2.577        2.566        2.495        2.559        0.507        1.000        0.000        2.000        1.000        1.000        0.000        0.000        1.000        0.000        0.000        0.000        0.000        0.000        0.000        0.000        1.000        0.000        0.000        0.000        1.000        0.000        0.000        0.000        0.000        2.000        3.000        0.000        1.000        0.000        0.000        1.000        3.000        0.000        0.000        0.000      100.000        0.000        0.000        1.866        1.869        2.507
     350.000  -278068.193    27855.233    16626.285    33012.144      117.318  -406355.699    50676.526       26.192       26.183        3.048        3.013        3.136        3.196        3.104        2.927        3.221        2.973        3.214        3.177        3.173        3.270        2.506        2.524        2.511        2.520        0.490        1.000        0.000        2.000        1.000        1.000        0.000        0.000        1.000        0.000        0.000        0.000        0.000        0.000        0.000        2.000        3.000        0.000        0.000        0.000        0.000        0.000        0.000        0.000        0.000        2.000        4.000        0.000        2.000        1.000        0.000        0.000        1.000        0.000        0.000        0.000      100.000        0.000        0.000        1.943        1.926        2.489
     360.000  -277992.019    27737.102    16922.109    32850.963      145.948  -406835.274    51187.134       26.181       26.424        3.105        3.010        3.098        3.234        3.140        2.973        3.225        3.039        3.254        3.211        3.136        3.225        2.501        2.581        2.633        2.533        0.488        1.000        0.000        1.000        1.000        2.000        0.000        0.000        1.000        0.000        0.000        0.000        1.000        0.000        0.000        2.000        2.000        0.000        0.000        0.000        0.000        0.000        0.000        0.000        0.000        4.000        2.000        4.000        1.000        2.000        0.000        2.000        3.000        0.000        0.000        0.000      100.000        0.000        0.000        2.159        2.129        2.594
     370.000  -278086.007    28177.424    16852.595    32846.287      133.422  -406430.538    50334.803       26.058       26.096        3.029        2.967        3.158        3.221        3.058        2.950        3.190        3.017        3.223        3.231        3.161        3.013        2.553        2.512        2.731        2.501        0.479        1.000        0.000        2.000        1.000        1.000        0.000        0.000        1.000        0.000        0.000        0.000        0.000        0.000        0.000        0.000        5.000        0.000        0.000        0.000        1.000        0.000        0.000        0.000        0.000        1.000        0.000        3.000        2.000        2.000        0.000        0.000        1.000        0.000        0.000        0.000      100.000        0.000        0.000        2.139        2.108        2.637
     380.000  -277677.583    26929.720    16613.318    32947.914      156.178  -406291.234    51966.520       25.942       26.353        3.070        3.034        3.113        3.217        3.090        2.931        3.218        2.986        3.270        3.171        3.162        3.067        2.527        2.530        2.708        2.549        0.474        1.000        0.000        2.000        1.000        0.000        0.000        0.000        1.000        0.000        0.000        0.000        0.000        0.000        0.000        0.000        2.000        0.000        0.000        0.000        1.000        0.000        0.000        0.000        0.000        1.000        1.000        1.000        3.000        0.000        0.000        3.000        3.000        0.000        0.000        0.000      100.000        0.000        0.000        2.271        2.235        2.797
     390.000  -276798.515    27344.568    16395.187    32795.575      118.638  -404492.404    51039.921       25.889       26.243        3.070        3.061        3.126        3.219        3.123        2.947        3.213        2.974        3.275        3.149        3.133        3.144        2.622        2.598        2.734        2.543        0.469        1.000        0.000        2.000        1.000        1.000        0.000        0.000        0.000        0.000        0.000        0.000        0.000        0.000        0.000        1.000        3.000        0.000        0.000        0.000        1.000        0.000        0.000        0.000        0.000        0.000        3.000        0.000        0.000        0.000        0.000        1.000        4.000        0.000        0.000        0.000      100.000        0.000        0.000        2.170        2.133        2.756
     400.000  -278203.376    27701.057    16197.923    32788.459      146.973  -406172.288    51134.500       26.087       26.215        3.121        2.981        3.136        3.192        3.045        2.899        3.214        2.934        3.233        3.265        3.164        3.047        2.569        2.564        2.701        2.582        0.503        1.000        0.000        1.000        1.000        1.000        0.000        0.000        1.000        0.000        0.000        0.000        0.000        0.000        0.000        0.000        1.000        0.000        0.000        0.000        1.000        0.000        0.000        0.000        0.000        1.000        1.000        1.000        2.000        1.000        0.000        1.000        3.000        0.000        0.000        0.000      100.000        0.000        0.000        2.097        2.086        2.666
     410.000  -278503.063    28139.461    16139.900    32698.684      123.369  -406519.002    50914.526       26.456       26.299        3.094        2.995        3.145        3.223        3.069        2.935        3.202        3.087        3.204        3.207        3.183        3.006        2.542        2.606        2.709        2.553        0.501        0.000        0.000        1.000        1.000        1.000        0.000        0.000        1.000        0.000        0.000        0.000        0.000        0.000        0.000        1.000        2.000        0.000        0.000        0.000        1.000        0.000        0.000        0.000        0.000        2.000        0.000        0.000        3.000        1.000        0.000        0.000        5.000        0.000        0.000        0.000      100.000        0.000        0.000        2.602        2.576        3.244
     420.000  -278378.812    28004.214    16338.805    32854.236      121.900  -406958.704    51260.737       26.391       26.241        2.990        2.972        3.171        3.219        3.104        3.003        3.198        3.129        3.224        3.155        3.159        3.075        2.522        2.492        2.718        2.515        0.502        1.000        0.000        1.000        1.000        1.000        0.000        0.000        1.000        0.000        0.000        0.000        0.000        0.000        0.000        1.000        3.000        0.000        0.000        0.000        1.000        0.000        0.000        0.000        0.000        1.000        2.000        2.000        2.000        0.000        0.000        1.000        2.000        0.000        0.000        0.000      100.000        0.000        0.000        2.518        2.498        3.235
     430.000  -278115.188    27959.933    16091.985    32946.164      140.370  -407208.267    51954.627       26.578       26.407        3.009        2.965        3.168        3.222        3.190        2.993        3.164        2.981        3.233        3.225        3.064        3.075        2.544        2.560        2.720        2.558        0.471        2.000        0.000        1.000        1.000        1.000        0.000        0.000        0.000        0.000        0.000        0.000        0.000        0.000        0.000        1.000        1.000        0.000        0.000        0.000        0.000        0.000        0.000        0.000        0.000        2.000        0.000        0.000        1.000        1.000        0.000        3.000        2.000        0.000        4.494        0.000       95.506        0.000        0.000        2.838        2.802        3.432
     440.000  -278655.959    27509.980    16288.286    32774.864      124.195  -406537.201    51183.917       26.445       26.098        3.016        3.060        3.116        3.252        3.125        2.906        3.245        2.998        3.170        3.205        3.188        3.100        2.524        2.592        2.688        2.595        0.498        0.000        0.000        1.000        1.000        1.000        0.000        0.000        0.000        0.000        0.000        0.000        0.000        0.000        0.000        0.000        4.000        0.000        0.000        0.000        1.000        0.000        0.000        0.000        0.000        1.000        0.000        0.000        4.000        0.000        0.000        1.000        2.000        0.000        4.494        0.000       95.506        0.000        0.000        2.785        2.753        3.468
     450.000  -277663.784    28002.379    16267.621    32828.128      127.126  -405186.720    50297.683       26.241       25.919        2.995        2.945        3.132        3.238        3.133        2.856        3.166        3.049        3.178        3.206        3.151        3.067        2.496        2.603        2.676        2.495        0.502        1.000        0.000        1.000        1.000        1.000        0.000        0.000        1.000        1.000        0.000        0.000        0.000        0.000        0.000        1.000        1.000        0.000        0.000        0.000        0.000        0.000        0.000        0.000        0.000        1.000        1.000        1.000        2.000        1.000        0.000        4.000        4.000        0.000        0.000        0.000      100.000        0.000        0.000        2.851        2.842        3.334
     460.000  -277095.633    27354.606    16382.848    32985.847      165.350  -405428.682    51444.398       25.921       25.635        2.973        3.082        3.193        3.193        3.169        2.952        3.176        3.004        3.220        3.164        3.192        3.124        2.447        2.596        2.699        2.597        0.502        2.000        0.000        2.000        0.000        1.000        0.000        0.000        1.000        0.000        0.000        0.000        1.000        0.000        0.000        2.000        1.000        0.000        0.000        0.000        0.000        0.000        0.000        0.000        0.000        0.000        0.000        2.000        3.000        0.000        0.000        3.000        2.000        0.000        4.494        0.000       95.506        0.000        0.000        3.021        2.982        3.647
     470.000  -277310.691    27449.362    16293.795    32736.018      137.251  -404033.755    50106.638       26.136       25.570        3.056        2.948        3.139        3.161        3.110        3.006        3.261        3.013        3.231        3.217        3.166        3.052        2.481        2.596        2.723        2.594        0.476        1.000        0.000        2.000        1.000        1.000        0.000        0.000        0.000        0.000        0.000        0.000        0.000        0.000        0.000        1.000        3.000        0.000        0.000        0.000        1.000        0.000        0.000        0.000        0.000        0.000        1.000        1.000        1.000        0.000        0.000        0.000        4.000        0.000        0.000        0.000      100.000        0.000        0.000        2.881        2.847        3.518
     480.000  -277764.025    28214.542    16268.214    32868.799      151.810  -404873.516    49606.125       25.917       25.624        3.067        3.022        3.173        3.209        3.090        2.974        3.251        2.981        3.221        3.169        3.200        3.083        2.459        2.603        2.698        2.569        0.483        2.000        0.000        2.000        1.000        1.000        0.000        0.000        1.000        0.000        0.000        0.000        0.000        0.000        0.000        1.000        0.000        0.000        0.000        0.000        1.000        0.000        0.000        0.000        0.000        1.000        0.000        3.000        4.000        1.000        0.000        1.000        3.000        0.000        0.000        0.000      100.000        0.000        0.000        2.527        2.511        3.179
     490.000  -277169.246    27244.761    16396.802    32563.947      132.608  -405333.526    51826.162       25.776       25.740        3.058        2.933        3.138        3.241        3.135        2.954        3.206        3.035        3.234        3.224        3.187        3.081        2.471        2.573        2.720        2.587        0.492        1.000        0.000        2.000        1.000        1.000        0.000        0.000        0.000        0.000        0.000        0.000        1.000        0.000        0.000        0.000        1.000        0.000        0.000        0.000        1.000        0.000        0.000        0.000        0.000        0.000        3.000        1.000        2.000        1.000        0.000        3.000        3.000        0.000        0.000        0.000      100.000        0.000        0.000        2.423        2.407        3.049
     500.000  -277787.796    27430.250    16404.863    32755.780      105.650  -405544.268    51059.930       26.208       25.847        3.107        2.943        3.160        3.258        3.079        3.030        3.189        3.012        3.214        3.170        3.193        3.070        2.511        2.568        2.694        2.595        0.505        1.000        0.000        2.000        1.000        1.000        0.000        0.000        1.000        0.000        0.000        0.000        1.000        0.000        0.000        1.000        2.000        0.000        0.000        0.000        1.000        0.000        0.000        0.000        0.000        0.000        0.000        3.000        2.000        1.000        0.000        1.000        5.000        0.000        4.494        0.000       95.506        0.000        0.000        2.413        2.411        2.980
     510.000  -277190.811    27286.933    16398.037    33018.533      150.445  -403903.269    49858.510       26.196       25.790        3.045        3.033        3.155        3.241        3.116        2.901        3.203        3.030        3.169        3.167        3.156        3.081        2.459        2.575        2.702        2.533        0.473        1.000        0.000        1.000        1.000        1.000        0.000        0.000        0.000        0.000        0.000        0.000        1.000        0.000        0.000        0.000        1.000        0.000        0.000        0.000        1.000        0.000        0.000        0.000        0.000        1.000        0.000        3.000        1.000        2.000        0.000        0.000        3.000        0.000        0.000        0.000      100.000        0.000        0.000        2.372        2.374        2.988
     520.000  -277774.263    27660.738    16320.180    32800.553      137.032  -405107.350    50414.585       26.333       25.698        3.081        3.120        3.190        3.213        3.051        2.862        3.222        3.069        3.165        3.253        3.221        3.090        2.473        2.555        2.713        2.512        0.488        1.000        0.000        2.000        1.000        2.000        0.000        0.000        1.000        0.000        0.000        0.000        0.000        0.000        0.000        1.000        1.000        0.000        0.000        0.000        0.000        0.000        0.000        0.000        0.000        1.000        1.000        4.000        3.000        1.000        0.000        1.000        3.000        0.000        0.000        0.000      100.000        0.000        0.000        2.479        2.495        3.135
     530.000  -277397.063    28262.966    15956.283    32712.042      136.218  -405129.919    50665.347       26.094       25.545        2.940        3.010        3.174        3.205        3.073        3.005        3.216        2.926        3.228        3.241        3.183        3.109        2.503        2.565        2.709        2.462        0.467        1.000        0.000        2.000        0.000        1.000        0.000        0.000        0.000        0.000        0.000        0.000        0.000        0.000        0.000        0.000        2.000        0.000        0.000        0.000        1.000        0.000        0.000        0.000        0.000        1.000        2.000        2.000        1.000        0.000        0.000        0.000        1.000        0.000        0.000        0.000      100.000        0.000        0.000        2.540        2.552        3.165
     540.000  -277200.937    27462.161    16518.171    32828.776      142.984  -405296.910    51143.882       25.561       25.423        3.016        2.994        3.193        3.219        3.080        2.965        3.198        3.022        3.185        3.219        3.138        3.104        2.424        2.569        2.710        2.536        0.512        0.000        0.000        1.000        1.000        1.000        0.000        0.000        1.000        0.000        0.000        0.000        0.000        0.000        0.000        1.000        2.000        0.000        0.000        0.000        1.000        0.000        0.000        0.000        0.000        1.000        0.000        2.000        4.000        0.000        0.000        0.000        1.000        0.000        0.000        0.000      100.000        0.000        0.000        2.464        2.471        3.200
     550.000  -277377.610    27387.266    16348.017    32767.725      138.207  -403699.255    49680.430       25.673       25.600        3.098        3.046        3.112        3.276        2.992        2.869        3.216        3.010        3.195        3.176        3.205        3.062        2.493        2.588        2.698        2.563        0.499        1.000        0.000        1.000        1.000        0.000        0.000        0.000        1.000        0.000        0.000        0.000        0.000        0.000        0.000        0.000        2.000        0.000        0.000        0.000        1.000        0.000        0.000        0.000        0.000        2.000        2.000        3.000        2.000        1.000        0.000        2.000        3.000        0.000        0.000        0.000      100.000        0.000        0.000        2.900        2.922        3.505
     560.000  -277242.801    27479.792    16401.718    32694.907      124.924  -405120.867    51176.725       25.679       25.589        3.022        3.129        3.138        3.193        3.033        2.919        3.165        3.009        3.207        3.200        3.119        3.121        2.482        2.566        2.684        2.594        0.484        2.000        0.000        2.000        0.000        1.000        0.000        0.000        1.000        0.000        0.000        0.000        1.000        0.000        0.000        0.000        2.000        0.000        0.000        0.000        0.000        0.000        0.000        0.000        0.000        2.000        2.000        1.000        1.000        1.000        0.000        1.000        3.000        0.000        0.000        0.000      100.000        0.000        0.000        2.749        2.756        3.432
     570.000  -277233.476    27120.945    15728.675    33100.802      137.151  -403933.260    50612.211       25.387       25.259        2.990        3.100        3.127        3.289        3.081        2.905        3.193        2.921        3.226        3.193        3.153        3.103        2.462        2.571        2.682        2.488        0.493        2.000        0.000        2.000        1.000        1.000        0.000        0.000        1.000        0.000        0.000        0.000        0.000        0.000        0.000        0.000        1.000        0.000        0.000        0.000        0.000        0.000        0.000        0.000        0.000        1.000        2.000        0.000        3.000        0.000        0.000        0.000        4.000        0.000        0.000        0.000      100.000        0.000        0.000        2.694        2.692        3.270
     580.000  -277533.133    27616.490    16557.460    32757.635      150.852  -406699.365    52083.796       25.613       25.605        3.031        3.099        3.076        3.226        3.121        2.917        3.185        3.037        3.243        3.212        3.052        3.096        2.461        2.604        2.660        2.480        0.470        0.000        0.000        2.000        1.000        1.000        0.000        0.000        0.000        0.000        0.000        0.000        1.000        0.000        0.000        0.000        1.000        0.000        0.000        0.000        1.000        0.000        0.000        0.000        0.000        1.000        0.000        2.000        0.000        1.000        0.000        0.000        2.000        0.000        0.000        0.000      100.000        0.000        0.000        2.694        2.683        3.342
     590.000  -277294.795    26633.774    16190.613    32703.148      146.644  -404702.534    51733.561       25.804       25.788        3.056        3.122        3.115        3.219        3.038        2.987        3.238        3.076        3.302        3.203        3.131        3.143        2.480        2.613        2.712        2.519        0.486        1.000        0.000        2.000        1.000        1.000        0.000        0.000        1.000        0.000        0.000        0.000        0.000        0.000        0.000        0.000        3.000        0.000        0.000        0.000        0.000        0.000        0.000        0.000        0.000        3.000        2.000        4.000        0.000        1.000        0.000        0.000        1.000        0.000        0.000        0.000      100.000        0.000        0.000        2.351        2.363        3.073
     600.000  -277620.954    27229.542    16296.926    32581.793      142.158  -404334.911    50463.538       25.996       25.932        3.028        3.073        3.095        3.250        2.997        2.998        3.254        2.995        3.238        3.181        3.093        3.030        2.500        2.554        2.725        2.569        0.492        0.000        0.000        1.000        1.000        1.000        0.000        0.000        1.000        0.000        0.000        0.000        0.000        0.000        0.000        0.000        0.000        0.000        0.000        0.000        1.000        0.000        0.000        0.000        0.000        1.000        2.000        2.000        2.000        1.000        0.000        1.000        4.000        0.000        0.000        0.000      100.000        0.000        0.000        2.184        2.169        2.886
     610.000  -277332.674    26555.282    16314.373    32728.322      170.216  -404773.757    51672.889       25.788       25.962        3.063        3.105        3.093        3.270        3.024        2.919        3.261        3.029        3.245        3.182        3.163        3.073        2.482        2.609        2.719        2.534        0.499        2.000        0.000        1.000        1.000        1.000        0.000        0.000        1.000        0.000        0.000        0.000        0.000        0.000        0.000        1.000        2.000        0.000        0.000        0.000        1.000        0.000        0.000        0.000        0.000        2.000        2.000        4.000        2.000        2.000        0.000        1.000        1.000        0.000        0.000        0.000      100.000        0.000        0.000        2.231        2.214        2.900
     620.000  -277136.306    25923.420    16098.545    32936.886      141.779  -405095.140    52858.204       25.432       25.669        3.035        3.183        3.108        3.189        2.979        2.915        3.234        2.970        3.257        3.136        3.161        3.119        2.525        2.578        2.728        2.544        0.479        1.000        0.000        2.000        1.000        1.000        0.000        0.000        0.000        0.000        0.000        0.000        0.000        0.000        0.000        1.000        0.000        0.000        0.000        0.000        0.000        0.000        0.000        0.000        0.000        0.000        1.000        3.000        4.000        0.000        0.000        1.000        2.000        0.000        0.000        0.000      100.000        0.000        0.000        2.641        2.617        3.251
     630.000  -277926.136    26817.562    16154.630    32788.406      136.938  -404980.697    51157.024       25.638       26.049        3.094        3.152        3.120        3.179        3.062        2.994        3.169        3.029        3.257        3.214        3.076        3.080        2.503        2.570        2.733        2.641        0.484        2.000        0.000        2.000        1.000        1.000        0.000        0.000        1.000        0.000        0.000        0.000        0.000        0.000        0.000        1.000        0.000        0.000        0.000        0.000        0.000        0.000        0.000        0.000        0.000        2.000        2.000        4.000        2.000        2.000        0.000        0.000        4.000        0.000        0.000        0.000      100.000        0.000        0.000        2.932        2.942        3.748
     640.000  -278308.268    26593.514    16128.431    32888.134      143.163  -404300.946    50239.435       26.163       26.464        3.018        3.138        3.144        3.187        3.021        2.960        3.242        3.016        3.201        3.232        3.025        3.066        2.536        2.594        2.716        2.661        0.500        2.000        0.000        2.000        1.000        1.000        0.000        0.000        1.000        0.000        0.000        0.000        0.000        0.000        0.000        0.000        3.000        0.000        0.000        0.000        1.000        0.000        0.000        0.000        0.000        2.000        0.000        3.000        4.000        1.000        0.000        3.000        1.000        0.000        0.000        0.000      100.000        0.000        0.000        2.842        2.811        3.437
     650.000  -277921.467    27577.884    16039.794    32744.218      126.289  -405631.852    51222.200       26.149       26.347        3.087        3.162        3.069        3.229        3.034        3.018        3.223        3.044        3.213        3.123        3.148        3.039        2.558        2.546        2.666        2.599        0.469        1.000        0.000        2.000        1.000        1.000        0.000        0.000        1.000        0.000        0.000        0.000        0.000        0.000        0.000        1.000        2.000        0.000        0.000        0.000        1.000        0.000        0.000        0.000        0.000        0.000        0.000        2.000        2.000        1.000        0.000        1.000        3.000        0.000        0.000        0.000      100.000        0.000        0.000        3.090        3.076        3.998
     660.000  -277479.322    27661.486    16256.876    32932.474      119.108  -404842.484    50393.217       26.074       26.375        3.085        3.084        3.130        3.224        3.004        3.036        3.257        3.005        3.196        3.202        3.164        3.038        2.534        2.598        2.701        2.553        0.484        1.000        0.000        2.000        1.000        1.000        0.000        0.000        1.000        0.000        0.000        0.000        0.000        0.000        0.000        0.000        1.000        0.000        0.000        0.000        1.000        0.000        0.000        0.000        0.000        2.000        2.000        1.000        0.000        0.000        0.000        1.000        3.000        0.000        0.000        0.000      100.000        0.000        0.000        3.079        3.056        3.976
     670.000  -277271.369    27428.547    15959.018    32860.918      128.791  -404275.693    50627.049       25.990       26.204        2.964        2.946        3.148        3.143        2.986        3.058        3.264        3.032        3.187        3.194        3.140        3.111        2.591        2.577        2.687        2.532        0.489        1.000        0.000        1.000        1.000        1.000        0.000        0.000        1.000        0.000        0.000        0.000        0.000        0.000        0.000        0.000        4.000        0.000        0.000        0.000        1.000        0.000        0.000        0.000        0.000        1.000        2.000        0.000        2.000        0.000        0.000        2.000        2.000        0.000        0.000        0.000      100.000        0.000        0.000        2.821        2.809        3.801
     680.000  -277665.339    26279.394    16319.424    32726.636      113.854  -405728.439    52623.791       26.104       26.393        3.026        2.969        3.137        3.243        3.088        3.066        3.224        3.014        3.206        3.222        3.148        3.155        2.540        2.606        2.712        2.533        0.485        2.000        0.000        1.000        1.000        1.000        0.000        0.000        1.000        0.000        0.000        0.000        0.000        0.000        0.000        1.000        1.000        0.000        0.000        0.000        1.000        0.000        0.000        0.000        0.000        2.000        3.000        2.000        4.000        0.000        0.000        1.000        1.000        0.000        0.000        0.000      100.000        0.000        0.000        3.025        3.017        3.791
     690.000  -277200.110    26132.523    16373.209    32779.977      113.515  -404830.839    52231.505       26.302       26.306        3.040        2.942        3.157        3.239        3.082        2.920        3.243        3.008        3.207        3.206        3.156        3.083        2.538        2.545        2.703        2.569        0.492        1.000        0.000        1.000        1.000        1.000        0.000        0.000        1.000        0.000        0.000        0.000        0.000        0.000        0.000        0.000        3.000        0.000        0.000        0.000        1.000        0.000        0.000        0.000        0.000        1.000        2.000        1.000        3.000        1.000        0.000        2.000        0.000        0.000        0.000        0.000      100.000        0.000        0.000        3.011        2.979        3.838
     700.000  -278066.657    28359.889    16111.172    32573.633      129.641  -405999.613    50758.622       26.156       26.395        3.006        2.932        3.177        3.234        3.084        2.925        3.240        2.993        3.233        3.152        3.157        3.077        2.583        2.585        2.713        2.514        0.494        2.000        0.000        1.000        1.000        1.000        0.000        0.000        1.000        0.000        0.000        0.000        0.000        0.000        0.000        0.000        1.000        0.000        0.000        0.000        1.000        0.000        0.000        0.000        0.000        1.000        2.000        0.000        4.000        1.000        0.000        0.000        2.000        0.000        0.000        0.000      100.000        0.000        0.000        2.884        2.831        3.884
     710.000  -277865.913    26914.626    16434.097    32994.371      135.790  -405456.720    51111.923       25.917       26.113        3.035        3.023        3.164        3.211        3.078        2.913        3.234        3.031        3.178        3.171        3.147        3.133        2.568        2.545        2.758        2.542        0.498        1.000        0.000        1.000        1.000        1.000        0.000        0.000        1.000        0.000        1.000        0.000        0.000        0.000        0.000        0.000        0.000        0.000        0.000        0.000        1.000        0.000        0.000        0.000        0.000        3.000        1.000        2.000        1.000        1.000        0.000        2.000        2.000        0.000        0.000        0.000      100.000        0.000        0.000        2.830        2.772        3.894
     720.000  -277480.416    27022.800    15873.273    32942.868      171.759  -403704.516    50213.400       26.025       26.044        3.049        2.960        3.159        3.175        3.035        2.949        3.239        2.904        3.268        3.185        3.121        3.096        2.563        2.560        2.676        2.579        0.489        1.000        0.000        1.000        1.000        1.000        0.000        0.000        1.000        0.000        0.000        0.000        0.000        0.000        0.000        0.000        1.000        0.000        0.000        0.000        1.000        0.000        0.000        0.000        0.000        0.000        1.000        1.000        2.000        1.000        0.000        0.000        1.000        0.000        0.000        0.000      100.000        0.000        0.000        2.970        2.911        3.957
     730.000  -278095.129    26920.812    16346.629    32844.369      116.266  -406427.826    52104.621       26.041       26.415        2.963        2.926        3.180        3.234        3.077        2.895        3.259        3.034        3.183        3.194        3.196        3.073        2.558        2.555        2.699        2.575        0.490        1.000        0.000        2.000        1.000        1.000        0.000        0.000        1.000        0.000        0.000        0.000        0.000        0.000        0.000        0.000        3.000        0.000        0.000        0.000        1.000        0.000        0.000        0.000        0.000        2.000        0.000        3.000        3.000        1.000        0.000        0.000        0.000        0.000        4.494        0.000       95.506        0.000        0.000        2.985        2.909        3.991
     740.000  -278210.444    27717.721    16320.620    32552.894      107.428  -405075.231    50166.124       26.208       26.542        2.987        3.087        3.184        3.232        3.046        2.868        3.272        3.026        3.196        3.263        3.208        3.039        2.522        2.600        2.684        2.586        0.470        1.000        0.000        1.000        0.000        1.000        0.000        0.000        1.000        0.000        0.000        0.000        0.000        0.000        0.000        0.000        4.000        0.000        0.000        0.000        0.000        0.000        0.000        0.000        0.000        0.000        2.000        0.000        2.000        0.000        0.000        1.000        0.000        0.000        0.000        0.000      100.000        0.000        0.000        3.236        3.155        4.088
     750.000  -278112.640    28128.151    16072.988    32681.689      123.167  -405959.865    50841.231       25.998       26.213        2.943        3.090        3.226        3.263        3.084        3.004        3.213        3.056        3.300        3.176        3.194        3.085        2.571        2.590        2.682        2.584        0.455        1.000        0.000        1.000        1.000        1.000        0.000        0.000        0.000        0.000        0.000        0.000        0.000        0.000        0.000        0.000        2.000        0.000        0.000        0.000        1.000        0.000        0.000        0.000        0.000        1.000        0.000        1.000        3.000        0.000        0.000        3.000        1.000        0.000        0.000        0.000      100.000        0.000        0.000        3.069        2.999        4.024
     760.000  -277545.154    26690.062    16237.345    32730.879      131.583  -404092.751    50757.728       26.050       26.234        2.830        2.969        3.230        3.244        3.064        2.939        3.290        3.014        3.208        3.228        3.111        3.046        2.562        2.538        2.720        2.504        0.456        1.000        0.000        0.000        1.000        1.000        0.000        0.000        0.000        0.000        0.000        0.000        0.000        0.000        0.000        0.000        0.000        0.000        0.000        0.000        1.000        0.000        0.000        0.000        0.000        3.000        2.000        1.000        2.000        1.000        0.000        0.000        1.000        0.000        0.000        0.000      100.000        0.000        0.000        3.156        3.084        4.042
     770.000  -277557.439    27768.594    16168.479    32775.366      128.977  -404520.227    50121.372       26.042       26.341        2.852        2.966        3.196        3.248        3.147        3.017        3.155        3.095        3.184        3.190        3.166        3.186        2.515        2.559        2.703        2.585        0.492        2.000        0.000        0.000        1.000        1.000        0.000        0.000        0.000        0.000        0.000        0.000        0.000        0.000        0.000        0.000        0.000        0.000        0.000        0.000        1.000        0.000        0.000        0.000        0.000        1.000        1.000        3.000        1.000        2.000        0.000        1.000        2.000        0.000        0.000        0.000      100.000        0.000        0.000        3.275        3.216        4.048
     780.000  -278077.001    27329.220    16192.728    32753.097      121.191  -405114.707    50641.470       26.258       26.032        2.832        3.015        3.210        3.189        3.089        2.946        3.206        2.952        3.176        3.115        3.124        3.118        2.499        2.574        2.733        2.592        0.499        1.000        0.000        1.000        1.000        1.000        0.000        0.000        1.000        0.000        0.000        0.000        0.000        0.000        0.000        0.000        2.000        0.000        0.000        0.000        1.000        0.000        0.000        0.000        0.000        1.000        2.000        1.000        3.000        1.000        0.000        1.000        0.000        0.000        0.000        0.000      100.000        0.000        0.000        3.060        3.024        3.872
     790.000  -277634.205    26271.098    16404.296    32782.113      104.228  -405561.417    52365.477       26.184       25.931        2.851        3.046        3.148        3.229        3.023        2.950        3.207        2.970        3.197        3.155        3.084        3.070        2.543        2.499        2.681        2.514        0.489        1.000        0.000        1.000        1.000        1.000        0.000        0.000        1.000        0.000        0.000        0.000        0.000        0.000        0.000        0.000        0.000        0.000        0.000        0.000        1.000        0.000        0.000        0.000        0.000        0.000        3.000        2.000        2.000        2.000        0.000        0.000        1.000        0.000        0.000        0.000      100.000        0.000        0.000        3.155        3.095        3.810
     800.000  -277574.917    27537.485    16172.971    32614.413      138.544  -404913.456    50875.127       25.945       26.043        2.925        2.950        3.188        3.261        2.995        2.989        3.205        3.092        3.219        3.251        3.075        3.143        2.512        2.595        2.716        2.579        0.500        1.000        0.000        0.000        1.000        1.000        0.000        0.000        1.000        0.000        0.000        0.000        0.000        0.000        0.000        0.000        0.000        0.000        0.000        0.000        1.000        0.000        0.000        0.000        0.000        0.000        1.000        0.000        1.000        0.000        0.000        0.000        1.000        0.000        0.000        0.000      100.000        0.000        0.000        2.983        2.962        3.630
     810.000  -277003.369    26720.027    15996.359    32953.402      157.234  -403951.445    51121.054       25.767       25.778        2.803        2.939        3.167        3.252        3.024        2.976        3.274        3.078        3.227        3.211        3.155        3.099        2.536        2.556        2.713        2.523        0.490        1.000        0.000        1.000        1.000        1.000        0.000        0.000        1.000        0.000        0.000        0.000        0.000        0.000        0.000        0.000        2.000        0.000        0.000        0.000        1.000        0.000        0.000        0.000        0.000        0.000        3.000        3.000        1.000        0.000        0.000        1.000        1.000        0.000        0.000        0.000      100.000        0.000        0.000        3.083        3.076        3.647
     820.000  -277353.132    26631.938    16141.594    32786.499      135.598  -405082.326    52033.565       26.034       25.998        2.889        2.941        3.164        3.269        3.049        2.917        3.259        3.002        3.260        3.242        3.066        3.065        2.597        2.620        2.716        2.563        0.488        1.000        0.000        0.000        1.000        0.000        0.000        0.000        0.000        0.000        0.000        0.000        0.000        0.000        0.000        0.000        3.000        0.000        0.000        0.000        1.000        0.000        0.000        0.000        0.000        0.000        1.000        1.000        3.000        1.000        0.000        1.000        3.000        0.000        0.000        0.000      100.000        0.000        0.000        3.039        3.025        3.760
     830.000  -277379.171    27931.994    16518.819    32707.130      166.593  -404981.606    50277.900       25.866       25.753        3.031        3.044        3.176        3.267        3.096        3.020        3.165        3.029        3.286        3.199        3.124        3.116        2.567        2.578        2.765        2.574        0.482        1.000        0.000        1.000        1.000        1.000        0.000        0.000        0.000        0.000        0.000        0.000        0.000        0.000        0.000        0.000        2.000        0.000        0.000        0.000        1.000        0.000        0.000        0.000        0.000        2.000        1.000        1.000        4.000        1.000        0.000        1.000        1.000        0.000        0.000        0.000      100.000        0.000        0.000        2.672        2.652        3.752
     840.000  -277428.936    27167.477    15946.467    32679.078      140.714  -404315.979    50953.307       26.100       25.999        2.826        2.969        3.189        3.198        3.011        2.981        3.252        3.000        3.223        3.233        3.172        3.159        2.546        2.593        2.692        2.565        0.494        1.000        0.000        1.000        1.000        0.000        0.000        0.000        0.000        1.000        0.000        0.000        0.000        0.000        0.000        0.000        1.000        0.000        0.000        0.000        1.000        0.000        0.000        0.000        0.000        1.000        1.000        1.000        2.000        0.000        0.000        0.000        1.000        0.000        0.000        0.000      100.000        0.000        0.000        2.574        2.518        3.634
     850.000  -277121.758    27796.301    16382.793    32773.665      148.793  -405397.070    51173.760       25.914       25.826        2.781        3.104        3.107        3.262        3.065        3.017        3.197        3.091        3.226        3.189        3.072        3.108        2.561        2.585        2.748        2.554        0.506        2.000        0.000        1.000        1.000        1.000        0.000        0.000        1.000        1.000        0.000        0.000        0.000        0.000        0.000        0.000        2.000        0.000        0.000        0.000        1.000        0.000        0.000        0.000        0.000        2.000        4.000        3.000        3.000        2.000        0.000        2.000        2.000        0.000        4.494        0.000       95.506        0.000        0.000        2.806        2.761        3.590
     860.000  -277217.389    26636.474    16043.591    32624.799      135.981  -403769.850    51111.616       25.838       26.111        2.758        3.102        3.108        3.226        3.063        3.056        3.217        3.024        3.243        3.224        3.114        3.069        2.544        2.611        2.713        2.570        0.489        1.000        0.000        1.000        1.000        1.000        0.000        0.000        1.000        0.000        0.000        0.000        0.000        0.000        0.000        0.000        0.000        0.000        0.000        0.000        1.000        0.000        0.000        0.000        0.000        0.000        0.000        0.000        3.000        0.000        0.000        0.000        0.000        0.000        0.000        0.000      100.000        0.000        0.000        2.457        2.456        3.321
     870.000  -277557.281    27069.088    16311.652    32803.042      120.897  -405509.114    51647.154       25.972       26.036        2.790        3.094        3.169        3.248        3.104        3.026        3.268        2.996        3.302        3.186        3.129        2.998        2.553        2.653        2.703        2.587        0.488        2.000        0.000        1.000        1.000        1.000        0.000        0.000        0.000        0.000        0.000        0.000        0.000        0.000        0.000        0.000        6.000        0.000        0.000        0.000        1.000        0.000        0.000        0.000        0.000        2.000        4.000        1.000        2.000        0.000        0.000        1.000        2.000        0.000        0.000        0.000      100.000        0.000        0.000        2.410        2.378        3.343
     880.000  -276822.773    27097.865    16077.180    32737.980      148.458  -403212.651    50328.394       25.889       26.357        2.817        3.167        3.134        3.260        3.056        2.995        3.231        2.958        3.265        3.169        3.157        3.125        2.475        2.640        2.684        2.543        0.497        1.000        0.000        1.000        1.000        1.000        0.000        0.000        1.000        0.000        0.000        0.000        0.000        0.000        0.000        0.000        2.000        0.000        0.000        0.000        1.000        0.000        0.000        0.000        0.000        2.000        2.000        1.000        1.000        0.000        0.000        1.000        3.000        0.000        0.000        0.000      100.000        0.000        0.000        2.113        2.112        3.253
     890.000  -277401.378    27114.122    16360.876    32793.540      128.713  -404789.143    50990.515       26.127       26.201        2.755        3.075        3.111        3.252        3.045        2.940        3.264        2.988        3.172        3.178        3.115        3.097        2.520        2.617        2.694        2.552        0.477        1.000        0.000        1.000        1.000        1.000        0.000        0.000        1.000        0.000        0.000        0.000        0.000        0.000        0.000        0.000        4.000        0.000        0.000        0.000        0.000        0.000        0.000        0.000        0.000        1.000        1.000        0.000        3.000        2.000        0.000        1.000        2.000        0.000        7.865        0.000       92.135        0.000        0.000        2.139        2.147        3.550
     900.000  -277713.133    27785.219    16291.581    32705.985      130.516  -404740.183    50113.749       26.075       26.287        2.912        3.156        3.162        3.240        3.084        3.003        3.196        3.072        3.196        3.227        3.126        3.063        2.500        2.577        2.689        2.575        0.471        1.000        1.000        1.000        1.000        1.000        0.000        0.000        1.000        0.000        0.000        0.000        0.000        0.000        0.000        0.000        2.000        0.000        0.000        0.000        0.000        0.000        0.000        0.000        0.000        2.000        2.000        3.000        2.000        0.000        0.000        1.000        1.000        0.000        0.000        0.000      100.000        0.000        0.000        2.008        2.043        3.395
     910.000  -277221.276    27298.907    16104.815    32831.011      145.641  -404569.847    50968.197       25.762       25.941        2.902        3.211        3.071        3.235        3.110        3.025        3.261        3.068        3.211        3.230        3.121        3.107        2.537        2.624        2.728        2.618        0.473        1.000        0.000        1.000        1.000        1.000        0.000        0.000        1.000        0.000        0.000        0.000        0.000        0.000        0.000        0.000        1.000        0.000        0.000        0.000        0.000        0.000        0.000        0.000        0.000        2.000        1.000        3.000        1.000        1.000        0.000        2.000        1.000        0.000        0.000        0.000      100.000        0.000        0.000        2.311        2.329        3.495
     920.000  -277961.761    26561.055    16251.825    32799.061      123.017  -405256.533    51559.814       25.853       25.810        2.881        3.147        3.097        3.182        3.107        3.012        3.186        3.043        3.245        3.219        3.097        3.054        2.546        2.614        2.708        2.601        0.492        1.000        0.000        1.000        1.000        1.000        0.000        0.000        1.000        0.000        0.000        0.000        0.000        0.000        0.000        0.000        3.000        0.000        0.000        0.000        1.000        0.000        0.000        0.000        0.000        1.000        2.000        2.000        2.000        0.000        0.000        0.000        3.000        0.000        4.494        0.000       95.506        0.000        0.000        2.557        2.592        3.696
     930.000  -278234.613    26956.315    16047.962    32677.018      143.331  -405831.941    51772.701       26.050       26.311        2.986        3.154        3.099        3.245        3.091        3.087        3.311        2.977        3.197        3.156        3.148        3.093        2.530        2.615        2.704        2.596        0.496        1.000        0.000        0.000        1.000        1.000        0.000        0.000        1.000        0.000        0.000        0.000        0.000        0.000        0.000        0.000        1.000        0.000        0.000        0.000        1.000        0.000        0.000        0.000        0.000        2.000        3.000        2.000        2.000        1.000        0.000        0.000        1.000        0.000        0.000        0.000      100.000        0.000        0.000        2.763        2.761        3.613
     940.000  -277298.821    26142.828    16164.384    32865.741      161.948  -404812.663    52178.941       26.030       26.148        3.095        3.235        3.062        3.221        3.044        2.965        3.240        2.988        3.187        3.203        3.142        3.060        2.524        2.617        2.719        2.547        0.488        2.000        0.000        1.000        1.000        1.000        0.000        0.000        1.000        0.000        0.000        0.000        0.000        0.000        0.000        0.000        3.000        0.000        0.000        0.000        1.000        0.000        0.000        0.000        0.000        1.000        2.000        5.000        3.000        1.000        0.000        2.000        0.000        0.000        0.000        0.000      100.000        0.000        0.000        2.870        2.893        3.647
     950.000  -277784.397    26809.706    16716.065    32645.348      151.187  -406973.391    52866.688       25.877       26.133        2.998        3.152        3.077        3.271        3.049        3.030        3.160        3.019        3.194        3.173        3.195        3.085        2.547        2.578        2.685        2.583        0.490        1.000        0.000        1.000        1.000        1.000        0.000        0.000        1.000        0.000        0.000        0.000        0.000        0.000        0.000        0.000        1.000        0.000        0.000        0.000        1.000        0.000        0.000        0.000        0.000        0.000        1.000        4.000        1.000        0.000        0.000        0.000        3.000        0.000        0.000        0.000      100.000        0.000        0.000        3.102        3.175        3.973
     960.000  -278302.393    26401.060    16259.172    32876.931      109.742  -407016.927    53067.630       25.578       25.829        3.039        3.141        3.133        3.257        3.108        2.972        3.272        3.021        3.174        3.223        3.166        3.094        2.524        2.593        2.710        2.544        0.481        1.000        0.000        1.000        1.000        1.000        0.000        0.000        0.000        0.000        0.000        0.000        0.000        0.000        0.000        0.000        4.000        0.000        0.000        0.000        1.000        0.000        0.000        0.000        0.000        1.000        2.000        3.000        2.000        0.000        0.000        2.000        0.000        0.000        0.000        0.000      100.000        0.000        0.000        2.894        2.925        3.863
     970.000  -278369.686    28563.211    16229.979    32836.661      120.574  -405788.120    49668.009       25.657       25.735        3.023        3.110        3.131        3.248        3.083        3.014        3.222        3.076        3.200        3.133        3.186        3.088        2.543        2.543        2.698        2.579        0.486        1.000        0.000        1.000        1.000        1.000        0.000        0.000        1.000        0.000        0.000        0.000        0.000        0.000        0.000        0.000        2.000        0.000        0.000        0.000        1.000        0.000        0.000        0.000        0.000        1.000        1.000        1.000        0.000        1.000        0.000        1.000        0.000        0.000        0.000        0.000      100.000        0.000        0.000        2.637        2.678        3.717
     980.000  -277528.942    28028.992    16138.816    32749.161      162.621  -405186.176    50577.644       26.039       26.052        2.953        3.153        3.136        3.247        3.019        2.960        3.198        3.056        3.207        3.162        3.034        3.058        2.586        2.566        2.696        2.616        0.490        1.000        0.000        0.000        1.000        1.000        0.000        0.000        1.000        0.000        0.000        0.000        0.000        0.000        0.000        0.000        1.000        0.000        0.000        0.000        0.000        0.000        0.000        0.000        0.000        1.000        0.000        0.000        2.000        2.000        0.000        2.000        3.000        0.000        0.000        0.000      100.000        0.000        0.000        2.295        2.348        3.580
     990.000  -277761.430    26912.640    16188.246    32664.672      128.926  -403984.758    50328.843       26.021       25.890        2.988        3.131        3.145        3.302        3.092        2.945        3.278        3.040        3.229        3.225        3.134        3.099        2.576        2.516        2.703        2.595        0.498        1.000        0.000        0.000        1.000        1.000        0.000        0.000        1.000        0.000        0.000        0.000        0.000        0.000        0.000        0.000        2.000        0.000        0.000        0.000        1.000        0.000        0.000        0.000        0.000        1.000        0.000        2.000        0.000        1.000        0.000        0.000        3.000        0.000        4.494        0.000       95.506        0.000        0.000        2.016        2.043        3.536
    1000.000  -277193.611    27914.237    16374.603    32666.712      142.889  -404815.481    50523.430       26.230       26.025        2.970        3.181        3.112        3.252        3.104        3.059        3.230        3.005        3.232        3.169        3.067        3.050        2.566        2.644        2.684        2.624        0.481        0.000        0.000        0.000        1.000        1.000        0.000        0.000        1.000        0.000        0.000        0.000        0.000        0.000        0.000        0.000        3.000        0.000        0.000        0.000        1.000        0.000        0.000        0.000        0.000        1.000        0.000        1.000        3.000        1.000        0.000        1.000        1.000        0.000        0.000        0.000      100.000        0.000        0.000        2.111        2.135        3.562
     Average  -279526.886    27768.409    16311.389    32813.649      134.176  -408418.033    51863.523       25.984       25.981        3.012        3.050        3.142        3.227        3.092        2.967        3.214        3.017        3.217        3.193        3.121        3.146        2.522        2.551        2.636        2.554        0.488        1.099        0.040        1.297        1.109        0.970        0.000        0.000        0.713        0.079        0.030        0.000        0.129        0.010        0.000        0.446        1.693        0.000        0.000        0.000        0.832        0.000        0.000        0.000        0.000        1.317        1.248        1.644        2.109        0.663        0.000        1.069        2.495        0.000        0.656        0.000       99.344        0.000        0.000        2.379        2.379        3.046

