____Time[ps] Energy[ kJ/mol ]_____Bond _______Angle ____Dihedral ___Planarity _____Coulomb _________VdW _Your result _Your result _Your result _Your result _Your result _Your result _Your result _Your result _Your result _Your result _Your result _Your result _Your result _Your result _Your result _Your result _Your result _Your result _Your result _Your result _Your result _Your result _Your result _Your result _Your result _Your result _Your result _Your result _Your result _Your result _Your result _Your result _Your result _Your result _Your result _Your result _Your result _Your result _Your result _Your result _Your result _Your result _Your result _Your result _Your result _Your result _Your result _Your result _Your result _Your result _Your result _Your result _Your result _Your result _Your result _Your result _Your result _RMSDs[A]:CA ____Backbone __HeavyAtoms
       0.000  -357674.339    12677.250     5686.191    32844.798       16.439  -477977.024    69078.008       25.312       25.196        2.951        2.922        3.143        3.205        3.154        3.035        2.693        2.457        2.592        2.678        2.476        2.704        3.045        3.038        3.041        3.008        0.491        0.000        1.000        0.000        2.000        3.000        0.000        1.000        1.000        2.000        0.000        1.000        0.000        0.000        0.000        1.000        0.000        0.000        0.000        0.000        1.000        0.000        0.000        0.000        0.000        0.000        0.000        0.000        4.000        1.000        0.000        2.000        3.000        0.000        0.000        0.000      100.000        0.000        0.000        0.487        0.524        0.623
      10.000  -268226.813    31790.281    15879.216    32940.667      120.815  -399979.500    51021.708       26.197       26.195        2.968        2.934        3.187        3.199        3.193        2.862        2.692        2.464        2.621        2.688        2.573        2.686        3.059        2.979        3.096        3.038        0.505        0.000        0.000        1.000        2.000        3.000        0.000        0.000        1.000        0.000        0.000        0.000        1.000        0.000        0.000        1.000        0.000        0.000        0.000        0.000        1.000        0.000        0.000        0.000        0.000        0.000        1.000        1.000        4.000        0.000        0.000        1.000        0.000        0.000        0.000        0.000      100.000        0.000        0.000        1.590        1.609        1.619
      20.000  -267805.894    30058.879    16153.091    32933.249      117.645  -398098.289    51029.532       26.131       25.999        2.977        3.008        3.131        3.215        3.153        2.933        2.656        2.459        2.648        2.692        2.574        2.476        2.995        3.056        3.018        3.029        0.477        1.000        1.000        0.000        2.000        3.000        0.000        0.000        1.000        1.000        0.000        0.000        1.000        0.000        0.000        0.000        1.000        0.000        0.000        0.000        0.000        0.000        0.000        0.000        0.000        0.000        0.000        3.000        2.000        1.000        0.000        0.000        1.000        0.000        4.494        0.000       95.506        0.000        0.000        1.402        1.449        1.595
      30.000  -267278.231    30306.911    16001.059    32729.318      116.976  -397451.476    51018.980       25.777       25.940        2.981        2.973        3.109        3.197        3.166        2.991        2.665        2.451        2.610        2.658        2.562        2.476        3.072        2.949        3.099        3.079        0.474        1.000        0.000        1.000        1.000        2.000        0.000        1.000        1.000        1.000        0.000        0.000        0.000        1.000        0.000        0.000        0.000        0.000        0.000        0.000        1.000        0.000        0.000        0.000        0.000        0.000        0.000        3.000        2.000        0.000        0.000        1.000        3.000        0.000        0.000        0.000      100.000        0.000        0.000        1.360        1.370        1.643
      40.000  -266516.922    28969.657    16563.601    32975.148      114.613  -396860.063    51720.121       26.166       26.085        2.979        3.058        3.048        3.161        3.192        3.026        2.681        2.468        2.602        2.687        2.580        2.512        3.055        3.038        3.024        2.976        0.483        1.000        1.000        1.000        2.000        3.000        0.000        1.000        1.000        0.000        0.000        2.000        0.000        0.000        0.000        1.000        1.000        0.000        0.000        0.000        1.000        0.000        0.000        0.000        0.000        1.000        0.000        2.000        2.000        1.000        0.000        1.000        0.000        0.000        4.494        0.000       95.506        0.000        0.000        1.519        1.531        1.840
      50.000  -266876.328    28594.702    16375.547    33201.082      107.112  -396638.297    51483.527       25.832       25.707        3.013        3.018        3.094        3.210        3.175        2.989        2.680        2.472        2.593        2.641        2.565        2.501        2.921        3.027        3.024        2.995        0.493        1.000        1.000        0.000        2.000        3.000        0.000        1.000        1.000        1.000        0.000        0.000        0.000        0.000        0.000        1.000        0.000        0.000        0.000        0.000        0.000        0.000        0.000        0.000        0.000        0.000        0.000        0.000        1.000        0.000        0.000        4.000        1.000        0.000        0.000        0.000      100.000        0.000        0.000        1.336        1.348        1.792
      60.000  -266024.751    28350.728    16119.499    32989.830      134.010  -394225.284    50606.464       25.892       25.904        2.992        3.051        3.125        3.185        3.193        3.037        2.701        2.513        2.653        2.713        2.559        2.509        2.979        3.002        3.112        3.006        0.508        1.000        1.000        0.000        1.000        2.000        0.000        1.000        1.000        1.000        1.000        2.000        1.000        0.000        0.000        1.000        1.000        0.000        0.000        0.000        1.000        0.000        0.000        0.000        0.000        1.000        0.000        3.000        2.000        0.000        0.000        2.000        3.000        0.000        0.000        0.000      100.000        0.000        0.000        1.208        1.217        1.540
      70.000  -266406.947    29194.453    16486.557    32763.786      115.803  -396131.009    51163.464       25.967       25.969        2.958        3.152        3.122        3.238        3.208        2.999        2.689        2.425        2.614        2.648        2.539        2.504        3.056        2.986        3.083        2.968        0.489        0.000        0.000        1.000        1.000        3.000        0.000        1.000        1.000        0.000        0.000        0.000        0.000        0.000        0.000        1.000        1.000        0.000        0.000        0.000        0.000        0.000        0.000        0.000        0.000        0.000        0.000        1.000        2.000        0.000        0.000        3.000        0.000        0.000        0.000        0.000      100.000        0.000        0.000        1.385        1.392        1.653
      80.000  -266172.726    28501.225    16317.127    32912.563      154.312  -393489.806    49431.854       25.748       25.833        3.037        3.048        3.154        3.214        3.195        2.927        2.694        2.463        2.675        2.620        2.536        2.506        3.044        3.074        3.018        2.991        0.492        1.000        1.000        1.000        0.000        3.000        0.000        1.000        1.000        1.000        0.000        0.000        1.000        0.000        0.000        1.000        0.000        0.000        0.000        0.000        0.000        0.000        0.000        0.000        0.000        0.000        0.000        1.000        0.000        0.000        0.000        0.000        0.000        0.000        0.000        0.000      100.000        0.000        0.000        1.285        1.305        1.716
      90.000  -265914.447    28092.114    16303.613    32969.250      142.089  -393150.018    49728.506       25.823       25.893        3.012        3.032        3.186        3.207        3.148        2.984        2.665        2.471        2.620        2.648        2.573        2.485        3.134        3.043        3.008        3.049        0.505        0.000        1.000        0.000        0.000        3.000        0.000        1.000        1.000        0.000        0.000        0.000        0.000        0.000        0.000        1.000        1.000        0.000        0.000        0.000        0.000        0.000        0.000        0.000        0.000        0.000        0.000        3.000        1.000        0.000        0.000        1.000        2.000        0.000        0.000        0.000      100.000        0.000        0.000        1.675        1.675        1.969
     100.000  -264858.079    28308.132    15860.655    33118.625      115.197  -392482.301    50221.613       25.574       25.667        3.062        3.073        3.143        3.181        3.154        2.992        2.677        2.501        2.666        2.680        2.591        2.497        3.058        3.013        2.998        3.074        0.501        0.000        1.000        0.000        1.000        3.000        0.000        1.000        1.000        1.000        0.000        0.000        0.000        0.000        0.000        0.000        1.000        0.000        0.000        0.000        1.000        0.000        0.000        0.000        0.000        0.000        1.000        0.000        2.000        0.000        0.000        0.000        1.000        0.000        0.000        0.000      100.000        0.000        0.000        1.732        1.741        2.049
     110.000  -265723.991    27808.002    16226.150    32997.444      111.490  -392292.342    49425.266       25.730       25.694        3.004        3.109        3.127        3.223        3.169        3.005        2.672        2.488        2.643        2.681        2.588        2.479        3.051        3.087        3.004        3.060        0.491        1.000        1.000        0.000        0.000        2.000        0.000        1.000        1.000        1.000        0.000        0.000        1.000        0.000        0.000        0.000        1.000        0.000        0.000        0.000        0.000        0.000        0.000        0.000        0.000        0.000        1.000        3.000        1.000        1.000        0.000        0.000        1.000        0.000        0.000        0.000      100.000        0.000        0.000        1.603        1.586        1.883
     120.000  -264740.200    28404.678    16080.787    32841.193      139.214  -391642.668    49436.595       25.931       25.916        2.966        3.021        3.132        3.214        3.207        3.004        2.694        2.489        2.649        2.655        2.620        2.515        3.062        3.045        3.086        2.999        0.480        1.000        1.000        0.000        1.000        2.000        0.000        1.000        1.000        1.000        0.000        0.000        2.000        0.000        0.000        0.000        2.000        0.000        0.000        0.000        0.000        0.000        0.000        0.000        0.000        0.000        1.000        3.000        4.000        0.000        0.000        0.000        1.000        0.000        0.000        0.000      100.000        0.000        0.000        1.699        1.669        1.977
     130.000  -264651.832    27180.319    16104.992    33132.493      161.675  -390810.431    49579.121       25.737       25.604        2.931        3.014        3.106        3.177        3.174        2.937        2.724        2.477        2.615        2.672        2.583        2.473        3.049        2.996        3.056        3.023        0.493        1.000        0.000        0.000        1.000        3.000        0.000        1.000        1.000        0.000        0.000        0.000        0.000        0.000        0.000        0.000        1.000        0.000        0.000        0.000        1.000        0.000        0.000        0.000        0.000        2.000        0.000        0.000        2.000        0.000        0.000        2.000        1.000        0.000        0.000        0.000      100.000        0.000        0.000        2.092        2.092        2.369
     140.000  -263974.730    27606.149    16201.399    33083.278      136.482  -391781.291    50779.254       25.691       25.484        2.952        3.086        3.105        3.211        3.197        3.121        2.719        2.460        2.643        2.664        2.581        2.507        3.078        3.122        3.043        3.077        0.506        1.000        1.000        0.000        1.000        3.000        0.000        2.000        1.000        1.000        0.000        0.000        0.000        1.000        0.000        0.000        1.000        0.000        0.000        0.000        0.000        0.000        0.000        0.000        0.000        0.000        1.000        2.000        0.000        0.000        0.000        3.000        1.000        0.000        0.000        0.000      100.000        0.000        0.000        2.048        2.077        2.281
     150.000  -265013.311    27116.660    16043.446    33154.197      119.530  -391359.356    49912.210       25.770       25.578        2.954        3.054        3.123        3.223        3.130        2.977        2.676        2.464        2.666        2.718        2.550        2.524        3.097        3.066        2.983        2.943        0.493        0.000        1.000        1.000        1.000        3.000        0.000        1.000        1.000        0.000        0.000        0.000        1.000        0.000        0.000        1.000        1.000        0.000        0.000        0.000        0.000        0.000        0.000        0.000        0.000        0.000        1.000        1.000        4.000        0.000        0.000        1.000        2.000        0.000        0.000        0.000      100.000        0.000        0.000        2.214        2.226        2.455
     160.000  -263991.738    26711.054    16130.766    32937.224      115.872  -390481.229    50594.575       25.739       25.799        3.013        3.085        3.181        3.211        3.157        2.978        2.680        2.462        2.641        2.627        2.558        2.487        3.110        3.043        2.999        2.991        0.484        0.000        1.000        1.000        1.000        2.000        0.000        2.000        1.000        1.000        0.000        0.000        0.000        0.000        0.000        1.000        1.000        0.000        0.000        0.000        0.000        0.000        0.000        0.000        0.000        0.000        1.000        1.000        3.000        2.000        0.000        1.000        3.000        0.000        0.000        0.000      100.000        0.000        0.000        1.814        1.816        2.156
     170.000  -263589.111    27090.115    15915.348    33182.420      183.920  -389700.896    49739.981       25.585       25.338        2.914        3.129        3.132        3.166        3.199        2.921        2.674        2.451        2.667        2.617        2.578        2.494        3.088        3.060        2.977        3.033        0.449        0.000        1.000        1.000        1.000        3.000        0.000        2.000        1.000        1.000        0.000        1.000        1.000        0.000        0.000        1.000        1.000        0.000        0.000        0.000        0.000        0.000        0.000        0.000        0.000        1.000        1.000        0.000        2.000        1.000        0.000        1.000        2.000        0.000        0.000        0.000      100.000        0.000        0.000        2.113        2.110        2.438
     180.000  -263792.894    26820.384    15487.648    33079.248      124.588  -387979.156    48674.394       25.659       25.620        2.957        3.003        3.175        3.202        3.190        2.980        2.736        2.483        2.729        2.692        2.521        2.506        3.010        3.059        3.122        3.012        0.502        1.000        1.000        0.000        0.000        3.000        0.000        2.000        1.000        0.000        0.000        0.000        1.000        0.000        0.000        1.000        2.000        0.000        0.000        0.000        0.000        0.000        0.000        0.000        0.000        0.000        1.000        0.000        3.000        0.000        0.000        2.000        2.000        0.000        0.000        0.000      100.000        0.000        0.000        2.103        2.100        2.457
     190.000  -263545.070    26421.393    15906.732    32979.802      148.699  -388912.569    49910.873       25.621       25.553        3.002        3.109        3.201        3.167        3.188        2.966        2.708        2.454        2.681        2.688        2.540        2.553        3.069        3.053        3.144        2.987        0.477        1.000        0.000        1.000        0.000        3.000        0.000        2.000        1.000        0.000        0.000        0.000        0.000        0.000        0.000        0.000        3.000        0.000        0.000        0.000        0.000        0.000        0.000        0.000        0.000        1.000        0.000        2.000        5.000        1.000        0.000        0.000        1.000        0.000        4.494        0.000       95.506        0.000        0.000        2.019        2.008        2.367
     200.000  -262810.105    26644.001    15802.690    33034.795      127.106  -387072.419    48653.721       25.744       25.918        2.876        3.056        3.091        3.180        3.146        3.038        2.703        2.442        2.606        2.660        2.489        2.488        3.081        3.054        3.042        2.959        0.491        0.000        1.000        1.000        0.000        3.000        0.000        1.000        1.000        1.000        0.000        0.000        1.000        0.000        0.000        0.000        0.000        0.000        0.000        0.000        0.000        0.000        0.000        0.000        0.000        1.000        0.000        1.000        4.000        1.000        0.000        2.000        1.000        0.000        4.494        0.000       95.506        0.000        0.000        1.998        1.984        2.308
     210.000  -263195.649    27408.792    15814.922    33021.131      128.080  -387642.243    48073.669       25.575       25.658        2.986        3.009        3.127        3.175        3.104        3.104        2.712        2.467        2.644        2.638        2.580        2.488        3.095        2.985        3.062        2.946        0.484        1.000        0.000        1.000        0.000        3.000        0.000        1.000        1.000        1.000        0.000        0.000        2.000        0.000        0.000        1.000        1.000        0.000        0.000        0.000        0.000        0.000        0.000        0.000        0.000        0.000        0.000        0.000        1.000        1.000        0.000        0.000        1.000        0.000        0.000        0.000      100.000        0.000        0.000        2.100        2.094        2.366
     220.000  -262222.777    26081.375    15956.452    33275.793      149.239  -387348.296    49662.661       25.592       25.457        2.932        3.082        3.119        3.225        3.137        3.041        2.704        2.459        2.576        2.664        2.562        2.517        3.011        2.994        3.082        2.989        0.483        1.000        1.000        1.000        0.000        2.000        0.000        1.000        1.000        0.000        0.000        0.000        1.000        0.000        0.000        1.000        1.000        0.000        0.000        0.000        0.000        0.000        0.000        0.000        0.000        1.000        1.000        3.000        1.000        0.000        0.000        3.000        0.000        0.000        4.494        0.000       95.506        0.000        0.000        1.854        1.846        2.208
     230.000  -262987.300    28000.437    15673.228    32820.104      129.173  -386521.447    46911.205       25.692       25.768        2.945        3.088        3.160        3.211        3.141        3.147        2.706        2.478        2.636        2.740        2.582        2.540        3.067        3.029        3.040        3.054        0.493        1.000        1.000        0.000        0.000        3.000        0.000        2.000        1.000        1.000        0.000        0.000        0.000        0.000        0.000        0.000        3.000        0.000        0.000        0.000        0.000        0.000        0.000        0.000        0.000        0.000        0.000        0.000        4.000        0.000        0.000        2.000        2.000        0.000        4.494        0.000       95.506        0.000        0.000        1.854        1.843        2.193
     240.000  -262607.833    26718.110    15729.550    33082.789      118.362  -386766.293    48509.650       25.465       25.605        2.977        3.063        3.208        3.198        3.173        3.057        2.688        2.437        2.621        2.688        2.574        2.483        3.074        3.040        3.061        2.991        0.471        1.000        1.000        1.000        0.000        3.000        0.000        1.000        1.000        1.000        0.000        0.000        1.000        0.000        0.000        1.000        0.000        0.000        0.000        0.000        0.000        0.000        0.000        0.000        0.000        0.000        3.000        1.000        0.000        0.000        0.000        0.000        1.000        0.000        0.000        0.000      100.000        0.000        0.000        1.724        1.695        2.104
     250.000  -262562.859    27133.353    16175.735    33048.630      137.926  -387717.164    48658.661       25.685       25.392        2.970        2.993        3.116        3.255        3.212        3.044        2.697        2.444        2.620        2.721        2.552        2.509        3.054        3.066        2.972        2.999        0.488        0.000        1.000        0.000        1.000        2.000        0.000        1.000        1.000        0.000        0.000        0.000        0.000        0.000        0.000        0.000        1.000        0.000        0.000        0.000        1.000        0.000        0.000        0.000        0.000        0.000        0.000        1.000        1.000        0.000        0.000        0.000        2.000        0.000        4.494        0.000       95.506        0.000        0.000        1.826        1.808        2.249
     260.000  -262813.993    26582.128    15675.365    33039.579      133.641  -386943.608    48698.903       25.621       25.555        2.961        3.085        3.071        3.222        3.203        3.014        2.702        2.441        2.595        2.628        2.570        2.493        3.070        3.000        3.067        2.970        0.485        0.000        0.000        0.000        1.000        3.000        0.000        2.000        1.000        0.000        0.000        0.000        0.000        0.000        0.000        0.000        1.000        0.000        0.000        0.000        1.000        0.000        0.000        0.000        0.000        1.000        0.000        3.000        2.000        0.000        0.000        1.000        0.000        0.000        4.494        0.000       95.506        0.000        0.000        1.545        1.519        2.001
     270.000  -262855.849    27017.835    15810.186    33038.489      134.179  -387055.184    48198.646       25.702       25.561        2.909        3.088        3.039        3.244        3.180        3.181        2.688        2.493        2.635        2.706        2.601        2.489        3.041        3.019        3.051        2.944        0.494        1.000        1.000        1.000        0.000        3.000        0.000        2.000        1.000        1.000        0.000        0.000        0.000        1.000        0.000        1.000        2.000        0.000        0.000        0.000        0.000        0.000        0.000        0.000        0.000        0.000        1.000        3.000        1.000        0.000        0.000        2.000        4.000        0.000        0.000        0.000      100.000        0.000        0.000        2.011        2.029        2.320
     280.000  -262160.236    26913.772    16024.186    32885.329      131.004  -387235.650    49121.123       25.810       25.674        2.919        3.047        3.109        3.193        3.208        3.175        2.712        2.521        2.690        2.700        2.543        2.495        3.003        3.032        3.038        2.947        0.494        1.000        1.000        1.000        1.000        3.000        0.000        2.000        1.000        0.000        0.000        0.000        0.000        0.000        0.000        1.000        1.000        0.000        0.000        0.000        0.000        0.000        0.000        0.000        0.000        0.000        1.000        1.000        3.000        0.000        0.000        1.000        2.000        0.000        4.494        0.000       95.506        0.000        0.000        1.965        1.979        2.268
     290.000  -262466.356    26835.739    15677.330    32865.805      134.243  -386115.847    48136.374       25.447       25.354        2.953        2.987        3.154        3.200        3.256        3.214        2.635        2.491        2.701        2.661        2.645        2.505        3.053        3.017        3.013        3.033        0.494        1.000        1.000        1.000        1.000        3.000        0.000        2.000        1.000        0.000        0.000        0.000        0.000        0.000        0.000        1.000        1.000        0.000        0.000        0.000        1.000        0.000        0.000        0.000        0.000        0.000        0.000        0.000        1.000        0.000        0.000        1.000        2.000        0.000        0.000        0.000      100.000        0.000        0.000        2.155        2.148        2.411
     300.000  -262372.767    27200.798    15899.227    32940.242      140.598  -385822.600    47268.968       25.462       25.166        2.932        2.998        3.093        3.199        3.231        3.112        2.707        2.458        2.685        2.743        2.628        2.483        3.073        3.029        2.984        3.001        0.481        1.000        1.000        1.000        1.000        3.000        0.000        1.000        1.000        1.000        0.000        0.000        1.000        0.000        0.000        0.000        1.000        0.000        0.000        0.000        1.000        0.000        0.000        0.000        0.000        0.000        0.000        0.000        2.000        1.000        0.000        2.000        3.000        0.000        0.000        0.000      100.000        0.000        0.000        2.347        2.356        2.540
     310.000  -262208.847    25493.652    15768.590    32974.505      113.434  -386641.478    50082.450       25.360       25.380        2.917        2.993        3.046        3.204        3.185        2.998        2.674        2.485        2.649        2.702        2.605        2.446        3.118        3.022        3.047        2.943        0.467        1.000        0.000        0.000        1.000        3.000        0.000        1.000        1.000        0.000        0.000        0.000        1.000        0.000        0.000        1.000        2.000        0.000        0.000        0.000        1.000        0.000        0.000        0.000        0.000        0.000        2.000        3.000        1.000        0.000        0.000        1.000        0.000        0.000        0.000        0.000      100.000        0.000        0.000        2.358        2.399        2.581
     320.000  -262328.662    26682.691    15556.792    33064.092      156.754  -386465.897    48676.905       25.582       25.296        2.961        3.089        3.037        3.266        3.191        2.901        2.700        2.513        2.577        2.603        2.630        2.486        3.076        3.110        3.029        3.005        0.499        1.000        1.000        1.000        1.000        3.000        0.000        2.000        1.000        1.000        0.000        0.000        1.000        0.000        0.000        0.000        1.000        0.000        0.000        0.000        1.000        0.000        0.000        0.000        0.000        2.000        1.000        3.000        1.000        0.000        0.000        1.000        2.000        0.000        0.000        0.000      100.000        0.000        0.000        2.065        2.107        2.363
     330.000  -262510.231    26258.006    15498.624    32972.630      130.234  -385193.199    47823.474       25.630       25.556        2.861        3.102        3.121        3.291        3.177        3.071        2.676        2.455        2.590        2.632        2.586        2.512        3.056        3.042        3.049        2.949        0.488        1.000        0.000        0.000        1.000        3.000        0.000        2.000        1.000        1.000        0.000        0.000        0.000        0.000        0.000        1.000        1.000        0.000        0.000        0.000        0.000        0.000        0.000        0.000        0.000        0.000        3.000        1.000        0.000        0.000        0.000        1.000        2.000        0.000        0.000        0.000      100.000        0.000        0.000        2.226        2.259        2.470
     340.000  -262023.121    26715.996    15562.748    32842.133      143.053  -384745.707    47458.657       25.851       25.748        2.942        3.025        3.165        3.262        3.202        3.048        2.678        2.537        2.659        2.640        2.632        2.518        3.050        3.052        3.091        2.984        0.497        0.000        1.000        0.000        0.000        0.000        0.000        2.000        1.000        1.000        0.000        0.000        2.000        1.000        0.000        1.000        0.000        0.000        0.000        0.000        0.000        0.000        0.000        0.000        0.000        2.000        0.000        1.000        2.000        0.000        0.000        1.000        2.000        0.000        4.494        0.000       95.506        0.000        0.000        2.108        2.139        2.469
     350.000  -262341.432    26110.673    15485.057    33034.979      153.241  -384592.441    47467.059       25.870       25.695        2.972        3.103        3.152        3.242        3.177        2.958        2.682        2.508        2.631        2.666        2.619        2.541        3.101        3.015        3.199        3.002        0.489        1.000        1.000        0.000        0.000        3.000        0.000        2.000        1.000        0.000        1.000        0.000        2.000        0.000        0.000        0.000        1.000        0.000        0.000        0.000        0.000        0.000        0.000        0.000        0.000        0.000        0.000        0.000        2.000        0.000        0.000        2.000        1.000        0.000        0.000        0.000      100.000        0.000        0.000        2.251        2.250        2.638
     360.000  -262346.703    26577.944    15839.450    32987.717      133.658  -385188.385    47302.912       25.810       25.616        2.932        3.038        3.202        3.165        3.184        2.954        2.666        2.446        2.606        2.699        2.602        2.537        3.002        3.076        3.187        2.965        0.504        1.000        1.000        1.000        0.000        3.000        0.000        2.000        1.000        0.000        0.000        0.000        1.000        0.000        0.000        0.000        2.000        0.000        0.000        0.000        0.000        0.000        0.000        0.000        0.000        0.000        0.000        2.000        1.000        1.000        0.000        0.000        2.000        0.000        0.000        0.000      100.000        0.000        0.000        1.990        2.014        2.447
     370.000  -262349.356    25993.013    15734.219    33024.471      140.623  -384672.837    47431.155       25.769       25.618        2.960        3.009        3.213        3.253        3.228        3.042        2.705        2.480        2.699        2.697        2.625        2.475        3.010        3.048        3.189        2.978        0.471        1.000        1.000        1.000        0.000        3.000        0.000        1.000        2.000        1.000        0.000        0.000        0.000        0.000        0.000        1.000        0.000        0.000        0.000        0.000        0.000        0.000        0.000        0.000        0.000        0.000        0.000        1.000        1.000        0.000        0.000        1.000        0.000        0.000        0.000        0.000      100.000        0.000        0.000        1.742        1.779        2.199
     380.000  -261714.484    26431.040    15742.908    33160.406      129.453  -385326.967    48148.676       25.682       25.593        2.938        3.122        3.033        3.248        3.162        2.898        2.689        2.464        2.741        2.705        2.590        2.516        3.053        3.054        3.174        3.096        0.497        0.000        1.000        0.000        1.000        3.000        0.000        2.000        1.000        0.000        0.000        0.000        0.000        0.000        0.000        1.000        2.000        0.000        0.000        0.000        0.000        0.000        0.000        0.000        0.000        2.000        0.000        2.000        2.000        0.000        0.000        3.000        1.000        0.000        4.494        0.000       95.506        0.000        0.000        1.539        1.601        2.196
     390.000  -262254.153    26733.860    15546.478    32828.551      119.058  -384567.236    47085.136       25.974       25.735        3.025        3.079        3.187        3.211        3.139        3.020        2.676        2.474        2.684        2.692        2.643        2.499        3.101        3.052        3.173        3.039        0.486        1.000        0.000        1.000        1.000        3.000        0.000        1.000        2.000        0.000        0.000        0.000        1.000        0.000        0.000        2.000        2.000        0.000        0.000        0.000        0.000        0.000        0.000        0.000        0.000        1.000        0.000        1.000        1.000        0.000        0.000        2.000        1.000        0.000        0.000        0.000      100.000        0.000        0.000        1.525        1.566        2.227
     400.000  -261459.500    26337.709    15481.589    33102.691      134.559  -384267.666    47751.618       25.930       25.897        3.018        3.038        3.140        3.227        3.127        3.039        2.694        2.502        2.679        2.667        2.579        2.519        3.062        3.014        3.195        3.030        0.479        1.000        1.000        1.000        1.000        3.000        0.000        1.000        2.000        0.000        0.000        0.000        0.000        0.000        0.000        1.000        2.000        0.000        0.000        0.000        0.000        0.000        0.000        0.000        0.000        1.000        1.000        2.000        1.000        0.000        0.000        3.000        3.000        0.000        0.000        0.000      100.000        0.000        0.000        1.503        1.541        2.254
     410.000  -260916.877    26228.788    15443.616    32973.685      124.933  -383417.393    47729.493       25.827       25.954        2.960        3.154        3.078        3.225        3.221        3.050        2.639        2.474        2.665        2.648        2.581        2.502        3.026        3.069        3.196        3.067        0.471        1.000        0.000        0.000        1.000        3.000        0.000        1.000        1.000        0.000        0.000        0.000        0.000        0.000        0.000        1.000        2.000        0.000        0.000        0.000        0.000        0.000        0.000        0.000        0.000        0.000        1.000        0.000        3.000        0.000        0.000        0.000        3.000        0.000        0.000        0.000      100.000        0.000        0.000        1.541        1.600        2.323
     420.000  -261362.181    25686.668    15469.552    33312.852      149.062  -384370.411    48390.097       25.835       25.617        2.974        3.085        3.088        3.243        3.158        3.098        2.666        2.460        2.630        2.688        2.553        2.497        3.009        3.022        3.181        3.028        0.503        1.000        0.000        0.000        2.000        3.000        0.000        1.000        2.000        0.000        0.000        0.000        1.000        0.000        0.000        1.000        0.000        0.000        0.000        0.000        0.000        0.000        0.000        0.000        0.000        0.000        0.000        3.000        2.000        0.000        0.000        1.000        2.000        0.000        0.000        0.000      100.000        0.000        0.000        1.312        1.387        2.146
     430.000  -262357.915    26005.638    15845.570    32856.142      112.223  -385257.968    48080.480       25.882       25.699        3.002        3.200        3.111        3.244        3.168        3.145        2.656        2.472        2.734        2.619        2.601        2.518        2.999        3.072        3.183        3.069        0.483        1.000        0.000        1.000        1.000        3.000        0.000        1.000        2.000        0.000        0.000        2.000        1.000        0.000        0.000        0.000        0.000        0.000        0.000        0.000        0.000        0.000        0.000        0.000        0.000        0.000        0.000        0.000        6.000        1.000        0.000        1.000        2.000        0.000        0.000        0.000      100.000        0.000        0.000        1.423        1.501        2.153
     440.000  -262527.195    26231.106    15565.819    33066.111      155.071  -385728.547    48183.245       25.953       25.532        3.041        3.244        3.061        3.314        3.192        3.042        2.687        2.503        2.600        2.654        2.618        2.546        3.092        3.009        3.183        3.009        0.488        1.000        0.000        0.000        2.000        3.000        0.000        1.000        2.000        0.000        0.000        0.000        0.000        0.000        0.000        1.000        1.000        0.000        0.000        0.000        0.000        0.000        0.000        0.000        0.000        0.000        1.000        3.000        3.000        0.000        0.000        2.000        2.000        0.000        0.000        0.000      100.000        0.000        0.000        1.598        1.682        2.309
     450.000  -261174.176    25473.243    15501.223    33191.951      124.373  -383472.169    48007.202       25.781       25.479        2.986        3.081        3.085        3.153        3.183        3.037        2.668        2.449        2.644        2.692        2.655        2.511        3.015        3.040        3.165        2.942        0.488        0.000        0.000        0.000        2.000        3.000        0.000        2.000        1.000        0.000        0.000        0.000        0.000        0.000        0.000        1.000        0.000        0.000        0.000        0.000        1.000        0.000        0.000        0.000        0.000        0.000        0.000        3.000        1.000        0.000        0.000        1.000        3.000        0.000        0.000        0.000      100.000        0.000        0.000        1.826        1.894        2.326
     460.000  -261323.213    26831.431    15538.130    32982.281      145.904  -383812.095    46991.136       25.702       25.380        2.977        3.147        3.166        3.153        3.197        3.023        2.634        2.478        2.600        2.701        2.611        2.499        3.047        3.025        3.158        3.002        0.482        1.000        0.000        0.000        1.000        3.000        0.000        2.000        1.000        0.000        0.000        0.000        0.000        0.000        0.000        0.000        0.000        0.000        0.000        0.000        0.000        0.000        0.000        0.000        0.000        0.000        0.000        1.000        1.000        0.000        0.000        1.000        3.000        0.000        0.000        0.000      100.000        0.000        0.000        2.444        2.512        2.677
     470.000  -261501.791    26535.330    15101.010    33078.402      154.078  -382487.289    46116.678       26.143       25.584        2.944        3.104        3.145        3.165        3.171        3.003        2.678        2.500        2.624        2.626        2.635        2.474        3.019        3.032        3.212        3.070        0.478        1.000        0.000        0.000        1.000        3.000        0.000        2.000        1.000        1.000        0.000        2.000        0.000        0.000        0.000        0.000        0.000        0.000        0.000        0.000        0.000        0.000        0.000        0.000        0.000        0.000        0.000        3.000        2.000        0.000        0.000        1.000        3.000        0.000        0.000        0.000      100.000        0.000        0.000        2.231        2.334        2.455
     480.000  -261074.214    26143.350    15188.904    32997.365      139.980  -383485.064    47941.251       25.688       25.576        2.916        3.034        3.138        3.149        3.223        3.080        2.692        2.426        2.604        2.640        2.655        2.475        3.103        3.029        3.208        3.076        0.499        1.000        0.000        0.000        1.000        3.000        0.000        2.000        2.000        0.000        0.000        0.000        0.000        0.000        0.000        0.000        2.000        0.000        0.000        0.000        0.000        0.000        0.000        0.000        0.000        0.000        0.000        1.000        1.000        1.000        0.000        1.000        2.000        0.000        4.494        0.000       95.506        0.000        0.000        2.216        2.286        2.520
     490.000  -261584.945    25092.679    15459.187    33251.506      121.344  -383993.064    48483.404       25.909       25.608        2.912        3.058        3.114        3.117        3.189        3.038        2.683        2.495        2.611        2.713        2.626        2.459        3.080        3.049        3.192        3.059        0.493        1.000        0.000        0.000        1.000        3.000        0.000        1.000        2.000        0.000        0.000        0.000        0.000        0.000        0.000        1.000        1.000        0.000        0.000        0.000        0.000        0.000        0.000        0.000        0.000        0.000        0.000        3.000        1.000        0.000        0.000        2.000        1.000        0.000        0.000        0.000      100.000        0.000        0.000        2.521        2.584        2.777
     500.000  -261439.303    26043.966    15555.069    33147.496      127.774  -383498.779    47185.170       25.780       25.229        2.940        3.175        3.068        3.163        3.199        2.991        2.703        2.468        2.601        2.658        2.626        2.457        3.066        3.018        3.161        2.998        0.510        1.000        0.000        1.000        1.000        3.000        0.000        2.000        1.000        0.000        0.000        0.000        1.000        0.000        0.000        1.000        2.000        0.000        0.000        0.000        1.000        0.000        0.000        0.000        0.000        0.000        0.000        1.000        2.000        0.000        0.000        1.000        2.000        0.000        4.494        0.000       95.506        0.000        0.000        2.893        2.985        3.093
     510.000  -261288.739    24808.996    15994.973    33149.941      121.947  -384762.025    49397.429       25.800       25.292        2.915        3.099        3.142        3.106        3.154        2.976        2.677        2.472        2.616        2.712        2.609        2.486        3.066        3.005        3.274        2.910        0.484        1.000        0.000        1.000        1.000        3.000        0.000        2.000        2.000        0.000        0.000        0.000        0.000        0.000        0.000        2.000        0.000        0.000        0.000        0.000        0.000        0.000        0.000        0.000        0.000        0.000        0.000        2.000        0.000        0.000        0.000        3.000        1.000        0.000        4.494        0.000       95.506        0.000        0.000        3.004        3.071        3.214
     520.000  -261937.702    25395.822    15566.967    33012.944      137.544  -384924.358    48873.379       26.114       25.599        2.935        3.123        3.076        3.185        3.223        3.020        2.677        2.443        2.669        2.665        2.614        2.480        3.046        3.063        3.264        2.958        0.499        1.000        0.000        1.000        1.000        3.000        0.000        2.000        1.000        0.000        0.000        0.000        0.000        0.000        0.000        0.000        0.000        0.000        0.000        0.000        0.000        0.000        0.000        0.000        0.000        0.000        0.000        1.000        2.000        0.000        0.000        2.000        0.000        0.000        4.494        0.000       95.506        0.000        0.000        2.994        3.070        3.119
     530.000  -261979.050    25941.957    15611.335    32872.016      150.297  -383974.721    47420.065       25.998       25.606        3.000        3.131        3.078        3.165        3.237        3.011        2.690        2.464        2.730        2.643        2.622        2.531        3.056        3.060        3.271        3.047        0.506        1.000        0.000        0.000        1.000        2.000        0.000        1.000        2.000        1.000        0.000        0.000        0.000        0.000        0.000        1.000        1.000        0.000        0.000        0.000        0.000        0.000        0.000        0.000        0.000        0.000        0.000        0.000        1.000        0.000        0.000        2.000        0.000        0.000        4.494        0.000       95.506        0.000        0.000        2.923        2.989        3.081
     540.000  -262160.664    25398.000    15556.051    33017.713      119.955  -385904.546    49652.163       25.978       25.525        3.000        3.080        3.169        3.203        3.230        3.045        2.704        2.450        2.641        2.612        2.614        2.483        3.120        3.063        3.231        3.006        0.493        1.000        0.000        1.000        1.000        3.000        0.000        1.000        2.000        0.000        0.000        1.000        0.000        0.000        0.000        1.000        1.000        0.000        0.000        0.000        0.000        0.000        0.000        0.000        0.000        0.000        0.000        1.000        3.000        0.000        0.000        0.000        0.000        0.000        4.494        0.000       95.506        0.000        0.000        2.966        3.043        3.184
     550.000  -261649.820    24953.060    15420.144    33122.392      160.830  -384365.212    49058.967       25.899       25.332        2.961        3.066        3.079        3.216        3.266        3.061        2.678        2.468        2.632        2.629        2.587        2.431        3.029        3.046        3.256        2.904        0.479        1.000        0.000        1.000        1.000        2.000        0.000        1.000        2.000        0.000        0.000        0.000        0.000        0.000        0.000        1.000        1.000        0.000        0.000        0.000        0.000        0.000        0.000        0.000        0.000        1.000        1.000        2.000        1.000        0.000        0.000        0.000        1.000        0.000        0.000        0.000      100.000        0.000        0.000        2.830        2.921        3.051
     560.000  -262438.172    26149.682    15786.304    32935.141      157.388  -385401.627    47934.939       25.997       25.607        2.971        2.985        3.134        3.242        3.163        2.985        2.703        2.478        2.611        2.647        2.637        2.477        3.051        3.068        3.263        2.958        0.460        1.000        0.000        1.000        1.000        3.000        0.000        1.000        2.000        0.000        0.000        0.000        1.000        0.000        0.000        0.000        0.000        0.000        0.000        0.000        0.000        0.000        0.000        0.000        0.000        1.000        0.000        2.000        0.000        1.000        0.000        4.000        2.000        0.000        0.000        0.000      100.000        0.000        0.000        2.408        2.464        2.804
     570.000  -261735.193    25490.624    15372.790    33095.295      131.251  -383139.985    47314.831       26.002       25.803        3.021        3.043        3.125        3.226        3.224        3.079        2.696        2.470        2.629        2.639        2.637        2.502        3.137        2.996        3.240        2.908        0.499        1.000        0.000        1.000        1.000        3.000        0.000        0.000        2.000        0.000        0.000        0.000        0.000        0.000        0.000        2.000        1.000        0.000        0.000        0.000        0.000        0.000        0.000        0.000        0.000        0.000        0.000        2.000        0.000        1.000        0.000        0.000        2.000        0.000        0.000        0.000      100.000        0.000        0.000        2.511        2.591        2.939
     580.000  -261598.017    25444.693    15637.016    33109.939      127.700  -383486.412    47569.047       25.840       25.652        2.999        3.073        3.051        3.165        3.172        3.025        2.660        2.479        2.642        2.646        2.590        2.519        3.046        3.025        3.212        2.911        0.493        1.000        0.000        1.000        0.000        3.000        0.000        1.000        1.000        0.000        0.000        0.000        0.000        0.000        0.000        1.000        1.000        0.000        0.000        0.000        0.000        0.000        0.000        0.000        0.000        0.000        0.000        3.000        1.000        0.000        0.000        1.000        3.000        0.000        4.494        0.000       95.506        0.000        0.000        2.607        2.681        3.154
     590.000  -260466.240    26213.031    15751.934    33193.008      113.759  -382516.730    46778.757       25.937       25.712        2.872        3.010        3.159        3.144        3.178        3.078        2.643        2.503        2.614        2.646        2.633        2.467        3.055        3.018        3.215        2.912        0.491        1.000        0.000        0.000        0.000        3.000        0.000        1.000        1.000        0.000        0.000        0.000        1.000        0.000        0.000        0.000        0.000        0.000        0.000        0.000        0.000        0.000        0.000        0.000        0.000        0.000        1.000        1.000        0.000        1.000        0.000        2.000        0.000        0.000        4.494        0.000       95.506        0.000        0.000        2.814        2.891        3.210
     600.000  -261942.719    25384.263    15433.160    33276.708      133.939  -385100.813    48930.024       25.877       25.638        2.946        2.987        3.124        3.190        3.198        2.990        2.691        2.480        2.638        2.678        2.646        2.518        2.981        3.024        3.267        2.967        0.522        1.000        0.000        0.000        0.000        3.000        0.000        0.000        2.000        0.000        0.000        0.000        0.000        1.000        0.000        1.000        0.000        0.000        0.000        0.000        0.000        0.000        0.000        0.000        0.000        0.000        0.000        2.000        1.000        1.000        0.000        1.000        4.000        0.000        0.000        0.000      100.000        0.000        0.000        2.244        2.334        2.786
     610.000  -260919.035    26508.842    15359.397    33064.541      128.761  -382818.245    46837.669       25.966       25.518        2.976        2.970        3.182        3.192        3.165        3.112        2.682        2.449        2.637        2.707        2.580        2.487        3.068        3.021        3.228        2.991        0.487        1.000        0.000        1.000        0.000        3.000        0.000        0.000        2.000        1.000        0.000        0.000        0.000        0.000        0.000        0.000        0.000        0.000        0.000        0.000        0.000        0.000        0.000        0.000        0.000        0.000        2.000        4.000        0.000        1.000        0.000        2.000        3.000        0.000        4.494        0.000       95.506        0.000        0.000        2.857        2.952        3.275
     620.000  -261327.875    25701.367    15521.086    33401.726      166.411  -384062.508    47944.043       25.633       25.368        2.942        3.111        3.156        3.207        3.267        3.067        2.680        2.461        2.632        2.691        2.585        2.527        3.045        2.958        3.237        2.979        0.504        0.000        0.000        0.000        0.000        3.000        0.000        0.000        2.000        0.000        0.000        0.000        0.000        0.000        0.000        3.000        0.000        0.000        0.000        0.000        0.000        0.000        0.000        0.000        0.000        0.000        0.000        1.000        2.000        0.000        0.000        1.000        4.000        0.000        0.000        0.000      100.000        0.000        0.000        2.806        2.865        3.271
     630.000  -261262.946    25550.091    15703.702    33048.801      145.531  -384354.320    48643.250       25.954       25.714        2.944        3.106        3.116        3.137        3.243        3.005        2.702        2.522        2.593        2.695        2.630        2.493        3.062        2.985        3.163        3.002        0.499        0.000        0.000        1.000        0.000        3.000        0.000        1.000        1.000        0.000        0.000        0.000        0.000        0.000        0.000        1.000        0.000        0.000        0.000        0.000        0.000        0.000        0.000        0.000        0.000        0.000        0.000        2.000        0.000        0.000        0.000        1.000        0.000        0.000        4.494        0.000       95.506        0.000        0.000        2.423        2.496        2.906
     640.000  -260781.897    25680.942    15784.363    33043.616      135.655  -383169.258    47742.786       25.961       25.737        2.970        3.029        3.154        3.278        3.255        3.036        2.719        2.483        2.691        2.660        2.541        2.520        3.096        3.053        3.189        2.974        0.501        1.000        0.000        1.000        0.000        3.000        0.000        1.000        1.000        0.000        0.000        0.000        0.000        0.000        0.000        1.000        2.000        0.000        0.000        0.000        0.000        0.000        0.000        0.000        0.000        0.000        1.000        3.000        0.000        0.000        0.000        0.000        2.000        0.000        4.494        0.000       95.506        0.000        0.000        2.519        2.619        3.115
     650.000  -260957.414    25757.191    15656.613    32996.719      151.402  -383094.856    47575.517       26.037       25.571        3.003        3.121        3.118        3.225        3.209        3.031        2.679        2.435        2.614        2.699        2.632        2.474        3.068        3.089        3.211        2.919        0.485        1.000        0.000        0.000        0.000        3.000        0.000        1.000        1.000        0.000        0.000        0.000        0.000        0.000        0.000        1.000        2.000        0.000        0.000        0.000        0.000        0.000        0.000        0.000        0.000        0.000        0.000        4.000        0.000        0.000        0.000        1.000        1.000        0.000        4.494        0.000       95.506        0.000        0.000        2.448        2.523        3.043
     660.000  -261208.836    26661.646    15476.218    33279.845      140.084  -383290.250    46523.622       25.812       25.550        3.001        3.029        3.063        3.244        3.222        3.037        2.659        2.501        2.599        2.707        2.614        2.495        3.063        2.967        3.159        2.920        0.475        1.000        0.000        1.000        0.000        3.000        0.000        1.000        2.000        0.000        0.000        0.000        0.000        0.000        0.000        1.000        2.000        0.000        0.000        0.000        0.000        0.000        0.000        0.000        0.000        0.000        0.000        3.000        0.000        0.000        0.000        1.000        4.000        0.000        4.494        0.000       95.506        0.000        0.000        2.295        2.361        3.030
     670.000  -261123.303    26528.144    15155.907    33291.390      143.346  -382743.223    46501.134       25.789       25.558        2.929        3.073        3.053        3.258        3.268        2.985        2.675        2.498        2.578        2.692        2.582        2.463        3.165        3.014        3.120        2.934        0.496        1.000        0.000        0.000        0.000        3.000        0.000        0.000        2.000        0.000        0.000        0.000        1.000        0.000        0.000        2.000        1.000        0.000        0.000        0.000        0.000        0.000        0.000        0.000        0.000        1.000        0.000        3.000        0.000        0.000        0.000        1.000        2.000        0.000        8.989        0.000       91.011        0.000        0.000        2.592        2.663        3.311
     680.000  -260981.725    25677.561    15345.893    33056.169      174.640  -383509.140    48273.152       25.817       25.645        2.921        3.153        3.083        3.185        3.278        3.114        2.665        2.519        2.596        2.705        2.610        2.492        3.078        2.981        3.227        2.947        0.474        1.000        0.000        0.000        0.000        3.000        0.000        1.000        1.000        0.000        0.000        0.000        0.000        0.000        0.000        1.000        2.000        0.000        0.000        0.000        0.000        0.000        0.000        0.000        0.000        1.000        0.000        3.000        1.000        0.000        0.000        1.000        4.000        0.000        4.494        0.000       95.506        0.000        0.000        2.499        2.555        3.286
     690.000  -261639.080    25839.876    15644.410    33034.438      138.877  -383649.978    47353.298       25.954       25.684        2.967        3.095        3.029        3.203        3.222        3.059        2.678        2.484        2.615        2.745        2.621        2.480        3.118        3.060        3.160        2.983        0.500        1.000        0.000        0.000        0.000        2.000        0.000        0.000        2.000        0.000        0.000        0.000        1.000        0.000        0.000        1.000        1.000        0.000        0.000        0.000        0.000        0.000        0.000        0.000        0.000        2.000        1.000        1.000        1.000        0.000        0.000        2.000        3.000        0.000        4.494        0.000       95.506        0.000        0.000        1.932        2.017        2.935
     700.000  -260961.502    26892.697    15430.665    32922.169      141.003  -383350.410    47002.374       25.937       25.586        2.952        3.091        3.135        3.182        3.262        3.056        2.663        2.464        2.635        2.702        2.604        2.539        3.074        2.994        3.211        2.924        0.508        0.000        0.000        0.000        0.000        3.000        0.000        1.000        2.000        0.000        0.000        1.000        0.000        0.000        0.000        0.000        1.000        0.000        0.000        0.000        0.000        0.000        0.000        0.000        0.000        0.000        0.000        5.000        0.000        1.000        0.000        3.000        4.000        0.000        0.000        0.000      100.000        0.000        0.000        1.586        1.671        2.890
     710.000  -261159.127    26031.522    15691.809    33097.504      141.878  -384645.402    48523.561       26.067       25.848        2.949        3.133        3.105        3.190        3.240        3.020        2.656        2.536        2.615        2.731        2.651        2.489        3.123        2.947        3.163        2.936        0.486        1.000        0.000        1.000        0.000        3.000        0.000        0.000        1.000        0.000        0.000        0.000        0.000        0.000        0.000        1.000        1.000        0.000        0.000        0.000        0.000        0.000        0.000        0.000        0.000        0.000        1.000        3.000        0.000        0.000        0.000        0.000        3.000        0.000        0.000        0.000      100.000        0.000        0.000        1.672        1.740        2.738
     720.000  -260842.035    26123.260    15698.436    32990.421      114.121  -382684.082    46915.809       26.014       25.754        2.967        3.108        3.146        3.177        3.216        3.019        2.663        2.515        2.611        2.684        2.578        2.478        3.045        3.025        3.300        2.879        0.496        0.000        0.000        1.000        0.000        3.000        0.000        0.000        2.000        1.000        0.000        0.000        0.000        0.000        0.000        1.000        1.000        0.000        0.000        0.000        0.000        0.000        0.000        0.000        0.000        0.000        0.000        5.000        1.000        0.000        0.000        1.000        2.000        0.000        4.494        0.000       95.506        0.000        0.000        1.703        1.788        2.578
     730.000  -261159.030    26164.700    15266.121    33092.116      119.651  -382984.001    47182.383       25.964       25.910        2.980        3.127        3.026        3.145        3.235        3.070        2.688        2.510        2.633        2.680        2.617        2.499        3.059        3.057        3.192        2.872        0.502        1.000        0.000        1.000        0.000        3.000        0.000        0.000        1.000        0.000        0.000        0.000        0.000        0.000        0.000        1.000        1.000        0.000        0.000        0.000        0.000        0.000        0.000        0.000        0.000        0.000        0.000        0.000        1.000        0.000        0.000        2.000        2.000        0.000        0.000        0.000      100.000        0.000        0.000        1.851        1.926        2.709
     740.000  -261297.120    25535.115    15581.611    33028.385      125.343  -383048.199    47480.625       26.008       25.989        2.985        3.079        3.068        3.149        3.236        3.080        2.680        2.518        2.657        2.683        2.614        2.447        3.106        2.958        3.279        2.953        0.464        1.000        0.000        1.000        0.000        3.000        0.000        1.000        1.000        0.000        0.000        0.000        0.000        0.000        0.000        1.000        2.000        0.000        0.000        0.000        0.000        0.000        0.000        0.000        0.000        1.000        2.000        1.000        1.000        1.000        0.000        3.000        3.000        0.000        4.494        0.000       95.506        0.000        0.000        1.910        1.938        2.609
     750.000  -261359.618    25165.591    15609.836    33158.159      138.593  -384048.200    48616.404       26.082       25.955        2.910        3.061        3.096        3.207        3.185        2.970        2.701        2.509        2.613        2.676        2.559        2.480        3.102        2.991        3.164        2.942        0.482        0.000        0.000        1.000        0.000        3.000        0.000        1.000        2.000        1.000        0.000        0.000        0.000        0.000        0.000        0.000        1.000        0.000        0.000        0.000        0.000        0.000        0.000        0.000        0.000        0.000        0.000        0.000        1.000        0.000        0.000        1.000        4.000        0.000        0.000        0.000      100.000        0.000        0.000        1.974        2.025        2.518
     760.000  -261749.096    25564.523    15405.607    33104.525      135.837  -384154.581    48194.994       26.083       26.017        2.936        3.042        3.172        3.233        3.282        3.098        2.638        2.486        2.609        2.687        2.571        2.499        3.042        3.006        3.119        2.990        0.477        1.000        0.000        0.000        0.000        2.000        0.000        1.000        1.000        1.000        0.000        0.000        0.000        0.000        0.000        1.000        2.000        0.000        0.000        0.000        0.000        0.000        0.000        0.000        0.000        1.000        0.000        1.000        3.000        0.000        0.000        2.000        6.000        0.000        4.494        0.000       95.506        0.000        0.000        1.980        2.026        2.587
     770.000  -261350.470    26194.331    15497.968    33148.920      139.426  -384734.949    48403.834       26.031       25.736        2.930        3.076        3.098        3.138        3.218        3.138        2.672        2.492        2.645        2.635        2.603        2.469        3.049        3.031        3.141        2.937        0.503        1.000        0.000        1.000        0.000        3.000        0.000        1.000        1.000        0.000        0.000        0.000        0.000        0.000        0.000        0.000        2.000        0.000        0.000        0.000        0.000        0.000        0.000        0.000        0.000        0.000        1.000        1.000        0.000        1.000        0.000        0.000        5.000        0.000        0.000        0.000      100.000        0.000        0.000        1.683        1.772        2.597
     780.000  -261836.868    25719.626    15736.016    33171.523      148.348  -383958.984    47346.602       26.133       26.004        2.969        3.091        3.043        3.130        3.241        3.052        2.679        2.556        2.613        2.680        2.581        2.495        3.101        2.973        3.156        3.016        0.504        1.000        0.000        1.000        0.000        3.000        0.000        1.000        1.000        0.000        0.000        0.000        0.000        0.000        0.000        0.000        1.000        0.000        0.000        0.000        0.000        0.000        0.000        0.000        0.000        1.000        2.000        2.000        0.000        0.000        0.000        0.000        2.000        0.000        0.000        0.000      100.000        0.000        0.000        2.068        2.156        2.825
     790.000  -261458.781    26593.171    15474.121    32851.917      161.023  -384067.794    47528.780       26.115       25.967        2.854        3.158        3.120        3.263        3.256        3.091        2.693        2.474        2.611        2.733        2.592        2.516        3.071        3.075        3.179        3.016        0.480        1.000        0.000        1.000        0.000        3.000        0.000        1.000        1.000        1.000        0.000        0.000        0.000        0.000        0.000        1.000        0.000        0.000        0.000        0.000        0.000        0.000        0.000        0.000        0.000        1.000        1.000        2.000        0.000        0.000        0.000        0.000        1.000        0.000        0.000        0.000      100.000        0.000        0.000        2.362        2.439        2.963
     800.000  -260794.990    25559.672    15691.077    33190.888      157.384  -383050.813    47656.802       26.201       25.969        2.944        3.148        3.103        3.168        3.217        3.089        2.678        2.442        2.634        2.663        2.588        2.492        3.123        2.968        3.217        2.914        0.479        1.000        0.000        0.000        0.000        3.000        0.000        0.000        1.000        0.000        0.000        0.000        0.000        0.000        0.000        2.000        0.000        0.000        0.000        0.000        0.000        0.000        0.000        0.000        0.000        0.000        0.000        4.000        0.000        1.000        0.000        2.000        1.000        0.000        0.000        0.000      100.000        0.000        0.000        2.173        2.269        2.897
     810.000  -260594.498    25595.246    15832.438    33291.498      147.449  -383185.573    47724.444       26.055       25.749        2.951        3.115        3.006        3.114        3.195        3.033        2.655        2.490        2.617        2.693        2.577        2.477        3.115        3.041        3.162        2.857        0.488        1.000        0.000        1.000        0.000        3.000        0.000        0.000        1.000        0.000        0.000        0.000        0.000        0.000        0.000        0.000        1.000        0.000        0.000        0.000        0.000        0.000        0.000        0.000        0.000        0.000        0.000        0.000        0.000        1.000        0.000        0.000        2.000        0.000        0.000        0.000      100.000        0.000        0.000        2.051        2.116        2.801
     820.000  -261225.112    24872.020    15211.704    33257.697      118.520  -384168.784    49483.732       26.202       25.785        2.948        3.087        3.124        3.188        3.228        3.048        2.700        2.464        2.647        2.696        2.607        2.487        3.047        3.039        3.186        3.036        0.474        1.000        0.000        1.000        0.000        3.000        0.000        1.000        1.000        1.000        0.000        0.000        0.000        0.000        0.000        0.000        1.000        0.000        0.000        0.000        0.000        0.000        0.000        0.000        0.000        0.000        0.000        2.000        0.000        1.000        0.000        1.000        0.000        0.000        0.000        0.000      100.000        0.000        0.000        1.967        2.052        2.858
     830.000  -261731.905    26320.223    15294.408    33023.394      128.551  -382811.005    46312.524       25.925       25.989        2.929        3.044        3.153        3.238        3.154        3.045        2.700        2.442        2.637        2.694        2.593        2.480        3.041        3.051        3.166        2.955        0.508        0.000        0.000        1.000        0.000        3.000        0.000        0.000        2.000        0.000        0.000        0.000        0.000        0.000        0.000        0.000        1.000        0.000        0.000        0.000        0.000        0.000        0.000        0.000        0.000        1.000        0.000        4.000        1.000        1.000        0.000        2.000        3.000        0.000        0.000        0.000      100.000        0.000        0.000        2.258        2.344        3.095
     840.000  -262041.058    25403.643    15584.610    33091.644      148.209  -383787.068    47517.905       25.743       25.632        2.958        3.061        3.190        3.199        3.177        3.141        2.669        2.476        2.658        2.701        2.582        2.480        3.038        2.986        3.243        2.942        0.498        1.000        0.000        1.000        0.000        3.000        0.000        1.000        1.000        0.000        0.000        0.000        0.000        0.000        0.000        2.000        2.000        0.000        0.000        0.000        0.000        0.000        0.000        0.000        0.000        1.000        0.000        4.000        1.000        0.000        0.000        1.000        3.000        0.000        0.000        0.000      100.000        0.000        0.000        1.807        1.884        2.737
     850.000  -261607.882    25871.634    15437.148    32756.529      106.818  -382722.512    46942.501       25.631       25.806        2.963        3.109        3.070        3.182        3.222        3.044        2.693        2.457        2.627        2.677        2.578        2.459        3.110        3.043        3.270        2.945        0.467        1.000        0.000        1.000        0.000        3.000        0.000        1.000        1.000        0.000        0.000        1.000        0.000        0.000        0.000        1.000        1.000        0.000        0.000        0.000        0.000        0.000        0.000        0.000        0.000        1.000        0.000        1.000        1.000        1.000        0.000        2.000        2.000        0.000        0.000        0.000      100.000        0.000        0.000        2.398        2.441        3.108
     860.000  -261676.645    26044.553    15728.623    33051.433      131.629  -384183.826    47550.944       25.729       25.780        2.873        3.188        3.056        3.193        3.169        3.015        2.672        2.464        2.602        2.595        2.551        2.552        3.096        2.920        3.272        3.012        0.477        0.000        0.000        2.000        0.000        2.000        0.000        1.000        1.000        0.000        0.000        0.000        0.000        1.000        0.000        1.000        2.000        0.000        0.000        0.000        0.000        0.000        0.000        0.000        0.000        0.000        0.000        3.000        0.000        0.000        0.000        2.000        5.000        0.000        0.000        0.000      100.000        0.000        0.000        2.174        2.235        3.035
     870.000  -261430.668    26609.334    15560.988    32902.580      143.552  -383474.920    46827.799       26.028       25.935        2.893        3.189        3.124        3.172        3.231        3.025        2.657        2.484        2.704        2.708        2.599        2.500        3.078        2.973        3.246        2.928        0.465        0.000        0.000        2.000        0.000        3.000        0.000        1.000        2.000        0.000        0.000        0.000        0.000        0.000        0.000        0.000        1.000        0.000        0.000        0.000        0.000        0.000        0.000        0.000        0.000        0.000        0.000        3.000        1.000        1.000        0.000        2.000        4.000        0.000        0.000        0.000      100.000        0.000        0.000        2.097        2.179        2.980
     880.000  -261539.268    25897.414    15607.736    33163.201      149.651  -384484.749    48127.480       25.773       25.468        3.014        3.173        3.085        3.213        3.239        2.998        2.674        2.495        2.650        2.710        2.606        2.492        3.106        2.901        3.266        2.873        0.472        1.000        0.000        2.000        0.000        3.000        0.000        0.000        2.000        0.000        0.000        0.000        0.000        0.000        0.000        1.000        1.000        0.000        0.000        0.000        0.000        0.000        0.000        0.000        0.000        0.000        0.000        4.000        3.000        1.000        0.000        3.000        4.000        0.000        0.000        0.000      100.000        0.000        0.000        2.274        2.340        2.933
     890.000  -261305.718    25034.289    15706.177    33131.210      124.810  -384667.202    49364.998       25.838       25.597        2.935        3.000        3.130        3.170        3.236        3.037        2.741        2.494        2.617        2.679        2.617        2.476        3.123        2.956        3.186        2.973        0.483        1.000        0.000        2.000        0.000        3.000        0.000        0.000        2.000        0.000        0.000        0.000        1.000        0.000        0.000        2.000        2.000        0.000        0.000        0.000        0.000        0.000        0.000        0.000        0.000        0.000        0.000        3.000        1.000        0.000        0.000        1.000        3.000        0.000        0.000        0.000      100.000        0.000        0.000        2.773        2.856        3.373
     900.000  -261586.804    25023.676    14771.735    33122.928      117.372  -383844.884    49222.370       25.391       25.203        2.896        3.087        3.127        3.201        3.179        3.039        2.682        2.479        2.675        2.713        2.585        2.543        3.048        2.947        3.173        2.974        0.459        1.000        0.000        1.000        0.000        3.000        0.000        1.000        2.000        0.000        0.000        0.000        0.000        0.000        0.000        1.000        2.000        0.000        0.000        0.000        0.000        0.000        0.000        0.000        0.000        0.000        0.000        2.000        0.000        0.000        0.000        2.000        1.000        0.000        0.000        0.000      100.000        0.000        0.000        2.949        3.063        3.401
     910.000  -262122.957    24849.125    15310.129    33246.331      139.363  -384305.876    48637.971       25.617       25.548        2.942        3.075        3.136        3.233        3.202        3.009        2.683        2.495        2.609        2.710        2.578        2.479        3.065        2.981        3.160        2.994        0.503        1.000        0.000        2.000        0.000        3.000        0.000        0.000        1.000        0.000        0.000        0.000        0.000        0.000        0.000        2.000        1.000        0.000        0.000        0.000        0.000        0.000        0.000        0.000        0.000        0.000        0.000        0.000        0.000        0.000        0.000        0.000        6.000        0.000        0.000        0.000      100.000        0.000        0.000        2.843        2.941        3.263
     920.000  -261860.712    25571.587    15484.637    33056.532      124.419  -383486.476    47388.590       25.749       25.677        2.894        3.101        3.162        3.192        3.224        2.962        2.734        2.475        2.640        2.715        2.594        2.511        3.056        2.923        3.156        2.915        0.504        0.000        0.000        1.000        0.000        3.000        0.000        1.000        1.000        0.000        0.000        0.000        0.000        0.000        0.000        0.000        1.000        0.000        0.000        0.000        0.000        0.000        0.000        0.000        0.000        0.000        1.000        0.000        1.000        0.000        0.000        1.000        2.000        0.000        0.000        0.000      100.000        0.000        0.000        2.481        2.574        2.897
     930.000  -261126.837    26161.411    15601.063    33127.420      151.369  -382874.759    46706.658       25.672       25.660        2.916        3.010        3.125        3.239        3.158        2.980        2.706        2.445        2.609        2.711        2.602        2.508        3.080        2.966        3.187        2.887        0.474        1.000        0.000        1.000        0.000        2.000        0.000        1.000        2.000        0.000        0.000        1.000        0.000        0.000        0.000        1.000        0.000        0.000        0.000        0.000        0.000        0.000        0.000        0.000        0.000        0.000        0.000        1.000        0.000        1.000        0.000        0.000        6.000        0.000        0.000        0.000      100.000        0.000        0.000        2.208        2.258        2.635
     940.000  -261440.845    26894.588    15533.133    33119.908      144.707  -383332.842    46199.660       25.969       26.005        2.943        3.042        3.122        3.197        3.187        3.048        2.684        2.455        2.596        2.739        2.554        2.507        3.066        2.937        3.232        2.905        0.478        1.000        0.000        1.000        0.000        3.000        0.000        0.000        1.000        0.000        0.000        0.000        0.000        0.000        0.000        1.000        1.000        0.000        0.000        0.000        0.000        0.000        0.000        0.000        0.000        0.000        0.000        2.000        0.000        0.000        0.000        2.000        4.000        0.000        4.494        0.000       95.506        0.000        0.000        2.189        2.259        2.667
     950.000  -261645.100    26034.414    15523.436    32916.111      120.321  -382999.991    46760.609       26.169       25.981        2.948        3.059        3.093        3.207        3.195        3.028        2.694        2.476        2.625        2.687        2.571        2.473        3.119        3.002        3.216        3.012        0.473        1.000        0.000        2.000        0.000        3.000        0.000        0.000        1.000        1.000        0.000        1.000        0.000        0.000        0.000        1.000        1.000        0.000        0.000        0.000        0.000        0.000        0.000        0.000        0.000        0.000        0.000        2.000        0.000        1.000        0.000        0.000        1.000        0.000        0.000        0.000      100.000        0.000        0.000        1.870        1.907        2.611
     960.000  -261874.815    25022.825    15203.156    33252.843      140.445  -385084.716    49590.632       25.539       25.581        2.953        3.100        3.119        3.199        3.168        3.023        2.689        2.471        2.663        2.701        2.604        2.522        3.031        2.897        3.215        2.940        0.492        1.000        0.000        1.000        0.000        3.000        0.000        0.000        1.000        0.000        0.000        0.000        0.000        0.000        0.000        1.000        3.000        0.000        0.000        0.000        0.000        0.000        0.000        0.000        0.000        0.000        0.000        4.000        0.000        0.000        0.000        3.000        2.000        0.000        0.000        0.000      100.000        0.000        0.000        1.728        1.787        2.469
     970.000  -262295.820    26921.201    15459.120    33169.106      146.719  -385658.443    47666.477       25.842       25.629        2.936        3.022        3.087        3.167        3.222        3.033        2.682        2.498        2.646        2.657        2.553        2.503        3.043        2.960        3.162        3.010        0.497        1.000        0.000        2.000        0.000        3.000        0.000        0.000        2.000        1.000        0.000        0.000        0.000        0.000        0.000        1.000        0.000        0.000        0.000        0.000        0.000        0.000        0.000        0.000        0.000        0.000        1.000        3.000        0.000        0.000        0.000        1.000        1.000        0.000        0.000        0.000      100.000        0.000        0.000        2.154        2.213        2.727
     980.000  -261958.863    25230.111    15217.444    33378.383      150.350  -384415.166    48480.014       25.726       25.418        2.996        3.024        3.108        3.176        3.142        3.022        2.668        2.438        2.626        2.691        2.553        2.531        3.023        2.961        3.184        2.923        0.494        1.000        0.000        1.000        0.000        3.000        0.000        0.000        2.000        0.000        0.000        0.000        1.000        0.000        0.000        1.000        0.000        0.000        0.000        0.000        0.000        0.000        0.000        0.000        0.000        0.000        1.000        4.000        1.000        1.000        0.000        2.000        4.000        0.000        4.494        0.000       95.506        0.000        0.000        1.691        1.751        2.467
     990.000  -261921.185    27203.690    15648.678    33128.545      121.104  -385472.816    47449.613       25.987       26.004        3.006        2.992        3.186        3.244        3.211        2.964        2.694        2.427        2.664        2.716        2.554        2.552        2.963        2.950        3.238        3.015        0.474        0.000        0.000        1.000        0.000        3.000        0.000        0.000        2.000        2.000        0.000        0.000        1.000        0.000        0.000        0.000        2.000        0.000        0.000        0.000        0.000        0.000        0.000        0.000        0.000        0.000        0.000        2.000        0.000        0.000        0.000        0.000        2.000        0.000        4.494        0.000       95.506        0.000        0.000        1.783        1.872        2.578
    1000.000  -260825.945    26756.644    15364.851    33243.795      129.210  -383386.311    47065.868       25.675       25.820        2.896        3.092        3.179        3.164        3.199        2.940        2.676        2.504        2.590        2.696        2.549        2.493        3.014        2.954        3.187        2.954        0.466        1.000        0.000        1.000        0.000        3.000        0.000        0.000        1.000        0.000        0.000        0.000        0.000        0.000        0.000        1.000        2.000        0.000        0.000        0.000        0.000        0.000        0.000        0.000        0.000        0.000        0.000        1.000        0.000        0.000        0.000        1.000        3.000        0.000        0.000        0.000      100.000        0.000        0.000        1.845        1.909        2.593
     Average  -263384.278    26357.365    15573.362    33058.002      134.211  -387051.603    48544.385       25.831       25.673        2.956        3.072        3.118        3.200        3.197        3.030        2.684        2.476        2.636        2.678        2.590        2.501        3.062        3.017        3.148        2.981        0.488        0.762        0.307        0.693        0.505        2.842        0.000        0.990        1.317        0.347        0.020        0.149        0.337        0.059        0.000        0.762        1.030        0.000        0.000        0.000        0.149        0.000        0.000        0.000        0.000        0.297        0.396        1.832        1.287        0.317        0.000        1.287        2.079        0.000        1.513        0.000       98.487        0.000        0.000        2.055        2.103        2.553

