____Time[ps] Energy[ kJ/mol ]_____Bond _______Angle ____Dihedral ___Planarity _____Coulomb _________VdW _Your result _Your result _Your result _Your result _Your result _Your result _Your result _Your result _Your result _Your result _Your result _Your result _Your result _Your result _Your result _Your result _Your result _Your result _Your result _Your result _Your result _Your result _Your result _Your result _Your result _Your result _Your result _Your result _Your result _Your result _Your result _Your result _Your result _Your result _Your result _Your result _Your result _Your result _Your result _Your result _Your result _Your result _Your result _Your result _Your result _Your result _Your result _Your result _Your result _Your result _Your result _Your result _Your result _Your result _Your result _Your result _Your result _RMSDs[A]:CA ____Backbone __HeavyAtoms
       0.000  -356776.275    13937.116     4845.579    33325.679       19.358  -477454.011    68550.003       25.205       25.296        2.866        3.045        3.096        3.145        3.225        3.070        2.722        2.539        2.677        2.678        2.455        2.590        3.134        2.971        2.959        2.897        0.491        1.000        1.000        0.000        1.000        2.000        0.000        0.000        0.000        1.000        0.000        0.000        0.000        0.000        0.000        0.000        5.000        0.000        0.000        0.000        0.000        0.000        0.000        0.000        0.000        0.000        4.000        1.000        4.000        1.000        0.000        0.000        3.000        0.000        4.494        0.000       95.506        0.000        0.000        0.506        0.537        0.621
      10.000  -267702.750    30439.654    16082.927    33161.742      119.980  -399455.124    51948.072       25.891       25.870        2.814        3.081        3.141        3.110        3.225        3.016        2.718        2.529        2.609        2.673        2.518        2.528        3.092        2.874        3.001        2.924        0.473        0.000        1.000        0.000        1.000        2.000        0.000        0.000        0.000        1.000        0.000        0.000        0.000        0.000        0.000        0.000        1.000        0.000        0.000        0.000        0.000        0.000        0.000        0.000        0.000        1.000        1.000        0.000        3.000        0.000        0.000        0.000        3.000        0.000        0.000        0.000      100.000        0.000        0.000        1.169        1.188        1.313
      20.000  -266332.564    30395.621    16103.286    33177.735      148.515  -396822.735    50665.013       25.674       25.935        2.923        3.237        3.171        3.135        3.142        3.055        2.731        2.563        2.620        2.657        2.476        2.522        3.119        2.914        2.975        2.975        0.490        0.000        1.000        0.000        1.000        2.000        0.000        0.000        1.000        1.000        1.000        0.000        1.000        0.000        0.000        0.000        3.000        0.000        0.000        0.000        0.000        0.000        0.000        0.000        0.000        1.000        1.000        0.000        2.000        1.000        0.000        1.000        1.000        0.000        4.494        0.000       95.506        0.000        0.000        1.325        1.332        1.548
      30.000  -266388.552    28986.834    15983.933    33189.358      121.358  -396536.108    51866.072       25.627       26.071        2.972        3.126        3.162        3.147        3.164        3.091        2.669        2.600        2.634        2.668        2.524        2.545        3.061        2.875        2.971        2.915        0.509        0.000        1.000        0.000        1.000        2.000        0.000        0.000        1.000        1.000        0.000        0.000        1.000        0.000        0.000        0.000        4.000        0.000        0.000        0.000        0.000        0.000        0.000        0.000        0.000        3.000        1.000        0.000        2.000        1.000        0.000        0.000        2.000        0.000        4.494        0.000       95.506        0.000        0.000        1.736        1.771        1.819
      40.000  -266423.477    30326.671    16506.969    32935.277      129.032  -397333.162    51011.736       25.662       25.997        3.036        3.066        3.070        3.179        3.205        3.065        2.687        2.600        2.620        2.691        2.527        2.540        3.079        2.939        3.041        2.971        0.489        0.000        1.000        0.000        1.000        3.000        0.000        0.000        2.000        0.000        0.000        0.000        1.000        1.000        0.000        0.000        6.000        0.000        0.000        0.000        0.000        0.000        0.000        0.000        0.000        2.000        1.000        0.000        2.000        1.000        0.000        0.000        2.000        0.000        4.494        0.000       95.506        0.000        0.000        1.724        1.745        1.786
      50.000  -266156.100    29090.941    16602.602    33115.061      135.437  -396239.089    51138.947       25.605       25.840        2.982        3.069        3.109        3.129        3.190        3.023        2.725        2.537        2.616        2.717        2.481        2.534        3.110        2.886        3.016        2.964        0.494        0.000        1.000        0.000        1.000        1.000        0.000        0.000        2.000        3.000        0.000        0.000        2.000        0.000        0.000        0.000        4.000        0.000        0.000        0.000        0.000        0.000        0.000        0.000        0.000        1.000        2.000        0.000        2.000        0.000        0.000        0.000        2.000        0.000        8.989        0.000       91.011        0.000        0.000        1.854        1.881        1.985
      60.000  -265074.366    29302.395    16607.470    33255.197      123.145  -393431.602    49069.029       25.657       25.802        3.020        3.173        3.040        3.136        3.237        3.079        2.740        2.571        2.620        2.702        2.505        2.546        3.097        2.920        3.074        2.930        0.482        0.000        1.000        0.000        1.000        1.000        0.000        0.000        1.000        0.000        0.000        0.000        1.000        0.000        0.000        2.000        4.000        0.000        0.000        0.000        0.000        0.000        0.000        0.000        0.000        0.000        2.000        0.000        4.000        2.000        0.000        1.000        3.000        0.000        4.494        0.000       95.506        0.000        0.000        1.832        1.864        1.956
      70.000  -265046.233    28643.639    15933.150    33100.187      121.764  -392252.259    49407.286       25.615       25.712        2.940        3.126        3.075        3.133        3.192        3.061        2.704        2.583        2.659        2.680        2.501        2.533        3.046        2.871        3.025        2.971        0.495        0.000        1.000        0.000        1.000        1.000        0.000        0.000        1.000        0.000        0.000        0.000        3.000        1.000        0.000        2.000        6.000        0.000        0.000        0.000        0.000        0.000        0.000        0.000        0.000        0.000        0.000        0.000        3.000        1.000        0.000        1.000        5.000        0.000        4.494        0.000       95.506        0.000        0.000        1.809        1.855        2.019
      80.000  -264970.188    28490.363    16151.295    33278.092      145.530  -392114.313    49078.844       25.830       25.914        3.019        3.128        3.129        3.173        3.222        3.021        2.680        2.572        2.627        2.689        2.491        2.552        3.082        2.929        3.005        2.889        0.500        0.000        0.000        0.000        1.000        1.000        0.000        0.000        2.000        0.000        0.000        0.000        2.000        0.000        0.000        2.000        5.000        0.000        0.000        0.000        0.000        0.000        0.000        0.000        0.000        0.000        2.000        0.000        7.000        0.000        0.000        0.000        5.000        0.000        4.494        0.000       95.506        0.000        0.000        1.574        1.619        1.834
      90.000  -264788.292    27737.233    16332.593    33409.249      106.158  -392693.121    50319.598       25.833       25.789        3.006        3.163        3.122        3.080        3.167        2.963        2.743        2.584        2.640        2.679        2.551        2.555        3.050        2.903        3.008        2.908        0.476        0.000        1.000        0.000        1.000        2.000        0.000        0.000        1.000        1.000        1.000        0.000        1.000        1.000        0.000        1.000        3.000        0.000        0.000        0.000        0.000        0.000        0.000        0.000        0.000        1.000        1.000        0.000        3.000        1.000        0.000        2.000        3.000        0.000        4.494        0.000       95.506        0.000        0.000        1.554        1.598        1.937
     100.000  -264575.616    28184.043    16121.316    33237.969      126.877  -390940.101    48694.280       25.953       25.552        2.960        3.132        3.092        3.159        3.217        2.983        2.662        2.588        2.633        2.643        2.512        2.482        3.007        2.928        3.035        2.932        0.501        0.000        1.000        0.000        1.000        0.000        0.000        0.000        1.000        1.000        0.000        0.000        0.000        0.000        0.000        0.000        2.000        0.000        0.000        0.000        0.000        0.000        0.000        0.000        0.000        3.000        2.000        0.000        4.000        0.000        0.000        0.000        6.000        0.000        0.000        0.000      100.000        0.000        0.000        1.617        1.648        1.876
     110.000  -264797.045    28399.471    16120.380    33050.781      161.352  -391174.827    48645.798       25.701       25.654        2.921        3.111        3.142        3.155        3.169        3.034        2.725        2.525        2.651        2.668        2.552        2.545        3.063        2.931        3.036        2.963        0.495        0.000        1.000        0.000        1.000        2.000        0.000        0.000        2.000        1.000        1.000        0.000        1.000        0.000        0.000        0.000        1.000        0.000        0.000        0.000        0.000        0.000        0.000        0.000        0.000        3.000        0.000        0.000        3.000        1.000        0.000        1.000        3.000        0.000        4.494        0.000       95.506        0.000        0.000        1.670        1.727        1.935
     120.000  -263356.357    27926.495    16500.843    33170.456      144.622  -390835.494    49736.722       25.746       25.536        2.959        3.147        3.089        3.089        3.205        2.990        2.670        2.589        2.663        2.705        2.508        2.562        3.001        2.879        2.974        2.939        0.486        0.000        1.000        0.000        1.000        2.000        0.000        0.000        2.000        1.000        1.000        0.000        1.000        1.000        0.000        1.000        2.000        0.000        0.000        0.000        0.000        0.000        0.000        0.000        0.000        1.000        2.000        0.000        3.000        0.000        0.000        0.000        1.000        0.000        4.494        0.000       95.506        0.000        0.000        1.718        1.766        1.949
     130.000  -262948.301    27385.074    16096.210    33237.024      134.627  -389946.853    50145.617       25.909       25.668        2.904        3.128        3.087        3.127        3.188        3.046        2.701        2.578        2.655        2.682        2.523        2.507        3.049        2.923        2.942        2.913        0.481        0.000        1.000        0.000        1.000        1.000        0.000        0.000        1.000        1.000        0.000        0.000        0.000        0.000        0.000        0.000        5.000        0.000        0.000        0.000        0.000        0.000        0.000        0.000        0.000        1.000        2.000        0.000        1.000        1.000        0.000        1.000        3.000        0.000        0.000        0.000      100.000        0.000        0.000        1.831        1.865        2.005
     140.000  -263253.906    28061.405    15738.866    33393.886      134.685  -388864.771    48282.023       25.634       25.622        2.912        3.042        3.185        3.165        3.193        2.998        2.683        2.574        2.599        2.677        2.554        2.553        3.079        2.908        3.044        2.896        0.483        0.000        1.000        0.000        1.000        1.000        0.000        0.000        2.000        1.000        0.000        0.000        0.000        1.000        0.000        1.000        3.000        0.000        0.000        0.000        0.000        0.000        0.000        0.000        0.000        2.000        2.000        0.000        1.000        1.000        0.000        2.000        3.000        0.000        8.989        0.000       91.011        0.000        0.000        1.715        1.705        1.983
     150.000  -263768.483    27335.032    15899.249    33045.520      125.418  -389315.064    49141.361       25.641       25.809        3.008        3.085        3.158        3.155        3.201        3.002        2.708        2.564        2.646        2.696        2.608        2.532        3.047        2.932        3.052        2.840        0.496        0.000        1.000        0.000        1.000        2.000        0.000        0.000        2.000        2.000        0.000        0.000        0.000        0.000        0.000        3.000        4.000        0.000        0.000        0.000        0.000        0.000        0.000        0.000        0.000        1.000        1.000        0.000        0.000        1.000        0.000        1.000        2.000        0.000        4.494        0.000       95.506        0.000        0.000        1.686        1.678        1.986
     160.000  -263506.622    27272.043    15863.309    33162.748      129.617  -389152.399    49218.061       25.729       25.589        2.977        3.080        3.138        3.083        3.173        3.057        2.754        2.593        2.595        2.689        2.529        2.544        3.084        2.946        3.013        2.956        0.488        0.000        1.000        0.000        1.000        1.000        0.000        0.000        2.000        0.000        0.000        0.000        1.000        0.000        0.000        1.000        4.000        0.000        0.000        0.000        0.000        0.000        0.000        0.000        0.000        0.000        1.000        0.000        2.000        1.000        0.000        1.000        5.000        0.000        4.494        0.000       95.506        0.000        0.000        1.574        1.568        1.880
     170.000  -262895.722    27870.821    15907.619    33188.345      136.419  -388550.483    48551.556       25.926       25.601        2.981        3.075        3.074        3.094        3.202        2.941        2.720        2.577        2.637        2.666        2.529        2.551        3.043        2.950        3.029        2.897        0.489        0.000        1.000        0.000        1.000        2.000        0.000        0.000        2.000        0.000        0.000        0.000        1.000        1.000        0.000        2.000        2.000        0.000        0.000        0.000        0.000        0.000        0.000        0.000        0.000        1.000        2.000        0.000        0.000        1.000        0.000        1.000        3.000        0.000        0.000        0.000      100.000        0.000        0.000        1.583        1.591        2.018
     180.000  -262324.026    27421.416    16098.434    33421.908      140.193  -387567.437    48161.460       25.729       25.479        3.006        3.117        3.146        3.087        3.185        3.025        2.731        2.523        2.637        2.685        2.622        2.574        3.110        3.028        3.085        2.927        0.467        0.000        1.000        0.000        1.000        2.000        0.000        0.000        1.000        1.000        0.000        0.000        0.000        0.000        0.000        0.000        3.000        0.000        0.000        0.000        0.000        0.000        0.000        0.000        0.000        0.000        0.000        0.000        1.000        0.000        0.000        1.000        3.000        0.000        0.000        0.000      100.000        0.000        0.000        1.646        1.667        2.061
     190.000  -262994.023    26718.703    15738.100    33418.288      155.800  -387171.530    48146.617       25.730       25.644        2.858        3.131        3.142        3.093        3.180        3.026        2.711        2.536        2.601        2.679        2.553        2.548        3.038        3.022        3.080        2.866        0.482        0.000        1.000        0.000        1.000        0.000        0.000        0.000        1.000        2.000        0.000        0.000        0.000        0.000        0.000        1.000        3.000        0.000        0.000        0.000        0.000        0.000        0.000        0.000        0.000        3.000        1.000        0.000        2.000        1.000        0.000        3.000        6.000        0.000        0.000        0.000      100.000        0.000        0.000        1.655        1.707        2.054
     200.000  -262848.057    26138.597    15923.981    33330.306      133.387  -387850.190    49475.861       25.603       25.587        2.935        3.090        3.120        3.143        3.144        3.095        2.679        2.503        2.601        2.691        2.634        2.512        3.064        2.968        3.006        2.944        0.492        0.000        1.000        0.000        1.000        1.000        0.000        0.000        1.000        0.000        0.000        0.000        1.000        0.000        0.000        1.000        5.000        0.000        0.000        0.000        0.000        0.000        0.000        0.000        0.000        2.000        1.000        0.000        3.000        0.000        0.000        1.000        6.000        0.000        0.000        0.000      100.000        0.000        0.000        2.002        2.034        2.247
     210.000  -263085.342    27441.767    15982.328    33475.786      147.965  -387779.163    47645.974       25.608       25.564        2.962        3.196        3.148        3.135        3.160        3.081        2.702        2.532        2.619        2.673        2.571        2.484        3.061        2.973        3.036        2.912        0.473        0.000        1.000        0.000        1.000        1.000        0.000        0.000        1.000        1.000        0.000        0.000        0.000        1.000        0.000        0.000        3.000        0.000        0.000        0.000        0.000        0.000        0.000        0.000        0.000        5.000        2.000        0.000        1.000        0.000        0.000        1.000        3.000        0.000        0.000        0.000      100.000        0.000        0.000        1.720        1.742        2.079
     220.000  -262717.493    27250.110    16192.739    33546.957      140.845  -387946.975    48098.830       25.927       25.850        2.781        3.158        3.074        3.126        3.204        3.016        2.706        2.590        2.696        2.691        2.574        2.501        3.017        3.008        3.052        2.945        0.467        0.000        0.000        0.000        1.000        1.000        0.000        0.000        2.000        1.000        0.000        0.000        1.000        0.000        0.000        0.000        1.000        0.000        0.000        0.000        0.000        0.000        0.000        0.000        0.000        4.000        3.000        1.000        2.000        1.000        0.000        0.000        1.000        0.000        0.000        0.000      100.000        0.000        0.000        1.876        1.885        2.293
     230.000  -262127.535    26857.320    15979.481    33420.515      125.891  -386657.384    48146.642       25.831       25.842        2.900        3.060        3.066        3.139        3.225        3.038        2.706        2.554        2.701        2.676        2.581        2.487        3.107        3.014        3.071        2.929        0.478        0.000        0.000        0.000        1.000        2.000        0.000        0.000        2.000        1.000        0.000        0.000        0.000        1.000        0.000        0.000        2.000        0.000        0.000        0.000        0.000        0.000        0.000        0.000        0.000        5.000        4.000        0.000        0.000        1.000        0.000        1.000        3.000        0.000        0.000        0.000      100.000        0.000        0.000        1.769        1.800        2.205
     240.000  -262183.084    27208.712    15944.187    33244.303      138.892  -385704.245    46985.067       25.800       25.775        2.988        3.156        3.109        3.114        3.267        3.077        2.720        2.553        2.723        2.684        2.557        2.518        3.037        2.996        3.025        2.877        0.486        0.000        1.000        0.000        1.000        2.000        0.000        0.000        2.000        1.000        1.000        0.000        0.000        0.000        0.000        0.000        2.000        0.000        0.000        0.000        0.000        0.000        0.000        0.000        0.000        2.000        2.000        0.000        3.000        1.000        0.000        2.000        5.000        0.000        4.494        0.000       95.506        0.000        0.000        2.020        2.040        2.258
     250.000  -261785.347    27654.304    15766.134    33319.074      135.286  -384685.504    46025.358       26.214       26.155        2.972        3.145        3.176        3.123        3.206        3.074        2.719        2.521        2.661        2.693        2.579        2.530        3.066        2.988        3.046        2.936        0.498        0.000        1.000        0.000        1.000        3.000        0.000        0.000        1.000        2.000        0.000        0.000        0.000        0.000        0.000        0.000        5.000        0.000        0.000        0.000        0.000        0.000        0.000        0.000        0.000        2.000        2.000        0.000        1.000        1.000        0.000        1.000        4.000        0.000        0.000        0.000      100.000        0.000        0.000        2.069        2.089        2.364
     260.000  -261624.307    26224.501    16173.672    33416.493      125.012  -385650.763    48086.778       25.499       25.663        2.948        3.224        3.135        3.073        3.142        3.046        2.727        2.571        2.673        2.702        2.599        2.551        3.075        2.974        3.004        2.908        0.481        0.000        1.000        0.000        1.000        1.000        0.000        0.000        1.000        2.000        0.000        0.000        1.000        0.000        0.000        3.000        5.000        0.000        0.000        0.000        0.000        0.000        0.000        0.000        0.000        1.000        0.000        0.000        2.000        1.000        0.000        1.000        6.000        0.000        0.000        0.000      100.000        0.000        0.000        1.911        1.900        2.305
     270.000  -262209.134    26980.297    15611.410    33336.017      147.311  -386116.996    47832.826       25.712       25.705        2.935        3.200        3.145        3.118        3.182        3.024        2.684        2.590        2.680        2.654        2.586        2.552        3.083        2.963        3.101        2.914        0.489        0.000        1.000        0.000        1.000        3.000        0.000        0.000        2.000        2.000        0.000        0.000        1.000        0.000        0.000        2.000        3.000        0.000        0.000        0.000        0.000        0.000        0.000        0.000        0.000        1.000        1.000        0.000        1.000        0.000        0.000        1.000        5.000        0.000        0.000        0.000      100.000        0.000        0.000        2.010        1.992        2.467
     280.000  -262847.349    26192.836    15395.530    33531.139      140.407  -387182.439    49075.178       25.427       25.582        2.996        3.141        3.155        3.144        3.225        3.064        2.690        2.529        2.722        2.632        2.587        2.490        3.067        2.941        3.014        2.922        0.478        0.000        1.000        0.000        1.000        1.000        0.000        0.000        2.000        0.000        0.000        0.000        0.000        0.000        0.000        0.000        5.000        0.000        0.000        0.000        0.000        0.000        0.000        0.000        0.000        2.000        1.000        1.000        2.000        1.000        0.000        2.000        5.000        0.000        0.000        0.000      100.000        0.000        0.000        2.144        2.129        2.658
     290.000  -261789.848    27446.652    15579.297    33464.694      120.814  -385010.907    46609.603       25.792       25.848        2.954        3.127        3.163        3.173        3.219        2.992        2.674        2.518        2.691        2.675        2.533        2.459        3.027        2.934        2.986        2.921        0.486        0.000        1.000        0.000        1.000        1.000        0.000        0.000        1.000        1.000        0.000        0.000        1.000        0.000        0.000        2.000        2.000        0.000        0.000        0.000        0.000        0.000        0.000        0.000        0.000        3.000        3.000        0.000        1.000        1.000        0.000        1.000        4.000        0.000        0.000        0.000      100.000        0.000        0.000        2.130        2.166        2.596
     300.000  -261512.392    25179.325    15605.143    33585.220      117.122  -384947.455    48948.253       25.893       25.645        2.936        3.103        3.168        3.133        3.166        3.004        2.704        2.547        2.682        2.666        2.506        2.515        3.006        2.948        3.032        2.894        0.461        0.000        1.000        0.000        1.000        1.000        0.000        0.000        2.000        1.000        0.000        0.000        1.000        0.000        0.000        2.000        3.000        0.000        0.000        0.000        0.000        0.000        0.000        0.000        0.000        5.000        4.000        1.000        1.000        1.000        0.000        1.000        2.000        0.000        0.000        0.000      100.000        0.000        0.000        2.123        2.147        2.572
     310.000  -262165.538    26943.964    15562.254    33458.432      122.014  -385256.388    47004.186       25.874       25.869        2.957        3.170        3.168        3.103        3.146        3.110        2.644        2.591        2.711        2.562        2.557        2.501        3.072        2.986        3.023        2.934        0.488        0.000        2.000        0.000        1.000        2.000        0.000        0.000        1.000        0.000        0.000        0.000        0.000        0.000        0.000        0.000        3.000        0.000        0.000        0.000        0.000        0.000        0.000        0.000        0.000        0.000        2.000        0.000        1.000        1.000        0.000        2.000        1.000        0.000        0.000        0.000      100.000        0.000        0.000        1.846        1.844        2.329
     320.000  -261937.849    26143.213    15782.533    33709.156      139.574  -385943.376    48231.050       25.355       25.443        2.916        3.186        3.136        3.070        3.229        2.996        2.677        2.546        2.681        2.679        2.529        2.476        3.041        2.987        3.022        2.909        0.480        0.000        2.000        0.000        1.000        2.000        0.000        0.000        1.000        0.000        0.000        0.000        2.000        1.000        0.000        0.000        4.000        0.000        0.000        0.000        0.000        0.000        0.000        0.000        0.000        0.000        0.000        0.000        2.000        1.000        0.000        0.000        2.000        0.000        0.000        0.000      100.000        0.000        0.000        1.998        1.985        2.408
     330.000  -261888.250    27006.895    15811.588    33333.739      131.473  -384402.764    46230.818       25.804       25.455        2.827        3.131        3.126        3.093        3.201        3.072        2.662        2.551        2.702        2.704        2.572        2.557        3.037        3.024        2.999        2.924        0.496        0.000        2.000        0.000        1.000        2.000        0.000        0.000        1.000        2.000        0.000        0.000        1.000        0.000        0.000        1.000        4.000        0.000        0.000        0.000        0.000        0.000        0.000        0.000        0.000        2.000        3.000        1.000        2.000        1.000        0.000        2.000        6.000        0.000        0.000        0.000      100.000        0.000        0.000        2.037        2.070        2.526
     340.000  -262175.265    26334.922    15710.136    33254.843      126.666  -386408.616    48806.783       25.872       25.804        2.930        3.170        3.181        3.118        3.184        2.997        2.703        2.558        2.682        2.688        2.594        2.470        3.019        2.995        2.994        2.929        0.499        0.000        2.000        0.000        1.000        2.000        0.000        0.000        0.000        0.000        1.000        0.000        2.000        0.000        0.000        0.000        4.000        0.000        0.000        0.000        0.000        0.000        0.000        0.000        0.000        3.000        3.000        0.000        2.000        1.000        0.000        1.000        3.000        0.000        4.494        0.000       95.506        0.000        0.000        2.115        2.130        2.521
     350.000  -261515.454    25956.169    15977.167    33222.283      138.202  -384957.980    48148.705       25.688       25.410        2.843        3.071        3.158        3.119        3.195        2.998        2.626        2.548        2.664        2.694        2.592        2.501        3.151        2.987        2.995        2.935        0.485        0.000        1.000        0.000        1.000        2.000        0.000        0.000        1.000        1.000        0.000        0.000        0.000        0.000        0.000        0.000        3.000        0.000        0.000        0.000        0.000        0.000        0.000        0.000        0.000        1.000        1.000        1.000        1.000        1.000        0.000        1.000        2.000        0.000        0.000        0.000      100.000        0.000        0.000        2.020        2.048        2.383
     360.000  -260904.919    26724.619    15645.973    33148.732      136.181  -384057.720    47497.294       25.782       25.728        3.046        3.183        3.108        3.098        3.203        3.036        2.656        2.578        2.655        2.661        2.537        2.472        3.102        3.015        2.960        2.853        0.493        0.000        1.000        0.000        1.000        2.000        0.000        0.000        1.000        1.000        0.000        0.000        0.000        0.000        0.000        2.000        2.000        0.000        0.000        0.000        0.000        0.000        0.000        0.000        0.000        3.000        6.000        0.000        1.000        1.000        0.000        1.000        5.000        0.000        4.494        0.000       95.506        0.000        0.000        1.972        1.977        2.219
     370.000  -261773.884    25622.413    15372.534    33323.162      119.454  -385529.977    49318.529       25.721       25.628        2.960        3.144        3.158        3.121        3.219        2.990        2.679        2.520        2.643        2.684        2.566        2.518        3.004        2.951        2.966        2.967        0.492        0.000        0.000        0.000        1.000        2.000        0.000        0.000        2.000        1.000        0.000        0.000        0.000        1.000        0.000        0.000        2.000        0.000        0.000        0.000        0.000        0.000        0.000        0.000        0.000        2.000        3.000        0.000        2.000        0.000        0.000        1.000        3.000        0.000        0.000        0.000      100.000        0.000        0.000        1.993        2.022        2.218
     380.000  -261613.237    25483.923    15755.675    33389.667      137.309  -385262.535    48882.725       25.543       25.539        3.019        3.164        3.168        3.087        3.161        3.069        2.711        2.533        2.665        2.692        2.451        2.558        3.086        2.930        3.055        2.902        0.460        0.000        1.000        0.000        1.000        1.000        0.000        0.000        2.000        0.000        0.000        0.000        0.000        0.000        0.000        2.000        5.000        0.000        0.000        0.000        0.000        0.000        0.000        0.000        0.000        2.000        2.000        0.000        2.000        2.000        0.000        1.000        5.000        0.000        0.000        0.000      100.000        0.000        0.000        2.032        2.044        2.255
     390.000  -261954.940    25831.063    15215.932    33193.809      125.192  -385056.199    48735.262       25.777       25.727        2.879        3.092        3.139        3.128        3.211        3.045        2.702        2.555        2.707        2.667        2.451        2.527        3.075        2.965        3.028        2.940        0.495        0.000        1.000        0.000        1.000        1.000        0.000        0.000        2.000        1.000        0.000        0.000        0.000        0.000        0.000        0.000        2.000        0.000        0.000        0.000        0.000        0.000        0.000        0.000        0.000        4.000        4.000        0.000        2.000        0.000        0.000        1.000        5.000        0.000        0.000        0.000      100.000        0.000        0.000        1.904        1.914        2.150
     400.000  -262122.690    26030.291    15564.668    33247.252      151.495  -384556.764    47440.369       25.810       25.686        2.932        3.113        3.159        3.101        3.227        3.020        2.663        2.548        2.675        2.692        2.507        2.503        3.070        2.891        3.079        2.906        0.485        0.000        1.000        0.000        1.000        1.000        0.000        0.000        1.000        0.000        1.000        0.000        0.000        1.000        0.000        0.000        4.000        0.000        0.000        0.000        0.000        0.000        0.000        0.000        0.000        1.000        2.000        0.000        2.000        0.000        0.000        0.000        4.000        0.000        0.000        0.000      100.000        0.000        0.000        2.340        2.318        2.586
     410.000  -262104.851    25677.479    15502.958    33161.610      134.528  -386007.803    49426.376       25.769       25.729        2.970        3.137        3.118        3.136        3.203        3.033        2.682        2.558        2.662        2.667        2.473        2.526        3.121        2.962        3.021        2.965        0.494        0.000        1.000        0.000        1.000        2.000        0.000        0.000        1.000        0.000        0.000        0.000        0.000        0.000        0.000        0.000        2.000        0.000        0.000        0.000        0.000        0.000        0.000        0.000        0.000        1.000        1.000        0.000        1.000        1.000        0.000        2.000        4.000        0.000        0.000        0.000      100.000        0.000        0.000        2.521        2.529        2.687
     420.000  -261503.482    26526.343    15289.150    33449.697      147.656  -384070.524    47154.196       25.650       25.698        2.954        3.159        3.144        3.117        3.130        3.045        2.665        2.537        2.665        2.677        2.489        2.554        3.018        2.944        2.968        2.871        0.493        0.000        0.000        0.000        1.000        1.000        0.000        0.000        1.000        0.000        1.000        0.000        0.000        1.000        0.000        2.000        4.000        0.000        0.000        0.000        0.000        0.000        0.000        0.000        0.000        3.000        1.000        1.000        1.000        2.000        0.000        2.000        1.000        0.000        0.000        0.000      100.000        0.000        0.000        2.177        2.189        2.494
     430.000  -260782.722    25529.872    15474.040    33456.617      107.498  -382940.768    47590.018       25.633       25.501        2.941        3.119        3.109        3.116        3.187        3.021        2.682        2.545        2.685        2.632        2.469        2.512        3.072        2.945        3.021        3.034        0.492        0.000        1.000        0.000        1.000        2.000        0.000        0.000        1.000        0.000        0.000        0.000        1.000        1.000        0.000        0.000        1.000        0.000        0.000        0.000        0.000        0.000        0.000        0.000        0.000        3.000        6.000        0.000        2.000        0.000        0.000        1.000        6.000        0.000        0.000        0.000      100.000        0.000        0.000        1.863        1.852        2.248
     440.000  -261438.924    25986.602    15274.470    33445.207      124.811  -384252.674    47982.661       25.728       25.482        2.916        3.073        3.132        3.135        3.218        3.057        2.700        2.551        2.663        2.602        2.604        2.478        3.035        2.994        3.030        2.952        0.491        0.000        0.000        0.000        1.000        2.000        0.000        0.000        1.000        0.000        1.000        0.000        0.000        1.000        0.000        2.000        1.000        0.000        0.000        0.000        0.000        0.000        0.000        0.000        0.000        4.000        3.000        0.000        3.000        1.000        0.000        3.000        2.000        0.000        4.494        0.000       95.506        0.000        0.000        1.792        1.802        2.134
     450.000  -261893.007    25891.903    15382.787    33634.644      129.083  -383866.308    46934.883       25.501       25.447        2.910        3.163        3.105        3.118        3.197        3.004        2.675        2.551        2.628        2.640        2.558        2.495        3.071        2.995        3.047        2.961        0.493        0.000        0.000        0.000        1.000        3.000        0.000        0.000        1.000        0.000        0.000        0.000        1.000        2.000        0.000        0.000        5.000        0.000        0.000        0.000        0.000        0.000        0.000        0.000        0.000        1.000        3.000        0.000        1.000        0.000        0.000        1.000        4.000        0.000        0.000        0.000      100.000        0.000        0.000        1.888        1.884        2.155
     460.000  -261720.745    26586.876    15375.376    33298.256      129.473  -384397.095    47286.369       25.922       25.572        2.906        3.178        3.188        3.078        3.200        3.012        2.644        2.545        2.649        2.631        2.506        2.554        3.007        3.006        3.019        2.941        0.511        0.000        0.000        0.000        1.000        3.000        0.000        0.000        1.000        0.000        0.000        0.000        0.000        0.000        0.000        1.000        2.000        0.000        0.000        0.000        0.000        0.000        0.000        0.000        0.000        1.000        5.000        0.000        1.000        0.000        0.000        1.000        4.000        0.000        0.000        0.000      100.000        0.000        0.000        1.963        1.950        2.309
     470.000  -261000.936    26885.540    15487.740    33356.525      154.417  -384284.238    47399.081       25.774       25.649        2.932        3.157        3.115        3.127        3.218        3.026        2.733        2.560        2.631        2.613        2.480        2.471        3.059        2.965        2.984        2.914        0.511        0.000        0.000        0.000        1.000        2.000        0.000        0.000        1.000        0.000        0.000        0.000        0.000        0.000        0.000        0.000        1.000        0.000        0.000        0.000        0.000        0.000        0.000        0.000        0.000        1.000        3.000        0.000        1.000        2.000        0.000        1.000        2.000        0.000        4.494        0.000       95.506        0.000        0.000        1.806        1.809        2.177
     480.000  -261629.509    26157.844    15286.858    33561.882      154.098  -383827.794    47037.603       25.771       25.727        2.974        3.164        3.176        3.178        3.196        3.012        2.651        2.551        2.645        2.603        2.499        2.518        3.043        3.000        3.011        2.919        0.475        0.000        0.000        0.000        1.000        2.000        0.000        0.000        1.000        0.000        0.000        0.000        1.000        1.000        0.000        0.000        6.000        0.000        0.000        0.000        0.000        0.000        0.000        0.000        0.000        0.000        1.000        0.000        2.000        1.000        0.000        1.000        4.000        0.000        0.000        0.000      100.000        0.000        0.000        1.611        1.606        1.964
     490.000  -261494.565    26311.067    15563.678    33650.986      166.364  -383910.667    46724.008       25.694       25.532        2.992        3.102        3.123        3.141        3.219        3.098        2.652        2.582        2.695        2.636        2.486        2.547        3.129        2.969        3.023        2.924        0.489        0.000        0.000        0.000        1.000        2.000        0.000        0.000        1.000        0.000        0.000        0.000        1.000        0.000        0.000        0.000        2.000        0.000        0.000        0.000        0.000        0.000        0.000        0.000        0.000        2.000        3.000        0.000        1.000        0.000        0.000        1.000        5.000        0.000        0.000        0.000      100.000        0.000        0.000        1.756        1.752        2.092
     500.000  -261568.625    26418.751    15469.165    33495.307      150.040  -384325.142    47223.254       25.634       25.675        2.973        3.143        3.085        3.119        3.201        2.998        2.699        2.541        2.728        2.618        2.426        2.519        3.076        2.979        3.032        2.955        0.490        0.000        0.000        0.000        1.000        3.000        0.000        0.000        1.000        0.000        0.000        0.000        0.000        0.000        0.000        2.000        3.000        0.000        0.000        0.000        0.000        0.000        0.000        0.000        0.000        0.000        3.000        0.000        4.000        2.000        0.000        0.000        3.000        0.000        0.000        0.000      100.000        0.000        0.000        1.830        1.841        2.164
     510.000  -260963.463    25685.761    15217.681    33533.459      139.411  -383821.041    48281.267       25.497       25.474        2.942        3.060        3.050        3.093        3.182        3.043        2.713        2.543        2.720        2.614        2.504        2.483        3.038        2.989        3.048        2.956        0.500        0.000        0.000        0.000        1.000        3.000        0.000        0.000        1.000        0.000        1.000        0.000        0.000        1.000        0.000        0.000        0.000        0.000        0.000        0.000        0.000        0.000        0.000        0.000        0.000        3.000        3.000        0.000        2.000        1.000        0.000        1.000        4.000        0.000        0.000        0.000      100.000        0.000        0.000        1.777        1.760        2.137
     520.000  -262810.314    26653.907    15592.078    33422.346      127.621  -385660.233    47053.966       25.916       25.542        2.959        3.169        3.055        3.111        3.189        3.000        2.660        2.545        2.686        2.593        2.428        2.533        3.074        2.979        3.052        2.888        0.504        0.000        0.000        0.000        1.000        2.000        0.000        0.000        1.000        1.000        0.000        0.000        0.000        1.000        0.000        0.000        3.000        0.000        0.000        0.000        0.000        0.000        0.000        0.000        0.000        3.000        3.000        0.000        3.000        2.000        0.000        0.000        2.000        0.000        0.000        0.000      100.000        0.000        0.000        1.649        1.665        2.013
     530.000  -261797.632    25404.885    15515.897    33246.905      132.046  -384311.570    48214.204       25.611       25.737        3.015        3.187        3.085        3.159        3.172        2.995        2.711        2.508        2.756        2.641        2.517        2.529        3.036        2.997        3.062        2.940        0.473        0.000        0.000        0.000        1.000        3.000        0.000        0.000        2.000        0.000        0.000        0.000        0.000        1.000        0.000        0.000        5.000        0.000        0.000        0.000        0.000        0.000        0.000        0.000        0.000        1.000        5.000        0.000        2.000        2.000        0.000        2.000        4.000        0.000        0.000        0.000      100.000        0.000        0.000        1.675        1.666        2.060
     540.000  -261852.897    25811.758    15328.199    33377.425      120.026  -384346.509    47856.204       25.529       25.740        2.902        3.254        3.124        3.059        3.205        2.912        2.701        2.464        2.728        2.659        2.448        2.503        3.034        3.012        3.039        2.989        0.490        0.000        0.000        0.000        1.000        2.000        0.000        0.000        0.000        0.000        0.000        0.000        1.000        1.000        0.000        0.000        5.000        0.000        0.000        0.000        0.000        0.000        0.000        0.000        0.000        1.000        3.000        0.000        0.000        0.000        0.000        0.000        7.000        0.000        4.494        0.000       95.506        0.000        0.000        1.703        1.686        2.116
     550.000  -261025.270    26550.064    15939.094    33370.815      138.216  -383022.994    45999.534       25.888       25.664        2.885        3.197        3.024        3.113        3.223        2.998        2.686        2.510        2.696        2.610        2.457        2.587        3.107        2.939        3.054        2.952        0.484        1.000        0.000        0.000        1.000        2.000        0.000        0.000        0.000        0.000        0.000        0.000        1.000        2.000        0.000        0.000        1.000        0.000        0.000        0.000        0.000        0.000        0.000        0.000        0.000        0.000        3.000        1.000        1.000        1.000        0.000        1.000        8.000        0.000        4.494        0.000       95.506        0.000        0.000        1.809        1.765        2.082
     560.000  -262203.447    27043.823    15696.973    33153.298      150.709  -385648.799    47400.549       25.725       25.896        2.968        3.201        3.070        3.118        3.225        2.986        2.693        2.504        2.628        2.580        2.445        2.600        3.109        2.940        3.022        2.961        0.508        0.000        0.000        0.000        1.000        2.000        0.000        0.000        1.000        1.000        0.000        0.000        0.000        1.000        0.000        0.000        5.000        0.000        0.000        0.000        0.000        0.000        0.000        0.000        0.000        0.000        5.000        0.000        2.000        2.000        0.000        2.000        5.000        0.000        4.494        0.000       95.506        0.000        0.000        1.646        1.620        2.029
     570.000  -260677.822    26503.564    15338.179    33364.948      150.075  -382432.456    46397.867       25.795       25.928        3.018        3.128        3.063        3.158        3.103        3.124        2.711        2.491        2.654        2.614        2.401        2.494        3.072        2.963        3.046        2.993        0.497        0.000        0.000        0.000        1.000        2.000        0.000        0.000        1.000        0.000        1.000        0.000        0.000        0.000        0.000        2.000        1.000        0.000        0.000        0.000        0.000        0.000        0.000        0.000        0.000        0.000        3.000        0.000        3.000        0.000        0.000        1.000        6.000        0.000        0.000        0.000      100.000        0.000        0.000        1.548        1.540        1.990
     580.000  -261550.529    25748.719    15619.007    33380.376      144.843  -385643.075    49199.601       25.901       26.017        2.919        3.202        3.061        3.082        3.148        3.000        2.687        2.512        2.627        2.609        2.470        2.481        3.054        2.973        3.075        2.948        0.477        0.000        0.000        0.000        1.000        2.000        0.000        0.000        1.000        0.000        2.000        0.000        0.000        0.000        0.000        0.000        3.000        0.000        0.000        0.000        0.000        0.000        0.000        0.000        0.000        0.000        2.000        0.000        2.000        1.000        0.000        1.000        5.000        0.000        7.865        0.000       92.135        0.000        0.000        1.526        1.542        2.041
     590.000  -261382.394    25821.299    15667.134    33396.240      142.269  -383090.972    46681.637       25.968       26.009        3.019        3.237        3.156        3.162        3.161        2.992        2.683        2.586        2.675        2.598        2.496        2.481        3.068        2.971        2.981        2.927        0.469        0.000        0.000        0.000        2.000        2.000        0.000        0.000        1.000        1.000        0.000        0.000        0.000        1.000        0.000        0.000        2.000        0.000        0.000        0.000        0.000        0.000        0.000        0.000        0.000        1.000        6.000        0.000        4.000        0.000        0.000        3.000        3.000        0.000        0.000        0.000      100.000        0.000        0.000        1.558        1.590        2.001
     600.000  -261274.685    25911.390    15905.146    33379.895      171.494  -384639.678    47997.068       26.135       26.122        2.875        3.230        3.098        3.081        3.124        3.063        2.694        2.545        2.719        2.609        2.440        2.477        3.112        2.966        3.011        2.919        0.484        0.000        0.000        0.000        2.000        2.000        0.000        0.000        2.000        1.000        0.000        0.000        0.000        1.000        0.000        1.000        0.000        0.000        0.000        0.000        0.000        0.000        0.000        0.000        0.000        0.000        4.000        1.000        2.000        1.000        0.000        1.000        4.000        0.000        0.000        0.000      100.000        0.000        0.000        1.644        1.686        2.105
     610.000  -261710.181    26032.099    15445.371    33541.174      141.843  -385457.173    48586.505       25.771       26.036        2.963        3.224        3.100        3.124        3.122        2.999        2.680        2.508        2.704        2.620        2.464        2.460        3.079        2.983        3.042        2.938        0.480        1.000        0.000        0.000        2.000        2.000        0.000        0.000        1.000        0.000        0.000        0.000        1.000        0.000        0.000        0.000        1.000        0.000        0.000        0.000        0.000        0.000        0.000        0.000        0.000        1.000        3.000        0.000        2.000        1.000        0.000        2.000        3.000        0.000        0.000        0.000      100.000        0.000        0.000        1.562        1.593        2.114
     620.000  -261812.985    26625.834    15603.091    33295.808      143.089  -386546.715    49065.908       25.803       26.057        2.959        3.253        3.107        3.095        3.145        2.990        2.717        2.525        2.680        2.624        2.473        2.504        3.092        2.964        3.026        2.907        0.504        0.000        0.000        0.000        2.000        2.000        0.000        0.000        1.000        1.000        0.000        0.000        1.000        2.000        0.000        0.000        2.000        0.000        0.000        0.000        0.000        0.000        0.000        0.000        0.000        0.000        3.000        0.000        1.000        2.000        0.000        1.000        5.000        0.000        0.000        0.000      100.000        0.000        0.000        1.485        1.550        1.978
     630.000  -261324.395    27040.246    15550.483    33592.793      170.035  -384467.928    46789.976       25.954       26.069        2.915        3.218        3.069        3.081        3.200        2.970        2.668        2.523        2.677        2.604        2.499        2.471        3.011        2.933        3.051        2.972        0.490        0.000        0.000        0.000        2.000        2.000        0.000        0.000        1.000        1.000        0.000        0.000        0.000        1.000        0.000        2.000        2.000        0.000        0.000        0.000        0.000        0.000        0.000        0.000        0.000        1.000        3.000        1.000        2.000        1.000        0.000        2.000        3.000        0.000        0.000        0.000      100.000        0.000        0.000        1.633        1.697        2.198
     640.000  -261198.937    25427.885    14912.154    33307.153      117.094  -383939.997    48976.773       25.762       25.818        2.983        3.203        3.092        3.138        3.189        2.994        2.649        2.571        2.674        2.657        2.451        2.483        3.086        2.974        3.112        2.993        0.474        0.000        0.000        0.000        2.000        2.000        0.000        0.000        1.000        0.000        0.000        0.000        0.000        2.000        0.000        0.000        3.000        0.000        0.000        0.000        0.000        0.000        0.000        0.000        0.000        0.000        3.000        1.000        1.000        1.000        0.000        2.000        4.000        0.000        0.000        0.000      100.000        0.000        0.000        1.562        1.623        2.117
     650.000  -261242.930    26228.290    15527.268    33538.882      132.397  -385080.581    48410.814       25.825       26.063        2.904        3.295        3.109        3.120        3.216        3.053        2.704        2.586        2.726        2.587        2.428        2.480        3.103        2.979        3.029        2.981        0.495        0.000        0.000        0.000        1.000        2.000        0.000        0.000        1.000        0.000        0.000        0.000        2.000        1.000        0.000        0.000        3.000        0.000        0.000        0.000        0.000        0.000        0.000        0.000        0.000        1.000        4.000        1.000        1.000        0.000        0.000        0.000        4.000        0.000        4.494        0.000       95.506        0.000        0.000        1.546        1.597        2.032
     660.000  -261741.924    25779.267    15483.914    33475.574      141.298  -384979.626    48357.650       25.941       25.877        2.800        3.270        3.128        3.104        3.183        2.940        2.704        2.548        2.708        2.625        2.517        2.501        3.081        2.900        3.012        2.928        0.484        1.000        0.000        0.000        1.000        2.000        0.000        0.000        1.000        1.000        1.000        0.000        0.000        0.000        0.000        0.000        3.000        0.000        0.000        0.000        0.000        0.000        0.000        0.000        0.000        0.000        2.000        0.000        1.000        0.000        0.000        0.000        5.000        0.000        0.000        0.000      100.000        0.000        0.000        1.456        1.489        1.948
     670.000  -261834.951    26004.841    15591.418    33235.104      121.694  -385057.802    48269.794       25.932       25.839        2.856        3.189        3.059        3.090        3.219        3.022        2.697        2.541        2.683        2.633        2.432        2.497        3.035        2.989        3.036        2.885        0.482        0.000        0.000        0.000        1.000        2.000        0.000        0.000        1.000        0.000        0.000        0.000        0.000        2.000        0.000        0.000        3.000        0.000        0.000        0.000        0.000        0.000        0.000        0.000        0.000        1.000        5.000        1.000        3.000        1.000        0.000        0.000        6.000        0.000        0.000        0.000      100.000        0.000        0.000        1.691        1.727        2.189
     680.000  -260822.216    26540.815    15396.294    33444.197      174.519  -383119.525    46741.485       25.763       25.742        2.883        3.166        3.163        3.133        3.164        3.020        2.705        2.469        2.641        2.619        2.490        2.508        3.039        2.919        3.087        2.912        0.477        0.000        0.000        0.000        2.000        2.000        0.000        0.000        1.000        1.000        0.000        0.000        1.000        0.000        0.000        1.000        1.000        0.000        0.000        0.000        0.000        0.000        0.000        0.000        0.000        2.000        1.000        0.000        2.000        1.000        0.000        1.000        5.000        0.000        0.000        0.000      100.000        0.000        0.000        1.499        1.584        2.106
     690.000  -261537.857    27158.540    15436.451    33561.920      116.006  -385517.894    47707.119       25.538       25.511        2.797        3.130        3.059        3.108        3.229        3.031        2.652        2.549        2.655        2.633        2.465        2.483        3.027        3.022        3.033        2.890        0.487        1.000        0.000        0.000        2.000        2.000        0.000        0.000        1.000        1.000        0.000        0.000        0.000        0.000        0.000        0.000        1.000        0.000        0.000        0.000        0.000        0.000        0.000        0.000        0.000        1.000        4.000        0.000        2.000        0.000        0.000        2.000        1.000        0.000        4.494        0.000       95.506        0.000        0.000        1.534        1.591        2.222
     700.000  -262043.070    25854.612    15586.161    33577.685      119.392  -385405.678    48224.758       25.566       25.688        2.813        3.110        3.167        3.106        3.197        3.002        2.734        2.505        2.647        2.609        2.435        2.507        3.113        2.962        3.052        2.989        0.468        0.000        0.000        0.000        2.000        0.000        0.000        0.000        2.000        0.000        0.000        0.000        1.000        0.000        0.000        0.000        5.000        0.000        0.000        0.000        0.000        0.000        0.000        0.000        0.000        1.000        5.000        0.000        3.000        0.000        0.000        2.000        3.000        0.000        0.000        0.000      100.000        0.000        0.000        1.483        1.513        2.110
     710.000  -260651.468    25209.005    15275.928    33513.828      131.628  -383070.719    48288.862       25.790       25.744        2.848        3.047        3.056        3.094        3.178        2.983        2.730        2.569        2.690        2.613        2.469        2.464        2.995        2.925        3.036        2.936        0.472        1.000        0.000        0.000        2.000        2.000        0.000        0.000        1.000        0.000        0.000        0.000        0.000        0.000        0.000        0.000        3.000        0.000        0.000        0.000        0.000        0.000        0.000        0.000        0.000        1.000        4.000        0.000        2.000        2.000        0.000        1.000        4.000        0.000        0.000        0.000      100.000        0.000        0.000        1.709        1.755        2.203
     720.000  -261510.972    25804.149    15408.609    33552.982      154.827  -383446.304    47014.766       25.563       25.915        2.906        3.193        3.083        3.133        3.195        3.013        2.693        2.550        2.643        2.621        2.411        2.429        2.995        2.957        3.068        2.951        0.482        0.000        0.000        0.000        2.000        1.000        0.000        0.000        1.000        1.000        0.000        0.000        0.000        1.000        0.000        1.000        4.000        0.000        0.000        0.000        0.000        0.000        0.000        0.000        0.000        1.000        2.000        1.000        4.000        0.000        0.000        2.000        2.000        0.000        0.000        0.000      100.000        0.000        0.000        1.769        1.828        2.280
     730.000  -261025.484    25614.290    15453.043    33403.557      118.330  -383546.861    47932.158       25.696       25.941        2.824        3.158        3.132        3.156        3.150        3.071        2.708        2.531        2.631        2.604        2.453        2.472        3.069        2.950        3.091        2.918        0.480        0.000        0.000        0.000        2.000        1.000        0.000        0.000        2.000        0.000        1.000        0.000        0.000        1.000        0.000        2.000        1.000        0.000        0.000        0.000        0.000        0.000        0.000        0.000        0.000        1.000        6.000        0.000        2.000        0.000        0.000        1.000        6.000        0.000        0.000        0.000      100.000        0.000        0.000        1.838        1.873        2.246
     740.000  -261436.222    25285.957    15353.553    33475.460      159.957  -383827.271    48116.121       25.716       25.684        2.850        3.132        3.108        3.127        3.172        3.027        2.638        2.518        2.659        2.645        2.382        2.528        3.074        2.946        3.018        2.933        0.515        1.000        0.000        0.000        2.000        2.000        0.000        0.000        1.000        0.000        0.000        0.000        1.000        2.000        0.000        1.000        3.000        0.000        0.000        0.000        0.000        0.000        0.000        0.000        0.000        0.000        1.000        1.000        2.000        0.000        0.000        3.000        1.000        0.000        0.000        0.000      100.000        0.000        0.000        1.897        1.929        2.347
     750.000  -260941.272    26527.772    15768.194    33316.942      160.909  -383056.678    46341.589       25.886       25.737        2.837        3.111        3.138        3.108        3.228        3.013        2.703        2.543        2.610        2.652        2.467        2.457        3.085        2.949        3.007        2.938        0.477        1.000        1.000        0.000        2.000        1.000        0.000        0.000        1.000        0.000        0.000        0.000        0.000        0.000        0.000        1.000        2.000        0.000        0.000        0.000        0.000        0.000        0.000        0.000        0.000        2.000        3.000        1.000        2.000        1.000        0.000        1.000        6.000        0.000        4.494        0.000       95.506        0.000        0.000        2.103        2.145        2.545
     760.000  -260586.549    26159.198    15634.308    33379.937      111.702  -383004.800    47133.106       25.816       25.726        2.854        3.176        3.144        3.124        3.136        2.973        2.678        2.562        2.675        2.652        2.408        2.512        3.036        2.948        3.035        2.976        0.491        1.000        0.000        0.000        1.000        2.000        0.000        0.000        1.000        1.000        0.000        0.000        0.000        0.000        0.000        0.000        1.000        0.000        0.000        0.000        0.000        0.000        0.000        0.000        0.000        1.000        2.000        0.000        2.000        2.000        0.000        2.000        5.000        0.000        0.000        0.000      100.000        0.000        0.000        1.891        1.930        2.459
     770.000  -260722.223    25541.971    15614.203    33354.328      153.097  -383554.699    48168.878       25.642       25.471        2.870        3.129        3.044        3.122        3.145        3.031        2.672        2.515        2.721        2.690        2.448        2.506        3.056        2.961        3.049        2.951        0.485        0.000        0.000        0.000        2.000        1.000        0.000        0.000        0.000        0.000        0.000        0.000        0.000        0.000        0.000        0.000        5.000        0.000        0.000        0.000        0.000        0.000        0.000        0.000        0.000        1.000        4.000        1.000        2.000        0.000        0.000        2.000        8.000        0.000        0.000        0.000      100.000        0.000        0.000        1.710        1.758        2.346
     780.000  -261612.693    25541.328    15119.474    33642.388      134.404  -384334.176    48283.890       25.458       25.787        2.867        3.193        3.111        3.166        3.086        3.033        2.711        2.485        2.673        2.684        2.453        2.478        3.062        2.923        3.108        2.990        0.497        0.000        0.000        0.000        2.000        2.000        0.000        0.000        2.000        0.000        0.000        0.000        0.000        2.000        0.000        2.000        4.000        0.000        0.000        0.000        0.000        0.000        0.000        0.000        0.000        1.000        2.000        1.000        1.000        1.000        0.000        1.000        4.000        0.000        0.000        0.000      100.000        0.000        0.000        1.624        1.633        2.349
     790.000  -261584.834    25781.275    15601.309    33419.002      129.544  -383391.469    46875.505       25.505       25.815        2.873        3.173        3.095        3.103        3.202        3.001        2.640        2.521        2.638        2.649        2.421        2.519        3.053        2.909        3.089        2.937        0.488        1.000        1.000        0.000        2.000        2.000        0.000        0.000        2.000        1.000        0.000        0.000        0.000        0.000        0.000        0.000        2.000        0.000        0.000        0.000        0.000        0.000        0.000        0.000        0.000        0.000        4.000        1.000        2.000        0.000        0.000        2.000        7.000        0.000        0.000        0.000      100.000        0.000        0.000        1.702        1.695        2.280
     800.000  -261302.582    26080.902    15747.060    33310.226      139.943  -383654.591    47073.878       25.836       25.992        2.822        3.125        3.099        3.139        3.172        3.068        2.650        2.550        2.721        2.645        2.463        2.492        3.061        2.967        3.091        2.904        0.485        0.000        0.000        0.000        2.000        2.000        0.000        0.000        1.000        0.000        0.000        0.000        0.000        2.000        0.000        0.000        4.000        0.000        0.000        0.000        0.000        0.000        0.000        0.000        0.000        1.000        4.000        0.000        1.000        2.000        0.000        0.000        5.000        0.000        0.000        0.000      100.000        0.000        0.000        1.747        1.773        2.372
     810.000  -262071.264    24568.999    15490.132    33406.866      134.790  -385382.700    49710.650       25.697       25.629        2.895        3.155        3.107        3.184        3.192        3.005        2.711        2.506        2.662        2.644        2.415        2.460        3.006        2.991        3.123        2.934        0.497        1.000        0.000        0.000        2.000        2.000        0.000        0.000        1.000        0.000        0.000        0.000        1.000        0.000        0.000        0.000        4.000        0.000        0.000        0.000        0.000        0.000        0.000        0.000        0.000        1.000        4.000        0.000        1.000        0.000        0.000        1.000        2.000        0.000        0.000        0.000      100.000        0.000        0.000        1.578        1.609        2.297
     820.000  -260563.194    26079.150    15740.047    33321.353      134.953  -383366.876    47528.180       25.558       25.779        2.900        3.219        3.134        3.169        3.177        3.031        2.735        2.566        2.663        2.656        2.410        2.515        3.099        2.943        3.106        2.901        0.502        1.000        0.000        0.000        2.000        1.000        0.000        0.000        2.000        0.000        0.000        0.000        0.000        0.000        0.000        0.000        3.000        0.000        0.000        0.000        0.000        0.000        0.000        0.000        0.000        1.000        2.000        0.000        3.000        0.000        0.000        0.000        6.000        0.000        0.000        0.000      100.000        0.000        0.000        1.407        1.469        2.182
     830.000  -262195.701    25770.900    15863.961    33199.758      162.306  -385531.843    48339.217       25.686       25.875        2.852        3.127        3.128        3.147        3.247        3.062        2.714        2.550        2.667        2.654        2.423        2.582        3.050        3.021        3.139        3.023        0.459        1.000        0.000        0.000        2.000        0.000        0.000        0.000        1.000        0.000        0.000        0.000        0.000        0.000        0.000        0.000        5.000        0.000        0.000        0.000        0.000        0.000        0.000        0.000        0.000        2.000        4.000        0.000        2.000        0.000        0.000        0.000        2.000        0.000        0.000        0.000      100.000        0.000        0.000        1.536        1.607        2.343
     840.000  -260634.655    25555.631    15273.323    33285.791      114.543  -382829.912    47965.969       25.735       25.819        2.755        3.169        3.162        3.111        3.207        3.016        2.689        2.566        2.677        2.615        2.437        2.532        3.077        3.000        3.084        2.890        0.478        1.000        0.000        0.000        2.000        1.000        0.000        0.000        1.000        1.000        0.000        0.000        0.000        0.000        0.000        0.000        3.000        0.000        0.000        0.000        0.000        0.000        0.000        0.000        0.000        2.000        3.000        1.000        4.000        0.000        0.000        1.000        4.000        0.000        0.000        0.000      100.000        0.000        0.000        1.891        1.922        2.567
     850.000  -260940.141    26325.610    15387.096    33260.139      140.957  -383364.624    47310.682       25.825       25.876        2.929        3.120        3.103        3.071        3.197        3.076        2.685        2.519        2.674        2.621        2.411        2.518        3.096        2.995        3.105        2.958        0.485        1.000        0.000        0.000        2.000        1.000        0.000        0.000        2.000        0.000        0.000        0.000        1.000        0.000        0.000        0.000        2.000        0.000        0.000        0.000        0.000        0.000        0.000        0.000        0.000        1.000        4.000        0.000        3.000        1.000        0.000        2.000        2.000        0.000        0.000        0.000      100.000        0.000        0.000        1.954        2.017        2.591
     860.000  -260742.443    25745.469    15264.735    33199.457      164.341  -382655.021    47538.576       25.798       25.920        2.876        3.195        3.166        3.105        3.193        2.984        2.688        2.508        2.661        2.626        2.409        2.505        3.001        2.958        3.083        2.955        0.470        1.000        0.000        0.000        2.000        1.000        0.000        0.000        0.000        0.000        0.000        0.000        1.000        0.000        0.000        0.000        5.000        0.000        0.000        0.000        0.000        0.000        0.000        0.000        0.000        1.000        5.000        0.000        3.000        4.000        0.000        2.000        5.000        0.000        0.000        0.000      100.000        0.000        0.000        2.170        2.233        2.931
     870.000  -261030.316    25234.464    15669.665    33167.560      156.662  -383769.182    48510.514       25.721       25.792        2.806        3.165        3.129        3.159        3.199        2.978        2.696        2.515        2.658        2.691        2.442        2.527        3.077        2.993        3.052        2.977        0.496        1.000        1.000        0.000        2.000        0.000        0.000        0.000        1.000        0.000        0.000        0.000        1.000        0.000        0.000        0.000        3.000        0.000        0.000        0.000        0.000        0.000        0.000        0.000        0.000        2.000        2.000        0.000        4.000        1.000        0.000        1.000        2.000        0.000        0.000        0.000      100.000        0.000        0.000        1.914        1.963        2.937
     880.000  -260914.656    26570.785    15560.348    33101.628      153.538  -384831.330    48530.375       25.718       25.801        2.798        3.183        3.179        3.109        3.250        3.022        2.716        2.572        2.691        2.632        2.391        2.497        3.087        3.010        3.149        2.939        0.498        1.000        1.000        0.000        2.000        0.000        0.000        0.000        2.000        0.000        0.000        0.000        0.000        1.000        0.000        0.000        2.000        0.000        0.000        0.000        0.000        0.000        0.000        0.000        0.000        1.000        3.000        0.000        1.000        1.000        0.000        2.000        5.000        0.000        0.000        0.000      100.000        0.000        0.000        1.779        1.843        2.797
     890.000  -260565.513    25586.549    15233.917    33315.848      155.229  -382108.355    47251.299       25.717       26.021        2.805        3.177        3.199        3.107        3.171        3.017        2.711        2.497        2.674        2.617        2.420        2.467        3.039        2.923        3.131        2.953        0.477        1.000        1.000        0.000        2.000        0.000        0.000        0.000        2.000        0.000        0.000        0.000        0.000        0.000        0.000        0.000        1.000        0.000        0.000        0.000        0.000        0.000        0.000        0.000        0.000        1.000        4.000        0.000        4.000        1.000        0.000        0.000        3.000        0.000        0.000        0.000      100.000        0.000        0.000        2.040        2.121        2.830
     900.000  -261807.692    26057.996    15594.651    33380.645      125.514  -383709.901    46743.403       25.592       25.765        2.812        3.169        3.100        3.090        3.198        3.031        2.689        2.566        2.688        2.615        2.438        2.547        3.030        2.968        3.046        2.966        0.484        1.000        1.000        0.000        2.000        1.000        0.000        0.000        2.000        1.000        0.000        0.000        0.000        1.000        0.000        0.000        2.000        0.000        0.000        0.000        0.000        0.000        0.000        0.000        0.000        0.000        3.000        0.000        2.000        0.000        0.000        1.000        3.000        0.000        0.000        0.000      100.000        0.000        0.000        1.816        1.904        2.573
     910.000  -260868.561    24650.866    15516.218    33277.347      146.621  -383515.793    49056.180       25.574       25.901        2.828        3.130        3.100        3.112        3.188        2.933        2.651        2.528        2.661        2.676        2.384        2.515        3.067        2.948        3.075        2.986        0.495        1.000        1.000        0.000        2.000        2.000        0.000        0.000        1.000        0.000        0.000        0.000        0.000        1.000        0.000        0.000        2.000        0.000        0.000        0.000        0.000        0.000        0.000        0.000        0.000        3.000        4.000        0.000        2.000        0.000        0.000        0.000        3.000        0.000        0.000        0.000      100.000        0.000        0.000        1.466        1.543        2.155
     920.000  -261578.025    26044.740    15502.475    33174.241      154.205  -383606.813    47153.128       25.363       25.538        2.790        3.200        3.140        3.118        3.221        3.082        2.698        2.523        2.638        2.633        2.469        2.516        3.051        3.040        3.116        3.003        0.502        0.000        1.000        0.000        2.000        1.000        0.000        0.000        2.000        1.000        0.000        0.000        0.000        1.000        0.000        0.000        4.000        0.000        0.000        0.000        0.000        0.000        0.000        0.000        0.000        0.000        1.000        0.000        1.000        1.000        0.000        1.000        3.000        0.000        0.000        0.000      100.000        0.000        0.000        1.512        1.582        2.214
     930.000  -261074.716    26018.504    15393.020    33211.697      120.693  -383064.301    47245.671       25.564       25.635        2.763        3.177        3.183        3.160        3.242        3.094        2.707        2.562        2.700        2.664        2.453        2.528        3.057        3.020        3.054        3.001        0.490        1.000        1.000        0.000        2.000        2.000        0.000        0.000        1.000        0.000        0.000        0.000        0.000        1.000        0.000        0.000        6.000        0.000        0.000        0.000        0.000        0.000        0.000        0.000        0.000        1.000        2.000        0.000        1.000        3.000        0.000        2.000        4.000        0.000        0.000        0.000      100.000        0.000        0.000        1.898        1.983        2.503
     940.000  -260427.291    26493.178    15184.607    33303.942      165.532  -381613.708    46039.159       25.553       25.532        2.863        3.148        3.204        3.098        3.214        2.977        2.664        2.501        2.672        2.640        2.452        2.532        3.139        2.958        3.100        2.969        0.500        0.000        1.000        0.000        2.000        1.000        0.000        0.000        1.000        0.000        0.000        0.000        0.000        0.000        0.000        0.000        3.000        0.000        0.000        0.000        0.000        0.000        0.000        0.000        0.000        1.000        2.000        0.000        3.000        0.000        0.000        0.000        3.000        0.000        0.000        0.000      100.000        0.000        0.000        1.872        1.953        2.624
     950.000  -261256.483    25359.459    15582.802    33335.463      152.506  -383039.099    47352.385       25.674       25.726        2.864        3.249        3.183        3.166        3.198        3.015        2.690        2.576        2.669        2.650        2.428        2.474        3.054        3.016        3.074        2.902        0.480        1.000        0.000        0.000        2.000        1.000        0.000        0.000        1.000        0.000        0.000        0.000        0.000        1.000        0.000        0.000        5.000        0.000        0.000        0.000        0.000        0.000        0.000        0.000        0.000        0.000        3.000        0.000        2.000        1.000        0.000        1.000        3.000        0.000        0.000        0.000      100.000        0.000        0.000        2.331        2.421        2.836
     960.000  -261398.725    25871.173    15382.391    33425.474      188.967  -384749.618    48482.889       25.404       25.443        2.835        3.203        3.066        3.223        3.240        3.000        2.637        2.534        2.640        2.652        2.497        2.494        3.042        2.999        3.071        2.939        0.480        1.000        0.000        0.000        1.000        0.000        0.000        0.000        1.000        0.000        0.000        0.000        0.000        0.000        0.000        0.000        4.000        0.000        0.000        0.000        0.000        0.000        0.000        0.000        0.000        1.000        0.000        0.000        2.000        2.000        0.000        2.000        3.000        0.000        0.000        0.000      100.000        0.000        0.000        2.208        2.291        2.645
     970.000  -260743.726    26237.980    15334.575    33161.481      130.959  -382952.620    47343.899       25.617       25.651        2.792        3.126        3.107        3.099        3.227        3.027        2.653        2.530        2.716        2.659        2.459        2.494        2.993        3.019        3.144        2.891        0.481        1.000        0.000        0.000        2.000        1.000        0.000        0.000        1.000        0.000        2.000        0.000        0.000        0.000        0.000        0.000        4.000        0.000        0.000        0.000        0.000        0.000        0.000        0.000        0.000        2.000        3.000        0.000        3.000        1.000        0.000        0.000        3.000        0.000        0.000        0.000      100.000        0.000        0.000        1.901        1.960        2.350
     980.000  -261465.816    25200.514    15533.530    33340.745      126.742  -383517.439    47850.092       25.697       25.648        2.860        3.217        3.157        3.163        3.215        3.031        2.657        2.500        2.658        2.587        2.504        2.495        3.079        2.956        3.059        2.933        0.484        1.000        1.000        0.000        1.000        1.000        0.000        0.000        1.000        0.000        0.000        0.000        0.000        0.000        0.000        0.000        2.000        0.000        0.000        0.000        0.000        0.000        0.000        0.000        0.000        2.000        2.000        0.000        2.000        3.000        0.000        3.000        1.000        0.000        4.494        0.000       95.506        0.000        0.000        1.829        1.881        2.535
     990.000  -261449.379    26264.247    15347.643    33418.102      133.147  -382800.001    46187.482       25.745       25.449        2.837        3.156        3.112        3.150        3.241        3.083        2.689        2.491        2.688        2.643        2.435        2.456        3.071        2.950        3.125        2.948        0.484        1.000        0.000        0.000        2.000        1.000        0.000        0.000        1.000        0.000        0.000        0.000        0.000        0.000        0.000        0.000        2.000        0.000        0.000        0.000        0.000        0.000        0.000        0.000        0.000        1.000        3.000        0.000        3.000        0.000        0.000        0.000        4.000        0.000        0.000        0.000      100.000        0.000        0.000        1.737        1.793        2.647
    1000.000  -260897.014    26062.966    15173.902    33540.436      113.055  -384778.691    48991.317       25.915       25.584        2.906        3.160        3.115        3.168        3.193        3.001        2.676        2.525        2.703        2.618        2.404        2.492        3.059        2.936        3.158        2.965        0.484        1.000        0.000        0.000        1.000        0.000        0.000        0.000        1.000        0.000        0.000        0.000        1.000        0.000        0.000        0.000        1.000        0.000        0.000        0.000        0.000        0.000        0.000        0.000        0.000        0.000        4.000        1.000        3.000        3.000        0.000        2.000        3.000        0.000        0.000        0.000      100.000        0.000        0.000        1.796        1.835        2.496
     Average  -263037.680    26431.899    15547.024    33347.816      136.852  -386821.421    48320.150       25.721       25.732        2.909        3.153        3.121        3.124        3.192        3.025        2.691        2.544        2.667        2.650        2.490        2.512        3.063        2.962        3.044        2.936        0.487        0.277        0.535        0.000        1.347        1.574        0.000        0.000        1.228        0.505        0.168        0.000        0.446        0.475        0.000        0.505        3.040        0.000        0.000        0.000        0.000        0.000        0.000        0.000        0.000        1.376        2.634        0.208        2.059        0.861        0.000        1.099        3.743        0.000        1.324        0.000       98.676        0.000        0.000        1.778        1.807        2.225

