____Time[ps] Energy[ kJ/mol ]_____Bond _______Angle ____Dihedral ___Planarity _____Coulomb _________VdW _Your result _Your result _Your result _Your result _Your result _Your result _Your result _Your result _Your result _Your result _Your result _Your result _Your result _Your result _Your result _Your result _Your result _Your result _Your result _Your result _Your result _Your result _Your result _Your result _Your result _Your result _Your result _Your result _Your result _Your result _Your result _Your result _Your result _Your result _Your result _Your result _Your result _Your result _Your result _Your result _Your result _Your result _Your result _Your result _Your result _Your result _Your result _Your result _Your result _Your result _Your result _Your result _Your result _Your result _Your result _Your result _Your result _RMSDs[A]:CA ____Backbone __HeavyAtoms
       0.000  -358014.190     8341.509     5259.671    32691.434       19.154  -474366.527    70040.569       25.329       25.097        2.814        2.985        3.196        3.249        3.202        3.048        2.660        3.024        3.201        3.167        3.116        2.675        2.942        2.917        3.112        2.939        0.489        1.000        0.000        0.000        0.000        1.000        0.000        0.000        0.000        1.000        0.000        0.000        0.000        0.000        0.000        0.000        5.000        0.000        0.000        0.000        0.000        0.000        0.000        0.000        0.000        0.000        0.000        1.000        0.000        1.000        0.000        1.000        2.000        0.000        4.494        0.000       95.506        0.000        0.000        0.463        0.493        0.588
      10.000  -269615.720    31515.643    16067.805    32557.531      138.330  -401498.861    51603.832       25.803       25.750        2.809        2.988        3.140        3.222        3.202        3.056        2.675        3.062        3.233        3.155        3.054        2.584        2.919        2.913        3.123        2.954        0.493        0.000        0.000        0.000        0.000        1.000        0.000        0.000        0.000        1.000        0.000        0.000        0.000        0.000        0.000        0.000        2.000        0.000        0.000        0.000        0.000        0.000        0.000        0.000        0.000        0.000        0.000        0.000        0.000        0.000        0.000        0.000        3.000        0.000        0.000        0.000      100.000        0.000        0.000        1.129        1.146        1.363
      20.000  -268566.893    30954.589    15966.430    32627.472      120.604  -399516.031    51280.044       26.049       25.908        2.792        3.063        3.106        3.207        3.214        3.047        2.714        3.081        3.177        3.190        3.226        2.576        2.942        2.972        3.069        3.085        0.496        1.000        0.000        0.000        0.000        1.000        0.000        0.000        0.000        1.000        0.000        0.000        0.000        0.000        0.000        0.000        1.000        0.000        0.000        0.000        0.000        0.000        0.000        0.000        0.000        0.000        0.000        0.000        0.000        0.000        0.000        0.000        4.000        0.000        0.000        0.000      100.000        0.000        0.000        1.212        1.233        1.483
      30.000  -268866.936    30516.894    16184.841    32638.207      132.250  -400821.405    52482.277       25.945       26.046        2.790        3.015        3.070        3.169        3.263        3.069        2.700        2.998        3.223        3.222        3.152        2.542        2.951        2.970        3.099        2.986        0.462        0.000        0.000        0.000        0.000        1.000        0.000        0.000        0.000        0.000        0.000        0.000        0.000        0.000        0.000        0.000        4.000        0.000        0.000        0.000        0.000        0.000        0.000        0.000        0.000        0.000        0.000        2.000        0.000        0.000        0.000        0.000        4.000        0.000        0.000        0.000      100.000        0.000        0.000        1.235        1.246        1.547
      40.000  -268765.978    29878.519    16359.153    32527.051      151.658  -399464.325    51781.966       25.922       25.952        2.945        3.002        3.091        3.199        3.234        3.088        2.657        3.040        3.170        3.215        3.159        2.552        2.998        2.954        3.137        3.039        0.497        0.000        0.000        0.000        0.000        1.000        0.000        0.000        0.000        1.000        0.000        1.000        0.000        0.000        0.000        0.000        4.000        0.000        0.000        0.000        0.000        0.000        0.000        0.000        0.000        2.000        0.000        0.000        0.000        0.000        0.000        0.000        5.000        0.000        0.000        0.000      100.000        0.000        0.000        1.330        1.353        1.654
      50.000  -267855.953    29811.870    16395.617    32587.235      142.398  -397570.632    50777.559       25.837       25.706        2.906        3.029        3.090        3.222        3.290        3.042        2.685        3.001        3.215        3.246        3.160        2.507        2.919        2.950        3.085        2.947        0.472        0.000        0.000        0.000        0.000        1.000        0.000        0.000        0.000        0.000        0.000        0.000        0.000        0.000        0.000        0.000        6.000        0.000        0.000        0.000        0.000        0.000        0.000        0.000        0.000        0.000        0.000        1.000        0.000        1.000        0.000        0.000        2.000        0.000        0.000        0.000      100.000        0.000        0.000        1.469        1.488        1.690
      60.000  -267210.006    29028.848    16577.655    32603.001      132.949  -397246.320    51693.860       25.569       25.586        2.900        2.985        3.106        3.174        3.218        3.039        2.685        3.041        3.159        3.222        3.201        2.533        2.945        2.922        3.116        2.990        0.481        0.000        0.000        0.000        0.000        1.000        0.000        0.000        0.000        1.000        0.000        1.000        0.000        0.000        0.000        0.000        4.000        0.000        0.000        0.000        0.000        0.000        0.000        0.000        0.000        1.000        0.000        1.000        0.000        0.000        0.000        0.000        3.000        0.000        0.000        0.000      100.000        0.000        0.000        1.583        1.612        1.833
      70.000  -267129.813    28282.973    16480.037    32373.333      128.253  -394641.544    50247.136       25.857       25.819        2.816        2.902        3.134        3.189        3.238        3.074        2.683        2.952        3.216        3.256        3.152        2.556        2.997        2.914        3.099        2.955        0.483        0.000        0.000        0.000        0.000        1.000        0.000        0.000        0.000        1.000        0.000        0.000        0.000        0.000        0.000        0.000        1.000        0.000        0.000        0.000        0.000        0.000        0.000        0.000        0.000        1.000        0.000        3.000        0.000        0.000        0.000        0.000        4.000        0.000        0.000        0.000      100.000        0.000        0.000        1.787        1.827        1.935
      80.000  -266912.958    27994.623    16658.514    32660.233      123.027  -396321.924    51972.569       25.761       25.518        2.962        2.988        3.145        3.121        3.238        3.099        2.722        3.032        3.222        3.196        3.160        2.534        2.923        2.947        3.071        2.945        0.503        0.000        0.000        0.000        0.000        1.000        0.000        0.000        0.000        0.000        0.000        0.000        0.000        0.000        0.000        0.000        5.000        0.000        0.000        0.000        0.000        0.000        0.000        0.000        0.000        0.000        0.000        1.000        0.000        0.000        0.000        1.000        4.000        0.000        0.000        0.000      100.000        0.000        0.000        1.664        1.713        1.930
      90.000  -266740.410    27752.182    16560.246    32445.536      134.382  -394376.272    50743.517       25.898       25.799        2.935        2.944        3.202        3.100        3.258        3.058        2.684        3.064        3.212        3.208        3.198        2.597        2.979        2.953        3.074        2.973        0.482        0.000        0.000        0.000        0.000        1.000        0.000        0.000        0.000        1.000        0.000        1.000        0.000        0.000        0.000        0.000        5.000        0.000        0.000        0.000        0.000        0.000        0.000        0.000        0.000        0.000        0.000        2.000        0.000        0.000        0.000        1.000        2.000        0.000        0.000        0.000      100.000        0.000        0.000        2.193        2.232        2.361
     100.000  -266590.360    27948.511    16228.193    32638.117      109.103  -395575.483    52061.199       25.680       25.768        2.899        2.991        3.181        3.112        3.250        3.048        2.657        3.035        3.210        3.209        3.149        2.562        2.935        2.903        3.099        2.946        0.486        0.000        0.000        0.000        0.000        1.000        0.000        0.000        0.000        1.000        0.000        0.000        0.000        0.000        0.000        0.000        4.000        0.000        0.000        0.000        0.000        0.000        0.000        0.000        0.000        0.000        0.000        2.000        0.000        0.000        0.000        0.000        6.000        0.000        0.000        0.000      100.000        0.000        0.000        2.151        2.197        2.302
     110.000  -266164.454    28758.152    16715.493    32566.900      157.256  -393441.694    49079.439       25.896       25.714        2.869        3.055        3.168        3.180        3.210        3.010        2.672        3.094        3.243        3.201        3.200        2.604        2.894        2.900        3.087        2.955        0.502        0.000        0.000        0.000        0.000        1.000        0.000        0.000        0.000        0.000        0.000        0.000        0.000        0.000        0.000        0.000        4.000        0.000        0.000        0.000        0.000        0.000        0.000        0.000        0.000        0.000        0.000        0.000        0.000        0.000        0.000        0.000        5.000        0.000        0.000        0.000      100.000        0.000        0.000        2.211        2.300        2.355
     120.000  -266286.337    28608.805    16288.920    32537.596      134.389  -393049.237    49193.191       25.950       25.948        2.917        2.953        3.152        3.164        3.207        3.054        2.702        3.117        3.205        3.195        3.153        2.509        2.910        2.940        3.073        2.983        0.496        1.000        0.000        0.000        0.000        1.000        0.000        0.000        0.000        1.000        0.000        0.000        0.000        0.000        0.000        0.000        0.000        0.000        0.000        0.000        0.000        0.000        0.000        0.000        0.000        2.000        0.000        0.000        0.000        0.000        0.000        2.000        4.000        0.000        0.000        0.000      100.000        0.000        0.000        1.999        2.089        2.246
     130.000  -265888.780    27097.164    16397.937    32699.416      136.782  -394218.063    51997.985       25.800       25.655        2.964        2.947        3.127        3.151        3.210        3.070        2.662        3.005        3.230        3.211        3.167        2.595        2.958        2.926        3.141        2.950        0.491        1.000        0.000        0.000        0.000        1.000        0.000        0.000        0.000        0.000        0.000        0.000        0.000        0.000        0.000        0.000        4.000        0.000        0.000        0.000        0.000        0.000        0.000        0.000        0.000        2.000        0.000        0.000        0.000        0.000        0.000        1.000        2.000        0.000        0.000        0.000      100.000        0.000        0.000        1.502        1.525        1.814
     140.000  -265609.604    28230.878    16411.255    32470.022      100.883  -391895.815    49073.174       26.069       25.879        2.919        2.972        3.123        3.202        3.210        3.058        2.703        3.044        3.230        3.195        3.172        2.565        2.921        2.911        3.148        2.967        0.486        1.000        0.000        0.000        0.000        1.000        0.000        0.000        0.000        0.000        0.000        1.000        0.000        0.000        0.000        0.000        1.000        0.000        0.000        0.000        0.000        0.000        0.000        0.000        0.000        0.000        0.000        0.000        0.000        0.000        0.000        0.000        5.000        0.000        0.000        0.000      100.000        0.000        0.000        1.522        1.529        1.891
     150.000  -265229.849    27190.306    16050.067    32699.534      124.602  -392128.819    50834.460       26.023       26.069        2.950        2.993        3.140        3.247        3.159        3.095        2.708        3.088        3.207        3.136        3.181        2.581        2.911        2.864        3.026        2.992        0.493        0.000        0.000        0.000        0.000        1.000        0.000        0.000        0.000        0.000        0.000        1.000        0.000        0.000        0.000        0.000        4.000        0.000        0.000        0.000        0.000        0.000        0.000        0.000        0.000        0.000        0.000        7.000        0.000        1.000        0.000        2.000        7.000        0.000        0.000        0.000      100.000        0.000        0.000        1.600        1.614        1.894
     160.000  -265331.469    26565.549    15904.774    32704.887      123.072  -391655.424    51025.674       25.599       25.699        2.862        2.960        3.116        3.216        3.203        3.058        2.679        3.038        3.227        3.204        3.162        2.589        2.905        2.932        3.082        2.972        0.489        0.000        0.000        0.000        0.000        1.000        0.000        0.000        0.000        0.000        0.000        1.000        0.000        0.000        0.000        0.000        1.000        0.000        0.000        0.000        0.000        0.000        0.000        0.000        0.000        0.000        0.000        1.000        0.000        1.000        0.000        1.000        1.000        0.000        0.000        0.000      100.000        0.000        0.000        1.003        1.020        1.559
     170.000  -265203.080    28424.106    16105.474    32563.694      132.990  -391114.575    48685.231       25.806       26.147        2.834        2.980        3.165        3.196        3.238        3.040        2.713        3.077        3.198        3.238        3.184        2.555        2.934        2.946        3.043        3.074        0.485        0.000        0.000        0.000        0.000        1.000        0.000        0.000        0.000        0.000        0.000        2.000        0.000        0.000        0.000        0.000        1.000        0.000        0.000        0.000        0.000        0.000        0.000        0.000        0.000        1.000        0.000        2.000        0.000        1.000        0.000        1.000        3.000        0.000        0.000        0.000      100.000        0.000        0.000        1.515        1.529        1.861
     180.000  -265124.717    26631.114    16147.470    32543.576      132.786  -391528.627    50948.964       25.780       26.240        2.870        3.053        3.145        3.260        3.169        3.046        2.678        2.960        3.265        3.147        3.197        2.607        2.919        2.943        3.028        2.989        0.479        0.000        0.000        0.000        0.000        1.000        0.000        0.000        0.000        1.000        0.000        0.000        0.000        0.000        0.000        0.000        1.000        0.000        0.000        0.000        0.000        0.000        0.000        0.000        0.000        0.000        0.000        6.000        0.000        1.000        0.000        0.000        2.000        0.000        0.000        0.000      100.000        0.000        0.000        1.615        1.636        1.963
     190.000  -265106.030    26658.763    16033.987    32660.476      133.467  -389874.008    49281.286       25.614       25.971        2.890        2.981        3.198        3.218        3.243        3.120        2.739        3.072        3.248        3.121        3.154        2.533        2.917        2.963        3.091        3.018        0.486        1.000        0.000        0.000        0.000        1.000        0.000        0.000        0.000        1.000        0.000        0.000        0.000        0.000        0.000        0.000        2.000        0.000        0.000        0.000        0.000        0.000        0.000        0.000        0.000        1.000        0.000        3.000        0.000        1.000        0.000        0.000        4.000        0.000        0.000        0.000      100.000        0.000        0.000        1.796        1.831        2.072
     200.000  -264782.444    26787.723    15949.322    32566.134      105.341  -391702.112    51511.147       25.630       25.978        3.075        3.009        3.185        3.218        3.167        3.040        2.681        3.059        3.242        3.223        3.091        2.483        2.928        2.925        3.079        3.017        0.498        0.000        0.000        0.000        0.000        1.000        0.000        0.000        0.000        1.000        0.000        0.000        0.000        0.000        0.000        0.000        1.000        0.000        0.000        0.000        0.000        0.000        0.000        0.000        0.000        0.000        0.000        1.000        0.000        0.000        0.000        0.000        9.000        0.000        0.000        0.000      100.000        0.000        0.000        1.814        1.850        2.168
     210.000  -264945.055    27155.735    16286.003    32455.643      145.949  -390418.785    49430.401       26.120       25.861        3.115        3.051        3.141        3.219        3.225        3.090        2.699        3.011        3.271        3.205        3.140        2.482        2.951        2.948        3.059        2.912        0.488        0.000        0.000        0.000        0.000        1.000        0.000        0.000        0.000        1.000        0.000        1.000        0.000        0.000        0.000        0.000        1.000        0.000        0.000        0.000        0.000        0.000        0.000        0.000        0.000        1.000        0.000        2.000        0.000        0.000        0.000        0.000        0.000        0.000        0.000        0.000      100.000        0.000        0.000        1.804        1.812        2.246
     220.000  -264681.309    27088.095    16002.895    32519.620      150.124  -389355.641    48913.598       25.979       26.029        3.157        3.017        3.172        3.189        3.196        3.091        2.675        3.043        3.306        3.203        3.127        2.562        2.908        2.977        3.098        3.092        0.486        1.000        0.000        0.000        0.000        1.000        0.000        0.000        0.000        1.000        0.000        0.000        0.000        0.000        0.000        0.000        1.000        0.000        0.000        0.000        0.000        0.000        0.000        0.000        0.000        2.000        0.000        0.000        0.000        0.000        0.000        0.000        3.000        0.000        0.000        0.000      100.000        0.000        0.000        1.533        1.533        2.062
     230.000  -264057.574    27679.608    16217.499    32390.692      138.420  -388178.030    47694.237       25.930       26.029        3.164        3.073        3.163        3.257        3.118        3.062        2.697        2.989        3.295        3.182        3.142        2.577        2.905        2.912        3.167        3.011        0.500        0.000        0.000        0.000        0.000        1.000        0.000        0.000        0.000        0.000        0.000        0.000        0.000        0.000        0.000        0.000        4.000        0.000        0.000        0.000        0.000        0.000        0.000        0.000        0.000        0.000        0.000        0.000        0.000        2.000        0.000        0.000        2.000        0.000        0.000        0.000      100.000        0.000        0.000        1.637        1.640        2.183
     240.000  -264168.993    26777.134    16043.248    32613.955      125.387  -388838.639    49109.922       25.836       25.963        3.159        3.095        3.151        3.240        3.210        3.139        2.672        2.968        3.318        3.168        3.080        2.524        2.987        3.002        3.085        3.025        0.512        2.000        0.000        0.000        0.000        1.000        0.000        0.000        0.000        1.000        0.000        0.000        0.000        0.000        0.000        0.000        2.000        0.000        0.000        0.000        0.000        0.000        0.000        0.000        0.000        1.000        0.000        1.000        0.000        0.000        0.000        1.000        2.000        0.000        4.494        0.000       95.506        0.000        0.000        1.733        1.751        2.266
     250.000  -264282.981    27946.442    15719.410    32623.799      135.865  -388256.416    47547.918       25.772       26.170        3.133        3.019        3.091        3.231        3.213        3.064        2.729        2.917        3.239        3.187        3.173        2.584        2.956        2.953        3.103        3.056        0.513        1.000        0.000        0.000        0.000        0.000        0.000        0.000        0.000        1.000        0.000        1.000        0.000        0.000        0.000        0.000        3.000        0.000        0.000        0.000        0.000        0.000        0.000        0.000        0.000        0.000        0.000        0.000        0.000        1.000        0.000        0.000        5.000        0.000        0.000        0.000      100.000        0.000        0.000        1.795        1.792        2.328
     260.000  -264613.697    26735.473    15586.815    32660.542      146.370  -389604.876    49861.978       26.016       25.960        3.183        3.066        3.034        3.243        3.315        3.001        2.715        3.042        3.249        3.204        3.089        2.552        3.002        3.013        3.223        3.019        0.495        1.000        0.000        0.000        0.000        1.000        0.000        0.000        0.000        0.000        0.000        0.000        0.000        0.000        0.000        0.000        0.000        0.000        0.000        0.000        0.000        0.000        0.000        0.000        0.000        0.000        0.000        1.000        0.000        0.000        0.000        0.000        3.000        0.000        0.000        0.000      100.000        0.000        0.000        1.574        1.554        2.287
     270.000  -263755.469    26392.810    15822.038    32509.307      127.471  -387876.721    49269.625       25.948       25.911        3.110        3.053        3.149        3.191        3.267        3.042        2.720        3.014        3.169        3.118        3.096        2.601        2.943        2.986        3.163        3.052        0.479        0.000        0.000        0.000        0.000        1.000        0.000        0.000        0.000        1.000        0.000        0.000        0.000        1.000        0.000        0.000        1.000        0.000        0.000        0.000        0.000        0.000        0.000        0.000        0.000        1.000        0.000        0.000        0.000        2.000        0.000        0.000        8.000        0.000        0.000        0.000      100.000        0.000        0.000        1.581        1.567        2.328
     280.000  -264012.900    26579.403    15849.134    32767.851      160.360  -388471.572    49101.924       25.854       25.912        2.931        3.133        3.095        3.266        3.299        3.048        2.670        2.944        3.169        3.214        3.177        2.580        2.909        2.954        3.055        2.958        0.498        0.000        0.000        0.000        0.000        1.000        0.000        0.000        0.000        1.000        0.000        0.000        0.000        0.000        0.000        2.000        2.000        0.000        0.000        0.000        0.000        0.000        0.000        0.000        0.000        2.000        0.000        3.000        0.000        1.000        0.000        0.000        6.000        0.000        0.000        0.000      100.000        0.000        0.000        1.593        1.612        2.286
     290.000  -263915.209    26158.614    15574.736    32638.259      143.575  -387517.224    49086.831       25.592       25.927        2.983        3.107        3.117        3.230        3.239        3.048        2.686        3.043        3.273        3.118        3.179        2.569        2.960        3.012        3.162        2.955        0.496        0.000        0.000        0.000        0.000        1.000        0.000        0.000        0.000        0.000        0.000        0.000        0.000        0.000        0.000        0.000        2.000        0.000        0.000        0.000        0.000        0.000        0.000        0.000        0.000        4.000        0.000        2.000        0.000        1.000        0.000        0.000        3.000        0.000        0.000        0.000      100.000        0.000        0.000        1.391        1.382        2.252
     300.000  -264430.378    27137.103    15778.415    32575.841      150.978  -388628.597    48555.883       25.780       25.892        2.993        3.109        3.126        3.173        3.310        3.095        2.733        3.046        3.255        3.208        3.156        2.557        2.991        2.945        3.101        2.956        0.483        1.000        0.000        0.000        0.000        0.000        0.000        0.000        0.000        0.000        0.000        0.000        0.000        0.000        0.000        0.000        0.000        0.000        0.000        0.000        0.000        0.000        0.000        0.000        0.000        1.000        0.000        0.000        0.000        1.000        0.000        0.000        6.000        0.000        0.000        0.000      100.000        0.000        0.000        1.370        1.389        2.380
     310.000  -264141.085    26667.748    15735.971    32669.617      150.485  -388351.480    48986.573       25.861       25.808        2.982        3.092        3.119        3.256        3.236        3.090        2.672        3.051        3.241        3.155        3.163        2.562        2.936        2.955        3.116        2.946        0.501        0.000        0.000        0.000        0.000        1.000        0.000        0.000        1.000        1.000        0.000        0.000        0.000        0.000        0.000        0.000        4.000        0.000        0.000        0.000        0.000        0.000        0.000        0.000        0.000        1.000        0.000        1.000        0.000        1.000        0.000        0.000        6.000        0.000        0.000        0.000      100.000        0.000        0.000        1.436        1.440        2.382
     320.000  -263597.193    27299.607    15693.357    32510.757      128.997  -387883.605    48653.694       25.537       25.805        2.906        3.128        3.095        3.162        3.285        3.084        2.701        3.071        3.277        3.181        3.189        2.533        3.013        2.916        3.117        2.977        0.493        0.000        0.000        0.000        0.000        1.000        0.000        0.000        1.000        0.000        0.000        0.000        0.000        0.000        0.000        0.000        2.000        0.000        0.000        0.000        0.000        0.000        0.000        0.000        0.000        1.000        0.000        3.000        0.000        1.000        0.000        0.000        6.000        0.000        0.000        0.000      100.000        0.000        0.000        1.414        1.420        2.235
     330.000  -263960.167    26900.119    15774.694    32688.756      139.836  -389337.655    49874.084       25.500       25.549        2.931        3.108        3.147        3.177        3.234        3.079        2.692        3.045        3.212        3.194        3.202        2.556        2.999        2.941        3.132        2.992        0.501        0.000        0.000        0.000        0.000        1.000        0.000        0.000        0.000        1.000        0.000        0.000        0.000        0.000        0.000        0.000        2.000        0.000        0.000        0.000        0.000        0.000        0.000        0.000        0.000        0.000        0.000        1.000        0.000        0.000        0.000        0.000        4.000        0.000        0.000        0.000      100.000        0.000        0.000        1.588        1.587        2.508
     340.000  -264085.711    27405.702    15611.574    32582.482      126.347  -387978.439    48166.623       25.746       25.598        2.945        3.116        3.093        3.218        3.225        3.087        2.681        3.027        3.180        3.213        3.144        2.494        2.939        2.968        3.178        3.004        0.492        0.000        0.000        0.000        0.000        1.000        0.000        0.000        0.000        1.000        0.000        0.000        0.000        0.000        0.000        0.000        5.000        0.000        0.000        0.000        0.000        0.000        0.000        0.000        0.000        2.000        0.000        1.000        0.000        2.000        0.000        0.000        8.000        0.000        0.000        0.000      100.000        0.000        0.000        1.934        1.954        2.630
     350.000  -263510.470    26776.163    16215.627    32711.031      138.333  -388389.219    49037.596       25.792       25.950        2.962        3.087        3.100        3.234        3.250        3.156        2.689        3.062        3.215        3.215        3.189        2.581        2.867        2.970        3.207        3.033        0.485        0.000        0.000        0.000        0.000        1.000        0.000        0.000        0.000        1.000        0.000        0.000        0.000        0.000        0.000        0.000        1.000        0.000        0.000        0.000        0.000        0.000        0.000        0.000        0.000        2.000        0.000        1.000        0.000        1.000        0.000        0.000        7.000        0.000        0.000        0.000      100.000        0.000        0.000        1.727        1.770        2.487
     360.000  -263584.870    26232.418    15831.426    32664.198      120.535  -388076.204    49642.756       25.854       25.941        3.033        3.134        3.074        3.165        3.294        3.171        2.670        3.074        3.215        3.195        3.169        2.525        2.905        2.928        3.279        2.993        0.482        0.000        0.000        0.000        0.000        1.000        0.000        0.000        0.000        1.000        0.000        0.000        0.000        0.000        0.000        0.000        2.000        0.000        0.000        0.000        0.000        0.000        0.000        0.000        0.000        1.000        0.000        4.000        0.000        2.000        0.000        0.000        4.000        0.000        0.000        0.000      100.000        0.000        0.000        1.686        1.732        2.513
     370.000  -264692.540    26911.680    15692.724    32845.803      113.878  -389258.688    49002.063       25.546       25.373        2.990        3.085        3.123        3.230        3.225        3.035        2.676        3.112        3.218        3.187        3.164        2.491        2.862        2.936        3.212        3.063        0.464        1.000        0.000        0.000        0.000        0.000        0.000        0.000        0.000        1.000        0.000        0.000        0.000        0.000        0.000        0.000        2.000        0.000        0.000        0.000        0.000        0.000        0.000        0.000        0.000        3.000        0.000        2.000        0.000        1.000        0.000        0.000        5.000        0.000        0.000        0.000      100.000        0.000        0.000        1.399        1.450        2.460
     380.000  -264134.899    27209.905    16082.129    32527.114      144.873  -388314.008    48215.087       25.881       25.876        2.950        3.147        3.116        3.195        3.240        3.052        2.678        3.002        3.192        3.226        3.162        2.496        2.910        2.998        3.288        3.058        0.491        0.000        0.000        0.000        0.000        1.000        0.000        0.000        0.000        0.000        0.000        0.000        0.000        0.000        0.000        0.000        1.000        0.000        0.000        0.000        0.000        0.000        0.000        0.000        0.000        4.000        0.000        1.000        0.000        1.000        0.000        1.000        3.000        0.000        0.000        0.000      100.000        0.000        0.000        1.650        1.687        2.643
     390.000  -262923.169    26801.017    15570.704    32560.748      136.935  -386086.407    48093.834       25.837       26.234        3.037        3.123        3.146        3.190        3.235        3.089        2.723        2.939        3.229        3.173        3.212        2.497        3.059        2.984        3.273        3.001        0.485        1.000        0.000        1.000        0.000        1.000        0.000        0.000        0.000        1.000        0.000        0.000        0.000        0.000        0.000        0.000        1.000        0.000        0.000        0.000        0.000        0.000        0.000        0.000        0.000        2.000        0.000        2.000        0.000        0.000        0.000        0.000        4.000        0.000        0.000        0.000      100.000        0.000        0.000        1.753        1.768        2.706
     400.000  -264021.775    27327.480    15408.247    32412.981      142.216  -388072.817    48760.117       25.633       25.929        2.960        3.132        3.105        3.187        3.245        3.146        2.702        3.073        3.180        3.206        3.191        2.542        2.956        2.971        3.284        3.021        0.486        0.000        0.000        0.000        0.000        1.000        0.000        0.000        0.000        0.000        0.000        0.000        0.000        0.000        0.000        0.000        0.000        0.000        0.000        0.000        0.000        0.000        0.000        0.000        0.000        2.000        0.000        2.000        0.000        0.000        0.000        0.000        4.000        0.000        0.000        0.000      100.000        0.000        0.000        1.645        1.660        2.674
     410.000  -263160.033    25615.904    15790.878    32665.077      135.626  -387171.153    49803.634       26.083       25.689        2.949        3.047        3.040        3.196        3.245        3.139        2.687        2.994        3.221        3.223        3.149        2.564        2.978        2.976        3.286        3.054        0.482        1.000        0.000        1.000        0.000        0.000        0.000        0.000        0.000        0.000        0.000        0.000        0.000        0.000        0.000        0.000        1.000        0.000        0.000        0.000        0.000        0.000        0.000        0.000        0.000        1.000        0.000        3.000        0.000        0.000        0.000        0.000        1.000        0.000        4.494        0.000       95.506        0.000        0.000        1.685        1.713        2.737
     420.000  -263360.864    26873.220    15764.641    32350.083      124.558  -386241.287    47767.921       26.227       26.274        2.908        3.104        3.079        3.155        3.251        3.197        2.680        3.017        3.193        3.227        3.207        2.497        2.883        3.038        3.208        3.032        0.477        1.000        0.000        1.000        0.000        1.000        0.000        0.000        0.000        0.000        0.000        0.000        0.000        0.000        0.000        1.000        2.000        0.000        0.000        0.000        0.000        0.000        0.000        0.000        0.000        2.000        0.000        1.000        0.000        1.000        0.000        1.000        1.000        0.000        0.000        0.000      100.000        0.000        0.000        1.616        1.642        2.716
     430.000  -263201.883    25988.734    15541.677    32532.893      136.263  -386642.548    49241.098       25.609       25.833        2.957        3.071        3.023        3.178        3.274        3.079        2.655        3.067        3.206        3.196        3.240        2.549        2.959        2.969        3.278        2.994        0.507        0.000        0.000        1.000        0.000        1.000        0.000        0.000        0.000        0.000        0.000        0.000        0.000        0.000        0.000        0.000        2.000        0.000        0.000        0.000        0.000        0.000        0.000        0.000        0.000        2.000        0.000        2.000        0.000        2.000        0.000        0.000        4.000        0.000        0.000        0.000      100.000        0.000        0.000        1.421        1.456        2.619
     440.000  -263418.557    27636.500    15543.353    32567.919      176.565  -386340.525    46997.630       25.956       25.839        2.922        3.109        3.116        3.211        3.242        3.096        2.715        3.046        3.263        3.176        3.197        2.580        2.947        2.985        3.251        2.903        0.469        0.000        0.000        1.000        0.000        1.000        0.000        0.000        0.000        1.000        0.000        0.000        0.000        0.000        0.000        0.000        3.000        0.000        0.000        0.000        0.000        0.000        0.000        0.000        0.000        5.000        0.000        2.000        0.000        1.000        0.000        0.000        6.000        0.000        4.494        0.000       95.506        0.000        0.000        1.435        1.440        2.699
     450.000  -262513.590    27091.966    15628.873    32508.334      152.075  -386369.076    48474.238       26.039       25.982        2.908        3.133        3.181        3.232        3.261        3.104        2.710        3.048        3.276        3.195        3.142        2.539        3.008        2.912        3.253        3.015        0.477        1.000        0.000        1.000        0.000        1.000        0.000        0.000        0.000        2.000        0.000        0.000        0.000        0.000        0.000        1.000        3.000        0.000        0.000        0.000        0.000        0.000        0.000        0.000        0.000        2.000        0.000        1.000        0.000        1.000        0.000        0.000        3.000        0.000        0.000        0.000      100.000        0.000        0.000        1.881        1.907        2.909
     460.000  -263826.353    26540.897    15726.687    32400.264      144.306  -387343.492    48704.985       26.036       26.117        2.954        3.149        3.149        3.211        3.262        3.058        2.682        2.980        3.217        3.207        3.181        2.572        3.014        2.955        3.199        3.013        0.482        0.000        0.000        1.000        0.000        1.000        0.000        0.000        0.000        0.000        0.000        0.000        0.000        0.000        0.000        0.000        2.000        0.000        0.000        0.000        0.000        0.000        0.000        0.000        0.000        3.000        0.000        3.000        0.000        3.000        0.000        0.000        6.000        0.000        0.000        0.000      100.000        0.000        0.000        1.894        1.948        2.903
     470.000  -263702.277    26426.917    15837.833    32499.340      120.472  -388368.392    49781.553       26.091       26.028        2.943        3.137        3.134        3.263        3.249        3.095        2.705        3.037        3.222        3.209        3.224        2.535        2.966        2.998        3.197        3.037        0.483        1.000        0.000        1.000        0.000        1.000        0.000        0.000        0.000        1.000        0.000        0.000        0.000        0.000        0.000        0.000        1.000        0.000        0.000        0.000        0.000        0.000        0.000        0.000        0.000        2.000        0.000        0.000        0.000        0.000        0.000        0.000        8.000        0.000        0.000        0.000      100.000        0.000        0.000        1.772        1.808        2.821
     480.000  -263281.288    26241.448    15871.767    32530.430      128.713  -387056.157    49002.510       26.064       26.035        2.936        3.102        3.109        3.253        3.284        3.084        2.700        3.013        3.223        3.210        3.173        2.597        2.976        2.970        3.190        2.968        0.490        0.000        0.000        1.000        0.000        0.000        0.000        0.000        0.000        0.000        0.000        0.000        0.000        0.000        0.000        0.000        0.000        0.000        0.000        0.000        0.000        0.000        0.000        0.000        0.000        3.000        0.000        1.000        0.000        1.000        0.000        0.000        5.000        0.000        0.000        0.000      100.000        0.000        0.000        1.861        1.899        3.002
     490.000  -263400.262    26247.628    15846.386    32594.835      143.239  -386670.436    48438.085       25.953       25.898        2.975        3.093        3.152        3.250        3.252        3.076        2.710        2.971        3.198        3.166        3.215        2.446        2.939        3.005        3.175        3.036        0.475        1.000        0.000        1.000        0.000        0.000        0.000        0.000        0.000        2.000        0.000        0.000        0.000        0.000        0.000        0.000        2.000        0.000        0.000        0.000        0.000        0.000        0.000        0.000        0.000        2.000        0.000        1.000        0.000        1.000        0.000        0.000        5.000        0.000        0.000        0.000      100.000        0.000        0.000        1.816        1.850        2.902
     500.000  -262895.810    25986.055    15837.630    32776.497      152.861  -387461.612    49812.760       25.914       25.638        2.977        3.077        3.145        3.208        3.262        3.033        2.684        3.008        3.250        3.138        3.152        2.555        2.948        3.001        3.218        2.871        0.491        0.000        0.000        0.000        0.000        1.000        0.000        0.000        0.000        2.000        0.000        0.000        0.000        0.000        0.000        0.000        3.000        0.000        0.000        0.000        0.000        0.000        0.000        0.000        0.000        5.000        0.000        0.000        0.000        1.000        0.000        0.000        6.000        0.000        0.000        0.000      100.000        0.000        0.000        1.708        1.729        2.814
     510.000  -262692.289    25937.156    15735.467    32749.476      146.356  -386531.371    49270.627       25.866       25.677        3.001        3.111        3.151        3.234        3.274        3.082        2.699        3.002        3.235        3.183        3.152        2.522        2.923        3.020        3.137        2.953        0.487        1.000        0.000        1.000        0.000        1.000        0.000        0.000        0.000        0.000        0.000        0.000        0.000        0.000        0.000        0.000        1.000        0.000        0.000        0.000        0.000        0.000        0.000        0.000        0.000        3.000        0.000        2.000        0.000        1.000        0.000        0.000        7.000        0.000        4.494        0.000       95.506        0.000        0.000        1.791        1.812        2.932
     520.000  -263053.746    26493.910    15960.423    32619.265      170.383  -386977.913    48680.186       25.868       25.880        3.043        3.165        3.188        3.236        3.289        3.038        2.698        3.020        3.220        3.214        3.138        2.523        2.900        2.995        3.245        2.936        0.484        1.000        0.000        0.000        0.000        1.000        0.000        0.000        0.000        2.000        0.000        0.000        0.000        0.000        0.000        0.000        4.000        0.000        0.000        0.000        0.000        0.000        0.000        0.000        0.000        2.000        0.000        2.000        0.000        1.000        0.000        0.000        2.000        0.000        4.494        0.000       95.506        0.000        0.000        1.765        1.789        2.965
     530.000  -262911.428    26323.267    15609.791    32684.632      136.161  -385996.694    48331.416       26.043       25.910        2.981        3.110        3.108        3.168        3.260        3.096        2.689        3.099        3.180        3.161        3.218        2.522        2.945        2.985        3.240        2.949        0.501        2.000        0.000        0.000        0.000        0.000        0.000        0.000        0.000        0.000        0.000        0.000        0.000        0.000        0.000        0.000        0.000        0.000        0.000        0.000        0.000        0.000        0.000        0.000        0.000        0.000        0.000        1.000        0.000        1.000        0.000        0.000        4.000        0.000        0.000        0.000      100.000        0.000        0.000        1.929        1.953        3.211
     540.000  -262664.464    26964.268    15484.423    32704.868      125.863  -385271.903    47328.018       25.932       25.609        3.029        3.119        3.098        3.222        3.256        3.123        2.706        2.956        3.220        3.144        3.135        2.571        2.964        2.966        3.237        2.945        0.466        0.000        0.000        0.000        0.000        0.000        0.000        0.000        0.000        0.000        0.000        0.000        0.000        0.000        0.000        0.000        2.000        0.000        0.000        0.000        0.000        0.000        0.000        0.000        0.000        3.000        0.000        0.000        0.000        1.000        0.000        1.000        3.000        0.000        0.000        0.000      100.000        0.000        0.000        1.879        1.888        3.139
     550.000  -263525.857    26008.267    15492.102    32683.592      127.382  -386837.321    49000.120       26.009       25.567        2.959        3.076        3.096        3.221        3.264        3.119        2.663        3.049        3.218        3.255        3.175        2.521        2.932        2.957        3.238        2.962        0.485        0.000        0.000        0.000        0.000        0.000        0.000        0.000        0.000        0.000        0.000        0.000        0.000        0.000        0.000        0.000        1.000        0.000        0.000        0.000        0.000        0.000        0.000        0.000        0.000        2.000        0.000        2.000        0.000        1.000        0.000        1.000        4.000        0.000        4.494        0.000       95.506        0.000        0.000        1.808        1.822        2.980
     560.000  -263548.701    26753.399    15831.612    32711.882      127.212  -387578.904    48606.098       25.824       25.636        2.963        3.107        3.078        3.185        3.194        3.050        2.710        2.929        3.211        3.246        3.147        2.570        2.896        2.950        3.290        2.939        0.507        1.000        0.000        0.000        0.000        1.000        0.000        0.000        0.000        1.000        0.000        0.000        0.000        0.000        0.000        0.000        0.000        0.000        0.000        0.000        0.000        0.000        0.000        0.000        0.000        1.000        0.000        1.000        0.000        1.000        0.000        0.000        7.000        0.000        0.000        0.000      100.000        0.000        0.000        1.607        1.632        3.061
     570.000  -263844.831    25957.286    15761.110    32609.912      137.789  -386912.225    48601.297       26.060       26.002        2.905        3.058        3.144        3.187        3.170        3.067        2.689        3.002        3.193        3.166        3.112        2.512        2.977        2.949        3.253        2.920        0.498        1.000        0.000        0.000        0.000        0.000        0.000        0.000        0.000        0.000        0.000        0.000        0.000        0.000        0.000        0.000        1.000        0.000        0.000        0.000        0.000        0.000        0.000        0.000        0.000        2.000        0.000        1.000        0.000        1.000        0.000        0.000        2.000        0.000        4.494        0.000       95.506        0.000        0.000        1.934        1.933        3.174
     580.000  -263423.085    26361.731    15495.646    32720.991      162.581  -385788.150    47624.117       25.975       25.821        2.946        3.184        3.100        3.193        3.283        3.129        2.682        2.907        3.194        3.127        3.187        2.596        2.903        3.006        3.289        2.974        0.510        1.000        0.000        0.000        0.000        0.000        0.000        0.000        0.000        1.000        0.000        0.000        0.000        0.000        0.000        0.000        1.000        0.000        0.000        0.000        0.000        0.000        0.000        0.000        0.000        1.000        0.000        1.000        0.000        2.000        0.000        0.000        3.000        0.000        0.000        0.000      100.000        0.000        0.000        1.754        1.819        2.979
     590.000  -263020.725    26767.255    15578.485    32599.472      133.168  -385594.266    47495.162       25.838       25.792        2.981        3.184        3.066        3.265        3.238        3.084        2.703        2.976        3.206        3.166        3.194        2.533        2.958        2.966        3.240        3.060        0.507        1.000        0.000        0.000        0.000        1.000        0.000        0.000        1.000        1.000        0.000        0.000        0.000        0.000        0.000        0.000        0.000        0.000        0.000        0.000        0.000        0.000        0.000        0.000        0.000        2.000        0.000        3.000        0.000        2.000        0.000        0.000        4.000        0.000        0.000        0.000      100.000        0.000        0.000        1.993        2.076        3.178
     600.000  -263063.937    26135.008    15555.603    32747.132      149.831  -386786.321    49134.809       25.819       25.706        2.909        3.130        3.082        3.238        3.191        3.021        2.682        3.038        3.181        3.246        3.169        2.524        2.966        2.940        3.287        3.070        0.471        0.000        0.000        0.000        0.000        1.000        0.000        0.000        0.000        2.000        0.000        0.000        0.000        0.000        0.000        0.000        2.000        0.000        0.000        0.000        0.000        0.000        0.000        0.000        0.000        3.000        0.000        1.000        0.000        2.000        0.000        0.000        2.000        0.000        0.000        0.000      100.000        0.000        0.000        2.226        2.295        3.287
     610.000  -263232.793    27030.720    15449.145    32640.292      129.360  -385230.565    46748.256       25.464       25.518        2.949        3.052        3.222        3.195        3.259        2.980        2.682        3.089        3.214        3.235        3.248        2.620        2.906        2.990        3.240        3.075        0.491        1.000        0.000        0.000        0.000        0.000        0.000        0.000        0.000        2.000        0.000        0.000        0.000        0.000        0.000        1.000        0.000        0.000        0.000        0.000        0.000        0.000        0.000        0.000        0.000        1.000        0.000        2.000        0.000        2.000        0.000        0.000        8.000        0.000        0.000        0.000      100.000        0.000        0.000        2.244        2.284        3.361
     620.000  -263172.344    25608.419    15294.267    32763.609      123.010  -386466.352    49504.704       25.616       25.443        2.897        3.184        3.086        3.289        3.216        3.052        2.700        2.972        3.194        3.230        3.171        2.477        2.973        2.976        3.272        2.994        0.513        1.000        0.000        0.000        0.000        1.000        0.000        0.000        0.000        1.000        0.000        0.000        0.000        0.000        0.000        1.000        0.000        0.000        0.000        0.000        0.000        0.000        0.000        0.000        0.000        2.000        0.000        1.000        0.000        2.000        0.000        0.000        4.000        0.000        0.000        0.000      100.000        0.000        0.000        2.233        2.302        3.407
     630.000  -262776.122    27657.889    15400.177    32583.074      143.341  -386025.352    47464.749       25.730       25.428        2.939        3.151        3.140        3.233        3.235        3.108        2.677        2.961        3.181        3.248        3.210        2.529        2.965        2.986        3.194        2.931        0.498        0.000        0.000        0.000        0.000        0.000        0.000        0.000        0.000        0.000        0.000        0.000        0.000        0.000        0.000        1.000        1.000        0.000        0.000        0.000        0.000        0.000        0.000        0.000        0.000        2.000        0.000        0.000        0.000        2.000        0.000        0.000        7.000        0.000        0.000        0.000      100.000        0.000        0.000        2.384        2.470        3.541
     640.000  -263249.291    27379.328    15294.541    32597.997      146.358  -384338.424    45670.908       25.613       25.543        2.911        3.171        3.138        3.234        3.248        3.037        2.684        3.008        3.191        3.237        3.189        2.491        2.947        2.950        3.244        2.931        0.483        0.000        0.000        0.000        0.000        1.000        0.000        0.000        0.000        1.000        0.000        0.000        0.000        0.000        0.000        1.000        1.000        0.000        0.000        0.000        0.000        0.000        0.000        0.000        0.000        1.000        0.000        2.000        0.000        3.000        0.000        0.000        4.000        0.000        0.000        0.000      100.000        0.000        0.000        1.930        1.975        3.327
     650.000  -263108.871    27151.333    15221.328    32573.956      117.625  -385750.228    47577.116       25.647       25.602        2.856        3.140        3.204        3.212        3.181        3.064        2.715        3.043        3.187        3.260        3.198        2.512        2.862        2.962        3.245        3.066        0.491        0.000        0.000        0.000        0.000        0.000        0.000        0.000        0.000        0.000        0.000        0.000        0.000        0.000        0.000        0.000        2.000        0.000        0.000        0.000        0.000        0.000        0.000        0.000        0.000        3.000        0.000        0.000        0.000        3.000        0.000        0.000        9.000        0.000        4.494        0.000       95.506        0.000        0.000        1.777        1.812        3.233
     660.000  -262643.517    26980.783    15402.689    32624.167      136.086  -385251.772    47464.529       25.869       25.891        2.928        3.127        3.156        3.246        3.206        3.034        2.711        3.019        3.204        3.227        3.165        2.466        2.967        2.979        3.181        3.012        0.462        0.000        0.000        0.000        0.000        0.000        0.000        0.000        0.000        0.000        0.000        0.000        0.000        0.000        0.000        0.000        3.000        0.000        0.000        0.000        0.000        0.000        0.000        0.000        0.000        2.000        0.000        1.000        0.000        1.000        0.000        1.000        4.000        0.000        4.494        0.000       95.506        0.000        0.000        1.803        1.836        3.296
     670.000  -262516.576    26693.458    15532.115    32548.447      137.503  -384829.814    47401.716       25.684       25.647        2.946        3.185        3.208        3.272        3.251        3.045        2.687        2.890        3.191        3.240        3.197        2.500        2.913        2.968        3.201        3.043        0.472        1.000        0.000        0.000        0.000        1.000        0.000        0.000        0.000        1.000        0.000        0.000        0.000        0.000        0.000        0.000        1.000        0.000        0.000        0.000        0.000        0.000        0.000        0.000        0.000        3.000        0.000        1.000        0.000        1.000        0.000        0.000        2.000        0.000        0.000        0.000      100.000        0.000        0.000        1.865        1.892        3.259
     680.000  -262624.502    25053.582    15645.627    32519.766      138.191  -386326.457    50344.787       25.828       25.793        2.981        3.187        3.048        3.214        3.205        3.118        2.681        2.963        3.183        3.219        3.162        2.469        2.958        2.984        3.228        3.000        0.467        1.000        0.000        0.000        0.000        0.000        0.000        0.000        0.000        1.000        0.000        0.000        0.000        0.000        0.000        0.000        1.000        0.000        0.000        0.000        0.000        0.000        0.000        0.000        0.000        2.000        0.000        2.000        0.000        1.000        0.000        0.000        6.000        0.000        0.000        0.000      100.000        0.000        0.000        1.511        1.568        3.149
     690.000  -262296.151    25754.258    15645.425    32539.338      146.144  -385089.958    48708.641       25.942       25.827        2.941        3.139        3.170        3.206        3.176        3.089        2.677        3.014        3.176        3.169        3.226        2.479        2.896        2.979        3.164        3.016        0.494        1.000        0.000        0.000        0.000        0.000        0.000        0.000        0.000        0.000        0.000        0.000        0.000        0.000        0.000        0.000        2.000        0.000        0.000        0.000        0.000        0.000        0.000        0.000        0.000        1.000        0.000        0.000        0.000        0.000        0.000        0.000        6.000        0.000        0.000        0.000      100.000        0.000        0.000        1.602        1.673        3.115
     700.000  -263560.610    26040.392    15492.389    32687.100      125.302  -385698.373    47792.580       25.615       25.568        2.935        3.135        3.149        3.214        3.228        3.077        2.661        2.990        3.214        3.178        3.243        2.518        2.966        2.979        3.170        3.004        0.480        1.000        0.000        0.000        0.000        0.000        0.000        0.000        0.000        0.000        0.000        0.000        0.000        0.000        0.000        0.000        1.000        0.000        0.000        0.000        0.000        0.000        0.000        0.000        0.000        2.000        0.000        0.000        0.000        1.000        0.000        0.000        6.000        0.000        0.000        0.000      100.000        0.000        0.000        1.295        1.373        3.228
     710.000  -262952.321    27234.644    15432.098    32560.798      120.491  -385723.515    47423.163       26.054       26.081        2.891        3.209        3.135        3.233        3.187        3.019        2.675        3.032        3.221        3.254        3.197        2.543        2.851        2.940        3.193        2.969        0.498        1.000        0.000        0.000        0.000        0.000        0.000        0.000        0.000        0.000        0.000        0.000        0.000        0.000        0.000        0.000        0.000        0.000        0.000        0.000        0.000        0.000        0.000        0.000        0.000        0.000        0.000        1.000        0.000        3.000        0.000        0.000        6.000        0.000        0.000        0.000      100.000        0.000        0.000        1.660        1.696        3.155
     720.000  -263044.735    25735.551    15685.670    32795.052      120.100  -387273.687    49892.579       25.758       25.562        2.912        3.125        3.236        3.177        3.227        3.037        2.707        2.951        3.214        3.177        3.254        2.590        2.911        2.959        3.189        2.997        0.471        0.000        0.000        0.000        0.000        0.000        0.000        0.000        0.000        0.000        0.000        0.000        0.000        0.000        0.000        0.000        1.000        0.000        0.000        0.000        0.000        0.000        0.000        0.000        0.000        1.000        0.000        2.000        0.000        0.000        0.000        0.000        7.000        0.000        0.000        0.000      100.000        0.000        0.000        1.760        1.799        3.206
     730.000  -262706.602    26512.037    15501.450    32443.931      112.181  -384628.992    47352.791       25.918       25.640        3.013        3.109        3.136        3.204        3.251        3.058        2.652        2.982        3.184        3.264        3.195        2.515        2.956        3.022        3.226        2.994        0.495        0.000        0.000        0.000        0.000        0.000        0.000        0.000        0.000        0.000        0.000        0.000        0.000        0.000        0.000        0.000        1.000        0.000        0.000        0.000        0.000        0.000        0.000        0.000        0.000        2.000        0.000        1.000        0.000        2.000        0.000        0.000        4.000        0.000        0.000        0.000      100.000        0.000        0.000        1.554        1.613        3.314
     740.000  -263077.620    25921.216    15611.765    32485.617      126.359  -386352.214    49129.637       26.073       25.926        2.928        3.083        3.148        3.229        3.218        3.029        2.710        2.953        3.188        3.231        3.195        2.559        2.891        2.960        3.259        3.012        0.475        1.000        0.000        0.000        0.000        0.000        0.000        0.000        0.000        0.000        0.000        0.000        0.000        0.000        0.000        0.000        0.000        0.000        0.000        0.000        0.000        0.000        0.000        0.000        0.000        1.000        0.000        0.000        0.000        1.000        0.000        0.000        4.000        0.000        0.000        0.000      100.000        0.000        0.000        1.637        1.673        3.310
     750.000  -263211.363    25686.211    15448.405    32552.225      145.665  -386889.251    49845.382       25.854       25.664        2.911        3.097        3.158        3.237        3.198        3.038        2.708        2.973        3.177        3.190        3.093        2.475        2.983        3.001        3.265        3.072        0.509        1.000        0.000        0.000        0.000        0.000        0.000        0.000        0.000        0.000        0.000        0.000        0.000        0.000        0.000        0.000        0.000        0.000        0.000        0.000        0.000        0.000        0.000        0.000        0.000        0.000        0.000        1.000        0.000        2.000        0.000        0.000        1.000        0.000        0.000        0.000      100.000        0.000        0.000        1.435        1.517        3.283
     760.000  -262347.728    26412.603    15582.229    32588.892      132.540  -384699.139    47635.147       25.622       25.406        2.947        3.091        3.151        3.272        3.247        3.037        2.686        2.917        3.252        3.199        3.128        2.512        2.852        2.982        3.236        3.007        0.482        1.000        0.000        0.000        0.000        0.000        0.000        0.000        0.000        1.000        0.000        0.000        0.000        0.000        0.000        2.000        0.000        0.000        0.000        0.000        0.000        0.000        0.000        0.000        0.000        0.000        0.000        0.000        0.000        1.000        0.000        0.000        4.000        0.000        0.000        0.000      100.000        0.000        0.000        1.507        1.580        3.249
     770.000  -262620.422    25494.409    15403.614    32504.378      127.860  -386205.811    50055.129       25.880       25.768        2.961        3.083        3.149        3.259        3.202        3.052        2.690        2.975        3.242        3.244        3.203        2.527        3.027        2.993        3.159        2.945        0.468        0.000        0.000        0.000        0.000        0.000        0.000        0.000        0.000        1.000        0.000        0.000        0.000        0.000        0.000        0.000        0.000        0.000        0.000        0.000        0.000        0.000        0.000        0.000        0.000        2.000        0.000        0.000        0.000        1.000        0.000        0.000        4.000        0.000        0.000        0.000      100.000        0.000        0.000        1.540        1.602        3.247
     780.000  -262401.629    26745.451    15324.607    32707.300      134.430  -384336.773    47023.356       25.990       25.574        2.970        3.135        3.201        3.258        3.178        2.968        2.717        3.050        3.213        3.205        3.220        2.480        2.843        2.951        3.216        2.968        0.483        0.000        0.000        0.000        0.000        0.000        0.000        0.000        0.000        1.000        0.000        0.000        0.000        0.000        0.000        0.000        1.000        0.000        0.000        0.000        0.000        0.000        0.000        0.000        0.000        2.000        0.000        2.000        0.000        0.000        0.000        0.000        2.000        0.000        4.494        0.000       95.506        0.000        0.000        1.785        1.844        3.287
     790.000  -263170.691    26436.563    15013.768    32828.978      144.681  -385937.885    48343.203       25.765       25.364        2.978        3.152        3.139        3.270        3.189        3.054        2.664        2.973        3.242        3.235        3.128        2.508        2.911        2.997        3.216        3.044        0.501        0.000        0.000        0.000        0.000        0.000        0.000        0.000        0.000        0.000        0.000        0.000        0.000        0.000        0.000        2.000        1.000        0.000        0.000        0.000        0.000        0.000        0.000        0.000        0.000        2.000        0.000        0.000        0.000        1.000        0.000        1.000        6.000        0.000        0.000        0.000      100.000        0.000        0.000        1.377        1.419        3.165
     800.000  -263545.092    25702.309    15341.514    32809.317      129.918  -385202.802    47674.653       25.912       25.490        2.994        3.090        3.146        3.224        3.231        3.050        2.683        3.004        3.203        3.217        3.232        2.533        2.872        2.991        3.187        2.977        0.506        1.000        0.000        0.000        0.000        0.000        0.000        0.000        0.000        0.000        0.000        0.000        0.000        0.000        0.000        0.000        0.000        0.000        0.000        0.000        0.000        0.000        0.000        0.000        0.000        4.000        0.000        0.000        0.000        1.000        0.000        0.000        1.000        0.000        0.000        0.000      100.000        0.000        0.000        1.464        1.498        3.106
     810.000  -262241.821    26060.133    15492.247    32592.272      158.017  -385560.267    49015.778       25.735       25.486        3.038        3.116        3.179        3.288        3.211        3.022        2.656        2.963        3.183        3.250        3.225        2.565        2.925        2.974        3.149        3.043        0.488        1.000        0.000        0.000        0.000        0.000        0.000        0.000        0.000        1.000        0.000        0.000        0.000        0.000        0.000        1.000        0.000        0.000        0.000        0.000        0.000        0.000        0.000        0.000        0.000        1.000        0.000        1.000        0.000        1.000        0.000        0.000        1.000        0.000        4.494        0.000       95.506        0.000        0.000        1.536        1.582        3.084
     820.000  -263007.428    25993.318    15547.439    32583.559      155.108  -386608.082    49321.230       25.851       25.651        2.999        3.087        3.109        3.219        3.256        3.016        2.706        2.921        3.166        3.190        3.190        2.542        2.950        3.003        3.239        3.022        0.479        1.000        0.000        0.000        0.000        0.000        0.000        0.000        0.000        0.000        0.000        0.000        0.000        0.000        0.000        2.000        1.000        0.000        0.000        0.000        0.000        0.000        0.000        0.000        0.000        2.000        0.000        2.000        0.000        2.000        0.000        0.000        2.000        0.000        4.494        0.000       95.506        0.000        0.000        1.691        1.729        3.226
     830.000  -262956.428    25761.051    15418.082    32551.549      128.961  -385452.415    48636.345       25.968       25.736        2.990        3.068        3.095        3.263        3.161        3.026        2.704        2.964        3.199        3.193        3.200        2.523        2.884        2.979        3.287        2.990        0.481        0.000        0.000        0.000        0.000        0.000        0.000        0.000        0.000        0.000        0.000        0.000        0.000        0.000        0.000        0.000        0.000        0.000        0.000        0.000        0.000        0.000        0.000        0.000        0.000        3.000        0.000        0.000        0.000        1.000        0.000        0.000        3.000        0.000        4.494        0.000       95.506        0.000        0.000        1.643        1.684        3.098
     840.000  -262188.920    26069.923    15800.399    32458.778      150.140  -385198.126    48529.965       26.004       25.907        2.973        3.069        3.077        3.290        3.183        3.044        2.656        3.120        3.234        3.215        3.140        2.506        2.977        2.965        3.288        2.933        0.500        0.000        0.000        0.000        0.000        0.000        0.000        0.000        0.000        0.000        0.000        0.000        0.000        0.000        0.000        1.000        1.000        0.000        0.000        0.000        0.000        0.000        0.000        0.000        0.000        1.000        0.000        0.000        0.000        0.000        0.000        0.000        8.000        0.000        4.494        0.000       95.506        0.000        0.000        1.600        1.643        3.223
     850.000  -262987.922    25929.633    15633.135    32658.644      115.702  -386157.853    48832.816       25.724       25.675        2.983        3.151        3.098        3.219        3.257        3.051        2.689        3.017        3.216        3.264        3.226        2.557        2.934        2.952        3.180        3.000        0.494        1.000        0.000        0.000        0.000        0.000        0.000        0.000        0.000        1.000        0.000        0.000        0.000        0.000        0.000        0.000        0.000        0.000        0.000        0.000        0.000        0.000        0.000        0.000        0.000        2.000        0.000        2.000        0.000        1.000        0.000        0.000        2.000        0.000        0.000        0.000      100.000        0.000        0.000        1.615        1.629        3.189
     860.000  -263391.436    26447.799    15879.221    32394.697      126.727  -385720.128    47480.248       26.163       25.937        2.966        3.061        3.096        3.298        3.158        3.085        2.705        2.949        3.249        3.207        3.218        2.551        2.924        2.915        3.202        2.936        0.481        1.000        0.000        0.000        0.000        0.000        0.000        0.000        0.000        0.000        0.000        0.000        0.000        0.000        0.000        0.000        2.000        0.000        0.000        0.000        0.000        0.000        0.000        0.000        0.000        1.000        0.000        0.000        0.000        0.000        0.000        0.000        1.000        0.000        0.000        0.000      100.000        0.000        0.000        1.930        1.958        3.339
     870.000  -262672.060    26826.370    15699.097    32493.991      137.821  -385530.695    47701.355       25.842       25.630        2.926        3.134        3.080        3.198        3.162        3.034        2.720        2.903        3.216        3.208        3.196        2.511        2.906        2.948        3.225        3.052        0.508        1.000        0.000        0.000        0.000        0.000        0.000        0.000        0.000        1.000        0.000        0.000        0.000        0.000        0.000        0.000        2.000        0.000        0.000        0.000        0.000        0.000        0.000        0.000        0.000        2.000        0.000        1.000        0.000        2.000        0.000        1.000        5.000        0.000        0.000        0.000      100.000        0.000        0.000        1.744        1.751        3.258
     880.000  -262672.098    25718.052    15759.039    32838.105      122.065  -385501.038    48391.679       25.638       25.711        2.970        3.132        3.047        3.266        3.215        3.131        2.667        2.885        3.236        3.173        3.220        2.575        2.967        2.913        3.167        2.915        0.478        1.000        0.000        0.000        0.000        0.000        0.000        0.000        0.000        1.000        0.000        0.000        0.000        0.000        0.000        0.000        1.000        0.000        0.000        0.000        0.000        0.000        0.000        0.000        0.000        1.000        0.000        0.000        0.000        1.000        0.000        1.000        0.000        0.000        0.000        0.000      100.000        0.000        0.000        1.853        1.866        3.260
     890.000  -262647.882    26800.527    15620.353    32682.798      151.871  -385149.135    47245.704       25.579       25.740        2.961        3.209        3.060        3.266        3.216        3.135        2.716        3.004        3.221        3.224        3.194        2.543        2.933        2.938        3.227        2.957        0.489        1.000        0.000        0.000        0.000        0.000        0.000        0.000        0.000        1.000        0.000        0.000        0.000        0.000        0.000        0.000        5.000        0.000        0.000        0.000        0.000        0.000        0.000        0.000        0.000        0.000        0.000        0.000        0.000        0.000        0.000        1.000        7.000        0.000        0.000        0.000      100.000        0.000        0.000        1.651        1.645        3.059
     900.000  -263129.095    26802.784    15490.394    32734.241      150.472  -386690.238    48383.253       25.665       25.941        3.058        3.140        3.168        3.201        3.199        3.035        2.674        3.021        3.175        3.196        3.132        2.528        2.964        2.933        3.149        3.012        0.498        0.000        0.000        0.000        0.000        0.000        0.000        0.000        0.000        0.000        0.000        0.000        0.000        0.000        0.000        1.000        1.000        0.000        0.000        0.000        0.000        0.000        0.000        0.000        0.000        0.000        0.000        0.000        0.000        0.000        0.000        0.000        0.000        0.000        0.000        0.000      100.000        0.000        0.000        2.175        2.206        3.302
     910.000  -262710.465    25270.414    15375.113    32496.118      135.200  -385678.554    49691.243       25.725       25.774        2.897        3.118        3.164        3.200        3.212        3.104        2.708        2.927        3.210        3.182        3.171        2.591        2.931        2.970        3.180        3.091        0.507        1.000        0.000        0.000        0.000        0.000        0.000        0.000        0.000        1.000        0.000        0.000        0.000        0.000        0.000        0.000        1.000        0.000        0.000        0.000        0.000        0.000        0.000        0.000        0.000        1.000        0.000        0.000        0.000        1.000        0.000        0.000        5.000        0.000        0.000        0.000      100.000        0.000        0.000        2.378        2.401        3.559
     920.000  -262292.638    26220.304    15405.088    32409.019      138.641  -384339.086    47873.395       25.777       25.715        2.958        3.117        3.103        3.258        3.237        3.091        2.729        3.016        3.177        3.156        3.223        2.608        2.964        3.003        3.149        3.038        0.478        1.000        0.000        0.000        0.000        0.000        0.000        0.000        0.000        1.000        0.000        0.000        0.000        0.000        0.000        0.000        2.000        0.000        0.000        0.000        0.000        0.000        0.000        0.000        0.000        0.000        0.000        0.000        0.000        2.000        0.000        1.000        6.000        0.000        0.000        0.000      100.000        0.000        0.000        2.291        2.336        3.389
     930.000  -262393.005    25118.344    15447.409    32629.863      127.466  -385771.338    50055.252       25.522       25.859        3.015        3.113        3.150        3.162        3.200        3.052        2.676        2.856        3.185        3.180        3.150        2.556        2.920        2.956        3.188        2.972        0.511        1.000        0.000        0.000        0.000        0.000        0.000        0.000        0.000        0.000        0.000        0.000        0.000        0.000        0.000        1.000        2.000        0.000        0.000        0.000        0.000        0.000        0.000        0.000        0.000        0.000        0.000        1.000        0.000        1.000        0.000        0.000        4.000        0.000        0.000        0.000      100.000        0.000        0.000        2.302        2.353        3.470
     940.000  -262856.360    26137.182    15518.339    32571.321      134.385  -385825.043    48607.455       26.023       25.995        2.968        3.154        3.117        3.236        3.197        3.151        2.688        2.908        3.157        3.195        3.059        2.484        2.916        2.971        3.187        3.088        0.463        0.000        0.000        0.000        0.000        0.000        0.000        0.000        0.000        0.000        0.000        0.000        0.000        0.000        0.000        0.000        1.000        0.000        0.000        0.000        0.000        0.000        0.000        0.000        0.000        1.000        0.000        0.000        0.000        1.000        0.000        1.000        2.000        0.000        0.000        0.000      100.000        0.000        0.000        2.402        2.443        3.503
     950.000  -262975.165    25230.876    15608.150    32531.999      143.986  -386019.045    49528.867       26.037       25.992        2.946        3.117        3.150        3.249        3.202        3.022        2.705        2.930        3.182        3.156        3.194        2.488        2.928        2.941        3.211        3.029        0.474        0.000        0.000        0.000        0.000        0.000        0.000        0.000        0.000        1.000        0.000        0.000        0.000        0.000        0.000        1.000        2.000        0.000        0.000        0.000        0.000        0.000        0.000        0.000        0.000        1.000        0.000        1.000        0.000        0.000        0.000        0.000        4.000        0.000        0.000        0.000      100.000        0.000        0.000        2.435        2.486        3.525
     960.000  -262942.715    25945.427    15695.305    32754.361      132.273  -386349.672    48879.591       25.781       25.834        2.936        3.152        3.105        3.187        3.209        3.115        2.701        2.953        3.238        3.155        3.211        2.576        2.992        2.919        3.208        3.001        0.506        0.000        0.000        0.000        0.000        0.000        0.000        0.000        0.000        1.000        0.000        0.000        0.000        0.000        0.000        0.000        2.000        0.000        0.000        0.000        0.000        0.000        0.000        0.000        0.000        3.000        0.000        1.000        0.000        1.000        0.000        0.000        2.000        0.000        0.000        0.000      100.000        0.000        0.000        2.621        2.664        3.531
     970.000  -262596.048    26839.142    15306.120    32706.820      131.564  -385155.764    47576.068       25.769       25.893        3.040        3.095        3.123        3.287        3.218        3.139        2.692        2.865        3.161        3.194        3.176        2.549        2.985        2.940        3.278        2.995        0.477        0.000        0.000        0.000        0.000        0.000        0.000        0.000        0.000        0.000        0.000        0.000        0.000        0.000        0.000        1.000        1.000        0.000        0.000        0.000        0.000        0.000        0.000        0.000        0.000        1.000        0.000        0.000        0.000        0.000        0.000        0.000        2.000        0.000        0.000        0.000      100.000        0.000        0.000        2.733        2.790        3.567
     980.000  -262694.525    27021.702    15495.494    32422.066      132.754  -385305.720    47539.180       25.870       26.173        2.977        3.187        3.082        3.208        3.194        3.117        2.732        2.867        3.223        3.244        3.261        2.476        3.012        3.007        3.161        3.090        0.471        0.000        0.000        0.000        0.000        0.000        0.000        0.000        0.000        0.000        0.000        0.000        0.000        0.000        0.000        0.000        3.000        0.000        0.000        0.000        0.000        0.000        0.000        0.000        0.000        2.000        0.000        1.000        0.000        0.000        0.000        0.000        3.000        0.000        0.000        0.000      100.000        0.000        0.000        2.683        2.739        3.576
     990.000  -262282.258    25120.631    15508.901    32578.524      122.710  -384433.653    48820.629       26.098       25.998        2.995        3.165        3.106        3.266        3.192        3.134        2.701        2.829        3.231        3.201        3.129        2.573        2.945        2.952        3.134        3.027        0.493        0.000        0.000        0.000        0.000        0.000        0.000        0.000        0.000        0.000        0.000        0.000        0.000        0.000        0.000        0.000        1.000        0.000        0.000        0.000        0.000        0.000        0.000        0.000        0.000        2.000        0.000        3.000        0.000        1.000        0.000        0.000        4.000        0.000        0.000        0.000      100.000        0.000        0.000        2.455        2.504        3.468
    1000.000  -262243.691    26920.285    15418.692    32792.488      133.278  -385082.503    47574.069       26.130       25.813        3.046        3.147        3.147        3.200        3.192        3.007        2.687        2.993        3.187        3.220        3.283        2.527        2.964        2.942        3.219        3.067        0.481        1.000        0.000        0.000        0.000        0.000        0.000        0.000        0.000        1.000        0.000        0.000        0.000        0.000        0.000        0.000        0.000        0.000        0.000        0.000        0.000        0.000        0.000        0.000        0.000        1.000        0.000        1.000        0.000        2.000        0.000        1.000        1.000        0.000        0.000        0.000      100.000        0.000        0.000        2.165        2.179        3.382
     Average  -264843.192    26673.038    15653.215    32601.809      134.439  -389095.329    49189.636       25.839       25.803        2.960        3.090        3.128        3.218        3.227        3.071        2.692        3.002        3.215        3.200        3.175        2.541        2.940        2.961        3.180        2.997        0.488        0.485        0.000        0.109        0.000        0.525        0.000        0.000        0.030        0.584        0.000        0.099        0.000        0.010        0.000        0.198        1.693        0.000        0.000        0.000        0.000        0.000        0.000        0.000        0.000        1.426        0.000        1.168        0.000        0.921        0.000        0.228        4.059        0.000        0.667        0.000       99.333        0.000        0.000        1.753        1.786        2.749

