____Time[ps] Energy[ kJ/mol ]_____Bond _______Angle ____Dihedral ___Planarity _____Coulomb _________VdW _Your result _Your result _Your result _Your result _Your result _Your result _Your result _Your result _Your result _Your result _Your result _Your result _Your result _Your result _Your result _Your result _Your result _Your result _Your result _Your result _Your result _Your result _Your result _Your result _Your result _Your result _Your result _Your result _Your result _Your result _Your result _Your result _Your result _Your result _Your result _Your result _Your result _Your result _Your result _Your result _Your result _Your result _Your result _Your result _Your result _Your result _Your result _Your result _Your result _Your result _Your result _Your result _Your result _Your result _Your result _Your result _Your result _RMSDs[A]:CA ____Backbone __HeavyAtoms
       0.000  -312884.571     6625.127     4989.526    33718.891       19.132  -419683.047    61445.800       25.205       25.076        2.560        2.540        2.546        2.627        3.115        3.083        3.237        3.044        3.182        3.145        3.131        3.135        2.491        2.599        2.531        2.455        0.488        2.000        1.000        1.000        1.000        2.000        0.000        0.000        3.000        0.000        0.000        0.000        0.000        0.000        0.000        0.000        4.000        0.000        0.000        0.000        0.000        0.000        0.000        0.000        0.000        0.000        2.000        0.000        2.000        0.000        0.000        0.000        2.000        0.000        0.000        0.000      100.000        0.000        0.000        0.451        0.506        0.555
      10.000  -235158.740    26411.486    14382.497    33579.649      125.306  -355908.791    46251.112       25.776       25.700        2.602        2.432        2.595        2.591        3.094        3.011        3.284        3.049        3.141        3.167        3.172        3.132        2.505        2.573        2.580        2.479        0.472        1.000        0.000        1.000        0.000        1.000        0.000        0.000        2.000        1.000        0.000        0.000        0.000        0.000        0.000        1.000        0.000        0.000        0.000        0.000        0.000        0.000        0.000        0.000        0.000        3.000        3.000        0.000        0.000        0.000        0.000        0.000        0.000        0.000        0.000        0.000      100.000        0.000        0.000        1.133        1.157        1.478
      20.000  -235343.289    26327.524    14736.492    33429.025      131.963  -355533.517    45565.224       25.810       25.842        2.538        2.473        2.592        2.527        3.140        3.036        3.236        3.079        3.239        3.166        3.135        3.145        2.508        2.615        2.598        2.451        0.496        0.000        0.000        1.000        1.000        1.000        0.000        0.000        2.000        1.000        0.000        0.000        0.000        0.000        0.000        1.000        1.000        0.000        0.000        0.000        0.000        0.000        0.000        0.000        0.000        3.000        5.000        0.000        0.000        0.000        0.000        0.000        2.000        0.000        0.000        0.000      100.000        0.000        0.000        1.328        1.340        1.615
      30.000  -235187.673    25734.144    14477.005    33440.368      120.703  -354339.117    45379.224       25.876       25.784        2.557        2.464        2.621        2.624        3.059        2.979        3.248        3.136        3.262        3.196        3.156        3.154        2.493        2.586        2.611        2.461        0.469        1.000        1.000        1.000        0.000        1.000        0.000        0.000        2.000        1.000        0.000        0.000        0.000        0.000        0.000        0.000        1.000        0.000        0.000        0.000        0.000        0.000        0.000        0.000        0.000        3.000        3.000        0.000        0.000        1.000        0.000        0.000        3.000        0.000        0.000        0.000      100.000        0.000        0.000        1.383        1.391        1.678
      40.000  -234235.303    26165.857    14707.995    33448.977      118.828  -352227.161    43550.200       26.018       25.889        2.549        2.476        2.619        2.583        3.078        2.989        3.226        3.127        3.261        3.167        3.124        3.118        2.518        2.576        2.597        2.453        0.470        1.000        1.000        1.000        0.000        1.000        0.000        0.000        2.000        0.000        0.000        0.000        0.000        0.000        0.000        0.000        2.000        0.000        0.000        0.000        0.000        0.000        0.000        0.000        0.000        5.000        3.000        0.000        1.000        2.000        0.000        0.000        3.000        0.000        0.000        0.000      100.000        0.000        0.000        1.461        1.464        1.708
      50.000  -233587.679    25373.290    14529.718    33425.848      121.720  -351307.858    44269.603       26.001       25.884        2.532        2.438        2.610        2.573        3.105        2.910        3.278        3.085        3.235        3.152        3.163        3.136        2.504        2.535        2.549        2.462        0.474        1.000        1.000        1.000        1.000        1.000        0.000        0.000        2.000        1.000        0.000        0.000        0.000        0.000        0.000        1.000        1.000        0.000        0.000        0.000        0.000        0.000        0.000        0.000        0.000        5.000        4.000        0.000        0.000        0.000        0.000        0.000        0.000        0.000        0.000        0.000      100.000        0.000        0.000        1.608        1.618        1.839
      60.000  -233599.860    26797.708    14710.561    33221.864      151.066  -351268.418    42787.360       25.830       25.635        2.557        2.460        2.677        2.585        3.151        3.032        3.205        3.067        3.262        3.157        3.114        3.123        2.483        2.594        2.561        2.444        0.505        1.000        1.000        1.000        0.000        1.000        0.000        0.000        2.000        1.000        0.000        0.000        0.000        0.000        0.000        3.000        0.000        0.000        0.000        0.000        0.000        0.000        0.000        0.000        0.000        1.000        2.000        1.000        2.000        0.000        0.000        0.000        2.000        0.000        0.000        0.000      100.000        0.000        0.000        1.543        1.564        1.835
      70.000  -232829.155    25934.578    15070.522    33415.980      109.737  -350806.452    43446.480       26.050       25.989        2.551        2.463        2.630        2.655        3.053        3.072        3.252        3.118        3.181        3.242        3.101        3.158        2.459        2.589        2.574        2.447        0.486        0.000        1.000        1.000        0.000        1.000        0.000        0.000        2.000        1.000        0.000        0.000        0.000        0.000        0.000        0.000        4.000        0.000        0.000        0.000        0.000        0.000        0.000        0.000        0.000        0.000        6.000        0.000        0.000        1.000        0.000        0.000        2.000        0.000        0.000        0.000      100.000        0.000        0.000        1.837        1.871        1.999
      80.000  -233134.418    25995.637    14868.919    33314.579      131.151  -349530.513    42085.809       25.752       25.599        2.511        2.498        2.575        2.648        3.087        3.089        3.238        3.017        3.202        3.165        3.086        3.214        2.478        2.593        2.611        2.466        0.496        0.000        0.000        1.000        0.000        0.000        0.000        0.000        2.000        0.000        0.000        0.000        0.000        0.000        0.000        0.000        2.000        0.000        0.000        0.000        0.000        0.000        0.000        0.000        0.000        1.000        3.000        1.000        0.000        2.000        0.000        1.000        5.000        0.000        0.000        0.000      100.000        0.000        0.000        1.679        1.692        1.951
      90.000  -233109.252    25166.814    14755.628    33191.717      131.854  -350294.203    43938.938       25.753       25.954        2.587        2.466        2.623        2.625        3.122        3.040        3.287        3.107        3.272        3.208        3.132        3.148        2.471        2.573        2.575        2.434        0.510        1.000        1.000        1.000        0.000        1.000        0.000        0.000        2.000        0.000        0.000        0.000        0.000        0.000        0.000        1.000        1.000        0.000        0.000        0.000        0.000        0.000        0.000        0.000        0.000        3.000        3.000        1.000        2.000        2.000        0.000        3.000        3.000        0.000        0.000        0.000      100.000        0.000        0.000        1.809        1.850        2.143
     100.000  -233155.677    24988.290    14816.718    33418.290      135.977  -350364.887    43849.935       25.558       25.934        2.542        2.492        2.611        2.653        3.153        3.009        3.270        3.049        3.229        3.213        3.115        3.180        2.474        2.572        2.533        2.400        0.490        1.000        1.000        1.000        0.000        1.000        0.000        0.000        2.000        0.000        0.000        0.000        0.000        0.000        0.000        2.000        0.000        0.000        0.000        0.000        0.000        0.000        0.000        0.000        0.000        2.000        0.000        1.000        0.000        1.000        0.000        0.000        3.000        0.000        0.000        0.000      100.000        0.000        0.000        1.722        1.750        1.997
     110.000  -233194.722    25250.313    14696.110    33321.442      149.122  -350690.644    44078.936       25.707       25.955        2.555        2.469        2.668        2.640        3.118        3.105        3.250        3.045        3.294        3.237        3.091        3.158        2.538        2.531        2.617        2.455        0.468        1.000        0.000        1.000        0.000        1.000        0.000        0.000        2.000        0.000        1.000        0.000        0.000        0.000        0.000        1.000        1.000        0.000        0.000        0.000        0.000        0.000        0.000        0.000        0.000        3.000        5.000        2.000        1.000        0.000        0.000        1.000        3.000        0.000        0.000        0.000      100.000        0.000        0.000        1.679        1.693        1.976
     120.000  -232642.669    25242.751    14797.162    33327.158      133.314  -348577.472    42434.417       26.179       26.263        2.566        2.481        2.641        2.627        3.094        3.065        3.220        3.071        3.264        3.219        3.107        3.177        2.514        2.534        2.583        2.443        0.493        1.000        1.000        1.000        0.000        1.000        0.000        0.000        2.000        0.000        1.000        0.000        0.000        0.000        0.000        0.000        2.000        0.000        0.000        0.000        0.000        0.000        0.000        0.000        0.000        2.000        2.000        0.000        3.000        1.000        0.000        1.000        1.000        0.000        0.000        0.000      100.000        0.000        0.000        2.249        2.268        2.400
     130.000  -232821.364    24745.826    14579.892    33526.225      162.743  -349782.150    43946.101       25.835       26.027        2.569        2.473        2.632        2.640        3.164        3.084        3.227        2.996        3.263        3.222        3.159        3.164        2.476        2.572        2.578        2.357        0.473        1.000        1.000        1.000        1.000        1.000        0.000        0.000        2.000        1.000        0.000        0.000        0.000        0.000        0.000        0.000        3.000        0.000        0.000        0.000        0.000        0.000        0.000        0.000        0.000        3.000        4.000        0.000        1.000        1.000        0.000        1.000        2.000        0.000        0.000        0.000      100.000        0.000        0.000        1.993        2.005        2.288
     140.000  -232858.279    24818.487    14683.744    33449.594      117.334  -347671.121    41743.684       25.978       26.015        2.520        2.484        2.620        2.674        3.103        3.035        3.233        2.961        3.250        3.249        3.111        3.219        2.454        2.556        2.560        2.418        0.454        1.000        1.000        1.000        0.000        1.000        0.000        0.000        2.000        0.000        0.000        0.000        0.000        0.000        0.000        0.000        1.000        0.000        0.000        0.000        0.000        0.000        0.000        0.000        0.000        3.000        2.000        0.000        2.000        0.000        0.000        0.000        7.000        0.000        0.000        0.000      100.000        0.000        0.000        2.006        2.029        2.318
     150.000  -232511.723    25288.594    14790.939    33080.904      104.029  -348059.440    42283.251       26.083       25.974        2.576        2.494        2.615        2.683        3.117        3.132        3.296        3.102        3.272        3.194        3.110        3.179        2.482        2.559        2.572        2.431        0.495        1.000        1.000        1.000        0.000        1.000        0.000        0.000        2.000        0.000        0.000        0.000        0.000        0.000        0.000        0.000        1.000        0.000        0.000        0.000        0.000        0.000        0.000        0.000        0.000        2.000        1.000        0.000        1.000        0.000        0.000        0.000        3.000        0.000        0.000        0.000      100.000        0.000        0.000        1.992        2.017        2.328
     160.000  -231953.356    24576.131    14200.303    33543.208      112.397  -346841.245    42455.849       25.647       25.821        2.567        2.498        2.674        2.669        3.173        3.045        3.224        3.051        3.257        3.245        3.112        3.088        2.497        2.510        2.613        2.390        0.482        1.000        1.000        1.000        1.000        1.000        0.000        0.000        2.000        0.000        1.000        0.000        0.000        0.000        0.000        0.000        3.000        0.000        0.000        0.000        0.000        0.000        0.000        0.000        0.000        1.000        5.000        0.000        1.000        1.000        0.000        1.000        1.000        0.000        0.000        0.000      100.000        0.000        0.000        1.658        1.675        2.166
     170.000  -232296.232    23676.776    14459.933    33488.959      123.662  -348299.200    44253.639       25.826       25.677        2.564        2.469        2.655        2.705        3.171        3.033        3.245        3.055        3.224        3.228        3.130        3.016        2.540        2.569        2.603        2.516        0.485        1.000        1.000        0.000        0.000        1.000        0.000        0.000        2.000        0.000        0.000        0.000        0.000        0.000        0.000        1.000        0.000        0.000        0.000        0.000        0.000        0.000        0.000        0.000        0.000        2.000        1.000        3.000        1.000        1.000        0.000        2.000        1.000        0.000        0.000        0.000      100.000        0.000        0.000        1.697        1.692        2.237
     180.000  -231672.853    24642.126    14590.273    33315.860      144.496  -347811.943    43446.336       26.122       25.970        2.623        2.441        2.613        2.673        3.176        3.032        3.283        3.002        3.246        3.249        3.083        3.147        2.564        2.555        2.531        2.444        0.483        1.000        1.000        0.000        0.000        1.000        0.000        0.000        2.000        0.000        0.000        0.000        0.000        0.000        0.000        0.000        0.000        0.000        0.000        0.000        0.000        0.000        0.000        0.000        0.000        2.000        5.000        1.000        0.000        1.000        0.000        1.000        2.000        0.000        0.000        0.000      100.000        0.000        0.000        1.992        1.995        2.539
     190.000  -231540.240    25163.290    14112.776    33626.974      106.589  -345825.316    41275.447       25.803       25.547        2.569        2.484        2.616        2.586        3.073        3.044        3.272        3.068        3.270        3.232        3.096        3.028        2.518        2.631        2.557        2.477        0.490        1.000        1.000        0.000        0.000        1.000        0.000        0.000        2.000        0.000        0.000        0.000        0.000        0.000        0.000        1.000        2.000        0.000        0.000        0.000        0.000        0.000        0.000        0.000        0.000        2.000        1.000        1.000        0.000        1.000        0.000        2.000        4.000        0.000        0.000        0.000      100.000        0.000        0.000        1.886        1.898        2.403
     200.000  -231755.521    23727.893    14391.184    33640.979      153.549  -346411.766    42742.640       26.083       25.782        2.650        2.507        2.625        2.615        3.034        3.064        3.255        3.121        3.208        3.178        3.173        3.055        2.521        2.603        2.556        2.462        0.486        1.000        1.000        1.000        0.000        1.000        0.000        0.000        1.000        0.000        0.000        0.000        0.000        0.000        0.000        0.000        1.000        0.000        0.000        0.000        0.000        0.000        0.000        0.000        0.000        4.000        1.000        0.000        1.000        3.000        0.000        2.000        1.000        0.000        0.000        0.000      100.000        0.000        0.000        1.931        1.959        2.454
     210.000  -231902.962    24074.969    14475.011    33552.447      117.713  -346529.384    42406.282       25.919       25.940        2.562        2.449        2.624        2.619        3.080        3.059        3.279        3.052        3.253        3.261        3.143        3.069        2.560        2.629        2.626        2.521        0.478        1.000        1.000        1.000        0.000        1.000        0.000        0.000        2.000        0.000        0.000        0.000        0.000        0.000        0.000        1.000        2.000        0.000        0.000        0.000        0.000        0.000        0.000        0.000        0.000        2.000        3.000        1.000        0.000        1.000        0.000        1.000        8.000        0.000        0.000        0.000      100.000        0.000        0.000        1.856        1.851        2.348
     220.000  -231970.784    24043.485    14328.635    33567.846      115.524  -346799.250    42772.977       26.000       25.815        2.568        2.496        2.602        2.605        3.129        3.045        3.308        3.042        3.262        3.198        3.162        2.980        2.523        2.601        2.630        2.458        0.473        1.000        1.000        0.000        0.000        0.000        0.000        0.000        2.000        0.000        0.000        0.000        0.000        0.000        0.000        0.000        2.000        0.000        0.000        0.000        0.000        0.000        0.000        0.000        0.000        2.000        2.000        3.000        1.000        2.000        0.000        2.000        7.000        0.000        0.000        0.000      100.000        0.000        0.000        2.096        2.112        2.499
     230.000  -232001.651    24447.668    14269.093    33453.775      111.127  -346752.683    42469.368       26.265       26.019        2.585        2.510        2.611        2.614        3.129        3.023        3.290        3.061        3.281        3.242        3.125        3.170        2.519        2.595        2.568        2.452        0.496        1.000        1.000        0.000        0.000        1.000        0.000        0.000        2.000        0.000        0.000        0.000        0.000        0.000        0.000        0.000        0.000        0.000        0.000        0.000        0.000        0.000        0.000        0.000        0.000        3.000        5.000        1.000        1.000        1.000        0.000        2.000        1.000        0.000        0.000        0.000      100.000        0.000        0.000        2.108        2.125        2.528
     240.000  -231029.096    24789.613    14267.665    33259.776      135.149  -344732.865    41251.566       26.217       26.002        2.556        2.457        2.634        2.611        3.167        3.111        3.308        3.100        3.278        3.175        3.166        3.099        2.532        2.614        2.626        2.487        0.474        1.000        0.000        0.000        0.000        0.000        0.000        0.000        2.000        0.000        0.000        0.000        0.000        0.000        0.000        0.000        0.000        0.000        0.000        0.000        0.000        0.000        0.000        0.000        0.000        0.000        1.000        0.000        1.000        1.000        0.000        0.000        2.000        0.000        0.000        0.000      100.000        0.000        0.000        1.954        1.961        2.436
     250.000  -231795.861    23262.494    14669.458    33373.750      123.715  -346545.530    43320.252       26.057       25.928        2.572        2.459        2.619        2.603        3.135        3.073        3.246        2.988        3.206        3.174        3.083        3.113        2.534        2.597        2.559        2.457        0.493        1.000        1.000        0.000        0.000        0.000        0.000        0.000        2.000        0.000        0.000        0.000        0.000        0.000        0.000        0.000        1.000        0.000        0.000        0.000        0.000        0.000        0.000        0.000        0.000        6.000        2.000        1.000        0.000        1.000        0.000        0.000        1.000        0.000        0.000        0.000      100.000        0.000        0.000        1.614        1.635        2.133
     260.000  -231188.431    23436.739    14147.395    33596.157      143.070  -344461.225    41949.434       26.000       25.944        2.524        2.463        2.593        2.598        3.178        3.058        3.301        3.017        3.198        3.162        3.087        3.078        2.579        2.609        2.588        2.525        0.487        1.000        1.000        0.000        0.000        0.000        0.000        0.000        2.000        0.000        1.000        0.000        0.000        0.000        0.000        0.000        1.000        0.000        0.000        0.000        0.000        0.000        0.000        0.000        0.000        4.000        2.000        2.000        1.000        1.000        0.000        2.000        3.000        0.000        0.000        0.000      100.000        0.000        0.000        1.749        1.780        2.252
     270.000  -231672.178    23989.419    14097.548    33692.116      137.108  -344611.422    41023.053       25.832       25.546        2.610        2.480        2.573        2.600        3.126        3.032        3.248        2.916        3.278        3.163        3.179        3.006        2.594        2.608        2.600        2.426        0.474        1.000        0.000        0.000        0.000        0.000        0.000        0.000        2.000        0.000        0.000        0.000        0.000        0.000        0.000        0.000        1.000        0.000        0.000        0.000        0.000        0.000        0.000        0.000        0.000        0.000        2.000        0.000        1.000        2.000        0.000        0.000        1.000        0.000        0.000        0.000      100.000        0.000        0.000        1.512        1.523        2.189
     280.000  -231315.385    23456.831    14321.327    33406.183      134.352  -344398.954    41764.878       25.983       25.825        2.595        2.462        2.660        2.638        3.132        3.005        3.269        2.895        3.250        3.162        3.096        3.059        2.522        2.578        2.666        2.445        0.501        1.000        0.000        0.000        0.000        0.000        0.000        0.000        2.000        0.000        2.000        0.000        0.000        0.000        0.000        0.000        1.000        0.000        0.000        0.000        0.000        0.000        0.000        0.000        0.000        1.000        1.000        0.000        3.000        1.000        0.000        0.000        1.000        0.000        0.000        0.000      100.000        0.000        0.000        1.635        1.642        2.211
     290.000  -230828.968    23928.065    14018.152    33292.118      129.725  -342898.834    40701.806       26.121       25.914        2.555        2.501        2.649        2.610        3.162        3.076        3.295        2.974        3.217        3.159        3.134        3.100        2.516        2.594        2.677        2.552        0.496        1.000        1.000        0.000        0.000        0.000        0.000        0.000        2.000        0.000        0.000        0.000        0.000        0.000        0.000        0.000        2.000        0.000        0.000        0.000        0.000        0.000        0.000        0.000        0.000        1.000        1.000        2.000        3.000        1.000        0.000        2.000        3.000        0.000        0.000        0.000      100.000        0.000        0.000        1.715        1.737        2.279
     300.000  -230924.870    23405.898    13999.232    33411.289      112.641  -344056.145    42202.215       25.710       25.626        2.669        2.460        2.607        2.655        3.130        3.055        3.244        3.024        3.262        3.190        3.137        3.103        2.569        2.572        2.627        2.521        0.481        1.000        1.000        0.000        0.000        0.000        0.000        0.000        1.000        0.000        0.000        0.000        0.000        0.000        0.000        0.000        1.000        0.000        0.000        0.000        0.000        0.000        0.000        0.000        0.000        0.000        3.000        0.000        2.000        2.000        0.000        0.000        3.000        0.000        0.000        0.000      100.000        0.000        0.000        1.702        1.712        2.384
     310.000  -231497.812    23354.514    13996.133    33408.391      110.925  -343706.737    41338.961       25.842       25.789        2.542        2.451        2.649        2.649        3.123        3.024        3.225        2.996        3.247        3.145        3.073        3.005        2.594        2.554        2.665        2.502        0.496        1.000        1.000        0.000        0.000        0.000        0.000        0.000        2.000        0.000        1.000        0.000        0.000        0.000        0.000        1.000        1.000        0.000        0.000        0.000        0.000        0.000        0.000        0.000        0.000        2.000        1.000        0.000        1.000        0.000        0.000        1.000        2.000        0.000        0.000        0.000      100.000        0.000        0.000        1.667        1.685        2.472
     320.000  -230792.993    22927.595    14046.768    33392.890      128.532  -344405.246    43116.468       25.991       25.779        2.577        2.481        2.591        2.643        3.174        3.089        3.257        2.982        3.329        3.188        3.126        3.096        2.619        2.637        2.711        2.498        0.492        0.000        1.000        0.000        0.000        0.000        0.000        0.000        2.000        0.000        1.000        0.000        0.000        0.000        0.000        0.000        2.000        0.000        0.000        0.000        0.000        0.000        0.000        0.000        0.000        1.000        1.000        1.000        1.000        1.000        0.000        1.000        3.000        0.000        0.000        0.000      100.000        0.000        0.000        1.833        1.841        2.481
     330.000  -230652.475    24472.797    14484.780    33307.499      141.589  -343838.978    40779.837       25.797       25.743        2.607        2.484        2.571        2.635        3.181        3.095        3.295        3.022        3.236        3.133        3.149        3.178        2.518        2.576        2.680        2.519        0.494        1.000        0.000        0.000        0.000        0.000        0.000        0.000        2.000        0.000        1.000        0.000        0.000        0.000        0.000        1.000        2.000        0.000        0.000        0.000        0.000        0.000        0.000        0.000        0.000        1.000        0.000        0.000        2.000        2.000        0.000        0.000        3.000        0.000        0.000        0.000      100.000        0.000        0.000        1.794        1.797        2.459
     340.000  -231037.530    23202.628    14378.604    33492.291      106.995  -344598.394    42380.346       25.677       25.531        2.597        2.447        2.605        2.634        3.135        3.077        3.252        2.950        3.261        3.192        3.154        3.153        2.593        2.576        2.714        2.503        0.478        1.000        0.000        0.000        0.000        0.000        0.000        0.000        2.000        0.000        0.000        0.000        0.000        0.000        0.000        0.000        1.000        0.000        0.000        0.000        0.000        0.000        0.000        0.000        0.000        1.000        2.000        1.000        0.000        1.000        0.000        0.000        5.000        0.000        0.000        0.000      100.000        0.000        0.000        1.669        1.685        2.534
     350.000  -230977.029    23994.465    14117.135    33439.870      127.985  -343785.504    41129.021       25.711       25.562        2.604        2.449        2.586        2.651        3.148        3.129        3.236        2.951        3.221        3.178        3.109        3.131        2.478        2.549        2.666        2.458        0.471        0.000        0.000        0.000        0.000        0.000        0.000        0.000        1.000        0.000        0.000        0.000        0.000        0.000        0.000        0.000        0.000        0.000        0.000        0.000        0.000        0.000        0.000        0.000        0.000        0.000        3.000        2.000        1.000        1.000        0.000        1.000        4.000        0.000        0.000        0.000      100.000        0.000        0.000        1.809        1.815        2.635
     360.000  -231326.967    22978.285    14211.984    33392.251      133.749  -345236.321    43193.085       25.874       25.796        2.541        2.474        2.623        2.623        3.104        3.044        3.268        3.118        3.248        3.192        3.111        3.049        2.546        2.545        2.731        2.548        0.473        1.000        0.000        0.000        0.000        0.000        0.000        0.000        2.000        0.000        0.000        0.000        0.000        0.000        0.000        0.000        4.000        0.000        0.000        0.000        0.000        0.000        0.000        0.000        0.000        2.000        0.000        2.000        0.000        1.000        0.000        1.000        2.000        0.000        0.000        0.000      100.000        0.000        0.000        1.666        1.669        2.576
     370.000  -230636.386    23391.237    14391.031    33295.324      111.791  -343589.448    41763.678       25.739       25.682        2.508        2.470        2.615        2.641        3.150        3.029        3.256        3.093        3.246        3.206        3.095        3.159        2.548        2.576        2.732        2.536        0.482        1.000        0.000        0.000        0.000        0.000        0.000        0.000        2.000        0.000        1.000        0.000        0.000        0.000        0.000        0.000        1.000        0.000        0.000        0.000        0.000        0.000        0.000        0.000        0.000        0.000        3.000        1.000        1.000        0.000        0.000        0.000        2.000        0.000        0.000        0.000      100.000        0.000        0.000        1.592        1.593        2.589
     380.000  -229753.802    23315.984    14276.038    33442.547      125.638  -342750.401    41836.392       25.781       25.753        2.556        2.495        2.609        2.609        3.118        2.998        3.270        3.105        3.311        3.165        3.173        2.980        2.590        2.580        2.705        2.543        0.469        1.000        0.000        0.000        0.000        0.000        0.000        0.000        2.000        0.000        1.000        0.000        0.000        0.000        0.000        0.000        1.000        0.000        0.000        0.000        0.000        0.000        0.000        0.000        0.000        0.000        1.000        0.000        0.000        0.000        0.000        0.000        4.000        0.000        0.000        0.000      100.000        0.000        0.000        1.936        1.958        2.873
     390.000  -229988.920    23599.133    14183.619    33401.946      148.507  -343107.489    41785.364       26.085       25.802        2.595        2.456        2.601        2.617        3.143        3.008        3.278        2.970        3.244        3.149        3.169        3.097        2.551        2.612        2.712        2.530        0.495        1.000        0.000        0.000        0.000        0.000        0.000        0.000        2.000        0.000        1.000        0.000        0.000        0.000        0.000        0.000        2.000        0.000        0.000        0.000        0.000        0.000        0.000        0.000        0.000        0.000        1.000        1.000        1.000        4.000        0.000        0.000        2.000        0.000        0.000        0.000      100.000        0.000        0.000        2.041        2.038        2.821
     400.000  -229918.308    22363.478    13988.366    33356.180      113.489  -342447.268    42707.447       26.072       25.808        2.590        2.502        2.565        2.623        3.155        3.085        3.245        2.975        3.239        3.202        3.106        3.131        2.536        2.617        2.657        2.521        0.477        0.000        0.000        0.000        0.000        0.000        0.000        0.000        2.000        0.000        1.000        0.000        0.000        0.000        0.000        0.000        0.000        0.000        0.000        0.000        0.000        0.000        0.000        0.000        0.000        1.000        1.000        1.000        0.000        1.000        0.000        0.000        2.000        0.000        0.000        0.000      100.000        0.000        0.000        1.931        1.921        2.798
     410.000  -230558.734    24232.052    14008.586    33325.216      130.274  -342713.932    40459.071       26.039       25.825        2.608        2.458        2.564        2.627        3.181        3.037        3.175        3.075        3.285        3.140        3.132        3.095        2.556        2.607        2.688        2.462        0.473        1.000        0.000        0.000        0.000        0.000        0.000        0.000        2.000        0.000        0.000        0.000        0.000        0.000        0.000        0.000        3.000        0.000        0.000        0.000        0.000        0.000        0.000        0.000        0.000        1.000        1.000        2.000        0.000        1.000        0.000        0.000        2.000        0.000        0.000        0.000      100.000        0.000        0.000        1.798        1.793        2.731
     420.000  -231199.449    23839.234    14029.479    33315.426      139.460  -343947.692    41424.644       25.903       25.881        2.586        2.484        2.613        2.593        3.210        3.083        3.232        3.028        3.256        3.172        3.092        3.122        2.549        2.577        2.729        2.467        0.474        1.000        0.000        0.000        0.000        0.000        0.000        0.000        2.000        0.000        1.000        0.000        0.000        0.000        0.000        0.000        2.000        0.000        0.000        0.000        0.000        0.000        0.000        0.000        0.000        0.000        2.000        1.000        1.000        3.000        0.000        0.000        3.000        0.000        0.000        0.000      100.000        0.000        0.000        1.992        1.991        2.817
     430.000  -229848.096    23398.667    14395.163    33240.107      125.307  -343257.051    42249.711       25.809       25.759        2.589        2.476        2.629        2.625        3.166        3.065        3.251        3.076        3.294        3.169        3.152        3.023        2.589        2.584        2.663        2.481        0.489        1.000        0.000        1.000        0.000        0.000        0.000        0.000        2.000        0.000        0.000        0.000        0.000        0.000        0.000        0.000        2.000        0.000        0.000        0.000        0.000        0.000        0.000        0.000        0.000        0.000        2.000        2.000        1.000        2.000        0.000        0.000        3.000        0.000        0.000        0.000      100.000        0.000        0.000        2.300        2.323        3.177
     440.000  -230071.246    23955.042    14409.506    33233.007      140.472  -343553.845    41744.573       26.004       25.913        2.544        2.442        2.627        2.623        3.184        3.052        3.267        3.006        3.264        3.204        3.147        3.099        2.547        2.568        2.659        2.459        0.490        1.000        0.000        1.000        0.000        0.000        0.000        0.000        2.000        0.000        0.000        0.000        0.000        0.000        0.000        0.000        1.000        0.000        0.000        0.000        0.000        0.000        0.000        0.000        0.000        0.000        2.000        2.000        1.000        0.000        0.000        1.000        2.000        0.000        0.000        0.000      100.000        0.000        0.000        2.229        2.266        3.198
     450.000  -230835.313    24162.522    14089.825    33290.976      130.662  -343613.228    41103.930       25.714       25.783        2.552        2.458        2.629        2.666        3.229        3.060        3.319        2.979        3.250        3.144        3.104        3.133        2.585        2.554        2.690        2.480        0.492        1.000        0.000        1.000        0.000        0.000        0.000        0.000        2.000        0.000        1.000        0.000        0.000        0.000        0.000        0.000        2.000        0.000        0.000        0.000        0.000        0.000        0.000        0.000        0.000        1.000        2.000        2.000        0.000        0.000        0.000        0.000        6.000        0.000        0.000        0.000      100.000        0.000        0.000        2.115        2.107        3.187
     460.000  -231307.391    23615.582    14004.143    33262.225      123.802  -344276.994    41963.850       25.692       25.489        2.626        2.481        2.585        2.655        3.245        3.014        3.216        3.043        3.288        3.157        3.129        3.121        2.570        2.541        2.686        2.569        0.476        1.000        0.000        1.000        0.000        0.000        0.000        0.000        1.000        0.000        0.000        0.000        0.000        0.000        0.000        0.000        3.000        0.000        0.000        0.000        0.000        0.000        0.000        0.000        0.000        0.000        2.000        1.000        2.000        0.000        0.000        0.000        3.000        0.000        0.000        0.000      100.000        0.000        0.000        1.659        1.651        2.820
     470.000  -231237.763    22993.555    14008.692    33482.706      152.150  -343787.761    41912.895       25.957       26.085        2.593        2.463        2.580        2.652        3.160        3.061        3.222        3.054        3.252        3.188        3.071        3.124        2.538        2.524        2.658        2.553        0.483        1.000        0.000        1.000        0.000        0.000        0.000        0.000        1.000        0.000        0.000        0.000        0.000        0.000        0.000        0.000        2.000        0.000        0.000        0.000        0.000        0.000        0.000        0.000        0.000        0.000        2.000        0.000        0.000        0.000        0.000        0.000        0.000        0.000        0.000        0.000      100.000        0.000        0.000        1.602        1.596        2.678
     480.000  -230776.519    23488.502    14110.183    33057.188      126.659  -342769.688    41210.639       26.022       26.159        2.589        2.492        2.616        2.613        3.209        3.042        3.250        2.943        3.314        3.205        3.149        3.147        2.604        2.560        2.709        2.525        0.513        1.000        0.000        1.000        0.000        0.000        0.000        0.000        2.000        0.000        0.000        0.000        0.000        0.000        0.000        0.000        3.000        0.000        0.000        0.000        0.000        0.000        0.000        0.000        0.000        1.000        0.000        2.000        1.000        0.000        0.000        1.000        1.000        0.000        0.000        0.000      100.000        0.000        0.000        1.849        1.832        2.852
     490.000  -229933.131    24335.342    14101.283    33325.007      125.191  -343337.094    41517.140       25.745       26.117        2.579        2.509        2.603        2.627        3.229        3.051        3.265        3.061        3.230        3.142        3.137        3.046        2.510        2.557        2.641        2.532        0.501        1.000        0.000        1.000        0.000        0.000        0.000        0.000        1.000        0.000        0.000        0.000        0.000        0.000        0.000        0.000        4.000        0.000        0.000        0.000        0.000        0.000        0.000        0.000        0.000        1.000        0.000        2.000        0.000        1.000        0.000        0.000        4.000        0.000        0.000        0.000      100.000        0.000        0.000        1.586        1.550        2.662
     500.000  -230731.512    22569.435    13956.988    33353.645      123.412  -342808.279    42073.287       25.874       26.511        2.627        2.475        2.595        2.632        3.118        3.034        3.227        3.040        3.265        3.173        3.139        3.016        2.466        2.530        2.675        2.553        0.497        1.000        0.000        0.000        0.000        0.000        0.000        0.000        1.000        0.000        0.000        0.000        0.000        0.000        0.000        0.000        2.000        0.000        0.000        0.000        0.000        0.000        0.000        0.000        0.000        1.000        0.000        2.000        0.000        1.000        0.000        1.000        6.000        0.000        0.000        0.000      100.000        0.000        0.000        1.739        1.754        2.717
     510.000  -231115.582    22713.620    14238.427    33252.217      130.998  -342655.910    41205.066       25.659       26.245        2.584        2.485        2.595        2.664        3.173        3.090        3.269        2.989        3.244        3.161        3.190        3.139        2.510        2.572        2.619        2.472        0.492        1.000        0.000        0.000        0.000        0.000        0.000        0.000        2.000        0.000        0.000        0.000        0.000        0.000        0.000        0.000        1.000        0.000        0.000        0.000        0.000        0.000        0.000        0.000        0.000        1.000        0.000        2.000        1.000        1.000        0.000        0.000        3.000        0.000        0.000        0.000      100.000        0.000        0.000        1.605        1.602        2.661
     520.000  -230420.284    22276.636    14110.811    33623.223      136.504  -343017.996    42450.539       25.633       25.823        2.613        2.443        2.660        2.615        3.166        3.126        3.248        3.102        3.201        3.174        3.078        3.074        2.489        2.546        2.642        2.514        0.492        1.000        0.000        1.000        0.000        0.000        0.000        0.000        2.000        1.000        0.000        0.000        0.000        0.000        0.000        0.000        4.000        0.000        0.000        0.000        0.000        0.000        0.000        0.000        0.000        0.000        0.000        1.000        0.000        1.000        0.000        0.000        0.000        0.000        0.000        0.000      100.000        0.000        0.000        1.531        1.512        2.598
     530.000  -230337.636    22728.755    13877.584    33627.225      127.699  -342840.156    42141.259       25.544       25.779        2.571        2.455        2.626        2.585        3.154        3.074        3.264        3.015        3.257        3.177        3.226        3.021        2.537        2.552        2.657        2.579        0.470        0.000        0.000        1.000        0.000        0.000        0.000        0.000        2.000        0.000        1.000        0.000        0.000        0.000        0.000        0.000        0.000        0.000        0.000        0.000        0.000        0.000        0.000        0.000        0.000        1.000        0.000        0.000        0.000        0.000        0.000        0.000        5.000        0.000        0.000        0.000      100.000        0.000        0.000        1.434        1.409        2.522
     540.000  -230594.779    23129.979    14118.284    33337.633      136.697  -344021.112    42703.740       25.734       26.044        2.585        2.485        2.648        2.616        3.176        3.083        3.291        2.968        3.235        3.144        3.154        3.213        2.511        2.620        2.702        2.554        0.503        1.000        0.000        1.000        0.000        0.000        0.000        0.000        2.000        0.000        0.000        0.000        0.000        0.000        0.000        0.000        4.000        0.000        0.000        0.000        0.000        0.000        0.000        0.000        0.000        1.000        1.000        0.000        2.000        1.000        0.000        0.000        3.000        0.000        0.000        0.000      100.000        0.000        0.000        1.606        1.582        2.552
     550.000  -231046.918    23585.569    14061.345    33139.874      111.297  -342713.757    40768.753       25.922       25.844        2.584        2.484        2.602        2.635        3.168        3.113        3.285        2.998        3.294        3.179        3.149        3.081        2.567        2.624        2.668        2.585        0.489        1.000        0.000        1.000        0.000        0.000        0.000        0.000        2.000        0.000        0.000        0.000        0.000        0.000        0.000        0.000        3.000        0.000        0.000        0.000        0.000        0.000        0.000        0.000        0.000        0.000        1.000        1.000        0.000        2.000        0.000        0.000        1.000        0.000        0.000        0.000      100.000        0.000        0.000        1.715        1.703        2.712
     560.000  -229883.048    22374.100    13906.963    33406.931      125.244  -342446.612    42750.326       25.528       25.709        2.565        2.482        2.603        2.643        3.183        3.054        3.264        3.061        3.227        3.123        3.215        3.211        2.528        2.594        2.659        2.582        0.495        1.000        0.000        1.000        0.000        0.000        0.000        0.000        1.000        0.000        0.000        0.000        0.000        0.000        0.000        0.000        5.000        0.000        0.000        0.000        0.000        0.000        0.000        0.000        0.000        1.000        3.000        1.000        1.000        1.000        0.000        0.000        1.000        0.000        0.000        0.000      100.000        0.000        0.000        1.632        1.626        2.821
     570.000  -230756.472    23455.329    13715.047    33432.138      122.632  -342877.575    41395.956       25.773       26.079        2.531        2.518        2.604        2.592        3.159        3.067        3.275        3.048        3.239        3.174        3.136        3.088        2.561        2.601        2.695        2.524        0.469        1.000        0.000        1.000        0.000        0.000        0.000        0.000        2.000        0.000        1.000        0.000        0.000        0.000        0.000        0.000        3.000        0.000        0.000        0.000        0.000        0.000        0.000        0.000        0.000        1.000        5.000        1.000        0.000        0.000        0.000        0.000        2.000        0.000        0.000        0.000      100.000        0.000        0.000        1.545        1.540        2.690
     580.000  -230239.624    23428.435    13927.072    33233.267      149.441  -341588.215    40610.376       25.838       26.128        2.597        2.481        2.605        2.639        3.166        3.098        3.239        3.126        3.217        3.181        3.228        3.160        2.564        2.594        2.688        2.568        0.489        1.000        0.000        1.000        0.000        0.000        0.000        0.000        2.000        0.000        1.000        0.000        0.000        0.000        0.000        0.000        1.000        0.000        0.000        0.000        0.000        0.000        0.000        0.000        0.000        0.000        1.000        1.000        0.000        0.000        0.000        0.000        0.000        0.000        0.000        0.000      100.000        0.000        0.000        1.749        1.734        2.905
     590.000  -230200.697    22566.128    14178.589    33395.500      137.742  -342842.213    42363.556       25.917       26.073        2.583        2.476        2.604        2.690        3.170        3.026        3.268        2.958        3.267        3.151        3.157        3.145        2.524        2.634        2.680        2.532        0.484        1.000        0.000        1.000        0.000        0.000        0.000        0.000        2.000        0.000        0.000        0.000        0.000        0.000        0.000        0.000        0.000        0.000        0.000        0.000        0.000        0.000        0.000        0.000        0.000        0.000        2.000        0.000        0.000        1.000        0.000        0.000        2.000        0.000        0.000        0.000      100.000        0.000        0.000        1.791        1.761        2.902
     600.000  -230929.099    22385.528    13903.174    33440.636      131.524  -344657.510    43867.549       25.914       25.832        2.541        2.466        2.566        2.614        3.147        3.057        3.232        2.997        3.319        3.163        3.167        3.045        2.553        2.600        2.713        2.552        0.492        1.000        0.000        1.000        0.000        0.000        0.000        0.000        2.000        0.000        0.000        0.000        0.000        0.000        0.000        0.000        3.000        0.000        0.000        0.000        0.000        0.000        0.000        0.000        0.000        1.000        3.000        1.000        0.000        1.000        0.000        0.000        1.000        0.000        0.000        0.000      100.000        0.000        0.000        1.861        1.871        2.773
     610.000  -230364.169    23509.627    14139.538    33163.792      125.881  -342806.687    41503.678       25.842       25.773        2.589        2.460        2.619        2.667        3.183        3.081        3.278        2.974        3.222        3.207        3.135        3.230        2.602        2.588        2.696        2.519        0.482        1.000        0.000        1.000        0.000        0.000        0.000        0.000        2.000        0.000        1.000        0.000        0.000        0.000        0.000        0.000        5.000        0.000        0.000        0.000        0.000        0.000        0.000        0.000        0.000        1.000        0.000        2.000        0.000        2.000        0.000        0.000        1.000        0.000        4.494        0.000       95.506        0.000        0.000        2.050        2.069        2.954
     620.000  -230318.502    23038.665    14183.907    33519.289      147.234  -344244.459    43036.864       25.795       25.918        2.576        2.435        2.622        2.641        3.156        3.048        3.241        2.960        3.285        3.184        3.211        3.099        2.529        2.602        2.712        2.537        0.483        1.000        0.000        1.000        0.000        0.000        0.000        0.000        2.000        0.000        0.000        0.000        0.000        0.000        0.000        0.000        2.000        0.000        0.000        0.000        0.000        0.000        0.000        0.000        0.000        1.000        0.000        0.000        0.000        2.000        0.000        0.000        3.000        0.000        4.494        0.000       95.506        0.000        0.000        2.188        2.195        3.140
     630.000  -230203.029    22998.708    14393.116    33234.192      119.392  -343061.478    42113.041       25.945       26.084        2.562        2.454        2.656        2.641        3.146        3.129        3.243        3.041        3.308        3.153        3.164        3.073        2.561        2.572        2.708        2.604        0.492        1.000        0.000        1.000        0.000        0.000        0.000        0.000        2.000        0.000        1.000        0.000        0.000        0.000        0.000        0.000        1.000        0.000        0.000        0.000        0.000        0.000        0.000        0.000        0.000        1.000        3.000        0.000        1.000        1.000        0.000        0.000        4.000        0.000        4.494        0.000       95.506        0.000        0.000        2.474        2.485        3.324
     640.000  -230135.885    22615.043    14176.910    33233.333      141.599  -343080.589    42777.819       26.122       26.029        2.543        2.464        2.665        2.631        3.146        3.091        3.285        2.900        3.263        3.105        3.270        3.220        2.522        2.547        2.704        2.520        0.474        1.000        0.000        1.000        0.000        0.000        0.000        0.000        2.000        0.000        0.000        0.000        0.000        0.000        0.000        0.000        0.000        0.000        0.000        0.000        0.000        0.000        0.000        0.000        0.000        1.000        1.000        0.000        0.000        1.000        0.000        0.000        3.000        0.000        4.494        0.000       95.506        0.000        0.000        2.781        2.800        3.422
     650.000  -231047.736    23504.682    13939.738    33331.478      138.399  -343577.829    41615.795       25.941       25.756        2.536        2.446        2.529        2.642        3.108        3.071        3.297        3.033        3.310        3.158        3.275        3.152        2.582        2.573        2.739        2.596        0.470        0.000        1.000        0.000        0.000        0.000        0.000        0.000        1.000        0.000        0.000        0.000        0.000        0.000        0.000        0.000        4.000        0.000        0.000        0.000        0.000        0.000        0.000        0.000        0.000        3.000        0.000        2.000        0.000        1.000        0.000        0.000        0.000        0.000        4.494        0.000       95.506        0.000        0.000        2.524        2.560        3.242
     660.000  -230541.384    22371.130    13896.216    33220.608       92.682  -342389.991    42267.971       26.057       26.180        2.542        2.443        2.605        2.604        3.088        3.076        3.315        3.044        3.230        3.153        3.142        3.081        2.528        2.542        2.657        2.546        0.476        1.000        0.000        0.000        1.000        0.000        0.000        0.000        2.000        0.000        0.000        0.000        0.000        0.000        0.000        0.000        1.000        0.000        0.000        0.000        0.000        0.000        0.000        0.000        0.000        1.000        3.000        1.000        1.000        2.000        0.000        0.000        1.000        0.000        4.494        0.000       95.506        0.000        0.000        2.784        2.795        3.375
     670.000  -230945.944    23108.361    13943.148    33455.905       99.748  -343894.351    42341.244       25.948       25.983        2.556        2.411        2.573        2.650        3.140        3.087        3.261        2.982        3.257        3.148        3.246        3.189        2.560        2.582        2.690        2.557        0.495        1.000        0.000        0.000        1.000        0.000        0.000        0.000        2.000        0.000        1.000        0.000        0.000        0.000        0.000        0.000        1.000        0.000        0.000        0.000        0.000        0.000        0.000        0.000        0.000        1.000        0.000        1.000        0.000        1.000        0.000        0.000        5.000        0.000        0.000        0.000      100.000        0.000        0.000        2.367        2.366        3.067
     680.000  -230215.301    22956.765    14032.818    33545.308      149.442  -342940.434    42040.799       25.928       25.846        2.569        2.444        2.568        2.610        3.155        3.149        3.284        2.936        3.251        3.187        3.164        3.110        2.534        2.581        2.656        2.512        0.476        1.000        0.000        0.000        1.000        0.000        0.000        0.000        2.000        0.000        1.000        0.000        0.000        0.000        0.000        0.000        1.000        0.000        0.000        0.000        0.000        0.000        0.000        0.000        0.000        0.000        1.000        1.000        0.000        1.000        0.000        2.000        3.000        0.000        4.494        0.000       95.506        0.000        0.000        1.891        1.905        2.797
     690.000  -229982.451    22877.454    13978.356    33524.038      136.641  -341735.378    41236.438       26.080       26.019        2.560        2.474        2.574        2.648        3.110        3.090        3.270        2.920        3.207        3.177        3.219        3.190        2.560        2.534        2.678        2.487        0.474        1.000        0.000        0.000        1.000        0.000        0.000        0.000        1.000        0.000        0.000        0.000        0.000        0.000        0.000        0.000        1.000        0.000        0.000        0.000        0.000        0.000        0.000        0.000        0.000        1.000        2.000        2.000        0.000        0.000        0.000        0.000        2.000        0.000        0.000        0.000      100.000        0.000        0.000        1.964        1.953        2.948
     700.000  -229799.330    22742.010    13830.299    33545.830      138.103  -341568.756    41513.185       25.763       25.787        2.572        2.451        2.606        2.626        3.164        3.058        3.261        2.999        3.224        3.164        3.185        3.038        2.499        2.508        2.635        2.596        0.474        0.000        0.000        0.000        1.000        0.000        0.000        0.000        2.000        0.000        0.000        0.000        0.000        0.000        0.000        0.000        0.000        0.000        0.000        0.000        0.000        0.000        0.000        0.000        0.000        0.000        0.000        2.000        1.000        1.000        0.000        0.000        3.000        0.000        4.494        0.000       95.506        0.000        0.000        1.983        1.967        2.959
     710.000  -230011.394    23420.390    13889.308    33401.835      143.092  -341651.311    40785.292       26.127       26.032        2.591        2.456        2.601        2.616        3.142        3.098        3.270        2.977        3.203        3.195        3.207        3.222        2.533        2.557        2.622        2.550        0.488        1.000        0.000        0.000        0.000        0.000        0.000        0.000        1.000        0.000        1.000        0.000        0.000        0.000        0.000        0.000        0.000        0.000        0.000        0.000        0.000        0.000        0.000        0.000        0.000        0.000        0.000        1.000        2.000        2.000        0.000        0.000        3.000        0.000        4.494        0.000       95.506        0.000        0.000        1.947        1.917        3.041
     720.000  -230259.804    23228.690    13942.924    33235.456      138.878  -341774.662    40968.911       26.235       26.408        2.564        2.483        2.630        2.630        3.141        3.076        3.269        2.994        3.223        3.179        3.181        3.158        2.502        2.515        2.671        2.564        0.483        1.000        0.000        0.000        1.000        0.000        0.000        0.000        2.000        0.000        1.000        0.000        0.000        0.000        0.000        0.000        1.000        0.000        0.000        0.000        0.000        0.000        0.000        0.000        0.000        1.000        0.000        1.000        0.000        0.000        0.000        0.000        1.000        0.000        0.000        0.000      100.000        0.000        0.000        2.396        2.364        3.248
     730.000  -229996.969    22291.181    13983.194    33371.523      124.689  -343222.292    43454.738       25.925       26.328        2.572        2.448        2.654        2.629        3.171        3.010        3.212        2.869        3.238        3.209        3.201        3.150        2.509        2.534        2.669        2.515        0.497        1.000        0.000        0.000        0.000        0.000        0.000        0.000        1.000        0.000        0.000        0.000        0.000        0.000        0.000        0.000        0.000        0.000        0.000        0.000        0.000        0.000        0.000        0.000        0.000        0.000        0.000        1.000        2.000        1.000        0.000        0.000        2.000        0.000        4.494        0.000       95.506        0.000        0.000        2.341        2.303        3.199
     740.000  -230093.495    23039.632    13933.168    33598.182      105.598  -342526.005    41755.929       25.840       25.909        2.581        2.453        2.607        2.644        3.141        2.992        3.207        2.879        3.249        3.210        3.226        3.153        2.511        2.571        2.675        2.492        0.490        1.000        0.000        0.000        1.000        0.000        0.000        0.000        2.000        0.000        0.000        0.000        0.000        0.000        0.000        0.000        1.000        0.000        0.000        0.000        0.000        0.000        0.000        0.000        0.000        1.000        0.000        0.000        1.000        1.000        0.000        0.000        4.000        0.000        0.000        0.000      100.000        0.000        0.000        2.259        2.221        3.198
     750.000  -229992.773    22733.245    14013.490    33356.761      133.746  -341798.179    41568.163       26.148       25.830        2.527        2.478        2.590        2.595        3.168        3.075        3.261        2.962        3.257        3.211        3.173        3.204        2.514        2.502        2.706        2.513        0.487        1.000        0.000        0.000        0.000        0.000        0.000        0.000        2.000        0.000        0.000        0.000        0.000        0.000        0.000        0.000        3.000        0.000        0.000        0.000        0.000        0.000        0.000        0.000        0.000        1.000        2.000        2.000        1.000        1.000        0.000        0.000        4.000        0.000        0.000        0.000      100.000        0.000        0.000        2.367        2.321        3.480
     760.000  -230443.498    22228.739    14015.050    33783.022      133.821  -343104.624    42500.494       25.932       26.015        2.596        2.450        2.575        2.619        3.136        3.030        3.192        3.002        3.231        3.167        3.156        3.056        2.547        2.552        2.614        2.569        0.486        1.000        0.000        0.000        1.000        0.000        0.000        0.000        2.000        0.000        0.000        0.000        0.000        0.000        0.000        0.000        2.000        0.000        0.000        0.000        0.000        0.000        0.000        0.000        0.000        0.000        1.000        0.000        3.000        0.000        0.000        0.000        1.000        0.000        0.000        0.000      100.000        0.000        0.000        2.577        2.544        3.637
     770.000  -230566.558    21684.698    14126.812    33409.709      129.013  -342253.233    42336.442       26.123       26.004        2.600        2.491        2.681        2.621        3.121        3.057        3.227        2.902        3.263        3.159        3.177        3.122        2.546        2.576        2.712        2.559        0.484        1.000        0.000        0.000        1.000        0.000        0.000        0.000        1.000        0.000        0.000        0.000        0.000        0.000        0.000        0.000        3.000        0.000        0.000        0.000        0.000        0.000        0.000        0.000        0.000        1.000        2.000        1.000        1.000        0.000        0.000        0.000        4.000        0.000        0.000        0.000      100.000        0.000        0.000        2.720        2.701        3.615
     780.000  -229745.351    22237.681    14027.684    33571.467      114.367  -341581.665    41885.115       25.703       25.727        2.615        2.452        2.607        2.590        3.141        3.076        3.198        3.029        3.221        3.196        3.165        3.183        2.494        2.599        2.723        2.490        0.494        0.000        0.000        0.000        1.000        0.000        0.000        0.000        2.000        0.000        1.000        0.000        0.000        0.000        0.000        0.000        4.000        0.000        0.000        0.000        0.000        0.000        0.000        0.000        0.000        3.000        0.000        2.000        2.000        1.000        0.000        0.000        2.000        0.000        0.000        0.000      100.000        0.000        0.000        2.811        2.803        3.834
     790.000  -229546.209    22449.395    14105.684    33322.804      128.375  -341166.201    41613.735       25.912       26.021        2.595        2.470        2.625        2.580        3.119        2.994        3.248        2.997        3.289        3.172        3.143        3.182        2.513        2.561        2.656        2.621        0.496        0.000        0.000        0.000        1.000        0.000        0.000        0.000        2.000        0.000        0.000        0.000        0.000        0.000        0.000        0.000        1.000        0.000        0.000        0.000        0.000        0.000        0.000        0.000        0.000        2.000        0.000        1.000        1.000        0.000        0.000        0.000        7.000        0.000        0.000        0.000      100.000        0.000        0.000        3.104        3.091        3.975
     800.000  -230273.536    22862.411    14144.974    33400.335      122.743  -342060.620    41256.621       26.012       25.885        2.582        2.472        2.665        2.570        3.136        2.980        3.228        2.983        3.243        3.202        3.152        3.145        2.626        2.560        2.722        2.572        0.501        0.000        1.000        0.000        1.000        0.000        0.000        0.000        2.000        0.000        0.000        0.000        0.000        0.000        0.000        0.000        1.000        0.000        0.000        0.000        0.000        0.000        0.000        0.000        0.000        0.000        2.000        0.000        1.000        0.000        0.000        1.000        3.000        0.000        4.494        0.000       95.506        0.000        0.000        2.933        2.899        3.929
     810.000  -229899.815    23006.990    14094.917    33384.068      116.122  -341699.014    41197.101       26.076       26.145        2.568        2.466        2.629        2.606        3.148        3.050        3.223        3.025        3.259        3.162        3.202        3.252        2.499        2.557        2.711        2.499        0.495        0.000        1.000        0.000        1.000        0.000        0.000        0.000        1.000        0.000        1.000        0.000        0.000        0.000        0.000        0.000        1.000        0.000        0.000        0.000        0.000        0.000        0.000        0.000        0.000        1.000        1.000        3.000        3.000        1.000        0.000        0.000        3.000        0.000        0.000        0.000      100.000        0.000        0.000        3.020        3.006        4.016
     820.000  -229385.617    22192.813    13526.572    33632.467      143.910  -340948.498    42067.120       25.985       25.959        2.564        2.478        2.644        2.576        3.199        3.065        3.236        2.917        3.260        3.220        3.192        3.196        2.532        2.605        2.691        2.511        0.480        0.000        1.000        0.000        1.000        0.000        0.000        0.000        2.000        0.000        1.000        0.000        0.000        0.000        0.000        0.000        3.000        0.000        0.000        0.000        0.000        0.000        0.000        0.000        0.000        1.000        0.000        1.000        2.000        0.000        0.000        0.000        3.000        0.000        0.000        0.000      100.000        0.000        0.000        3.216        3.216        4.167
     830.000  -229877.649    22532.778    14297.043    33467.499      131.473  -343584.202    43277.761       25.944       25.901        2.622        2.481        2.602        2.618        3.156        3.046        3.217        2.945        3.264        3.171        3.191        3.066        2.558        2.524        2.717        2.544        0.491        0.000        1.000        0.000        1.000        0.000        0.000        0.000        2.000        0.000        1.000        0.000        0.000        0.000        0.000        0.000        1.000        0.000        0.000        0.000        0.000        0.000        0.000        0.000        0.000        4.000        0.000        1.000        2.000        1.000        0.000        0.000        2.000        0.000        4.494        0.000       95.506        0.000        0.000        2.947        2.913        4.030
     840.000  -229601.574    22322.696    13983.270    33422.416      134.978  -342077.479    42612.545       25.919       26.049        2.516        2.478        2.533        2.571        3.118        3.086        3.190        2.935        3.224        3.166        3.157        3.088        2.547        2.594        2.633        2.576        0.468        0.000        0.000        0.000        0.000        0.000        0.000        0.000        2.000        0.000        1.000        0.000        1.000        0.000        0.000        0.000        2.000        0.000        0.000        0.000        0.000        0.000        0.000        0.000        0.000        1.000        0.000        0.000        0.000        2.000        0.000        0.000        3.000        0.000        0.000        0.000      100.000        0.000        0.000        2.552        2.466        3.785
     850.000  -230009.011    22468.185    13709.657    33502.908      145.102  -341881.797    42046.934       26.183       26.173        2.575        2.458        2.593        2.584        3.158        3.116        3.225        3.040        3.269        3.167        3.268        3.165        2.540        2.609        2.591        2.541        0.508        1.000        0.000        0.000        0.000        0.000        0.000        0.000        2.000        0.000        1.000        0.000        0.000        0.000        0.000        0.000        2.000        0.000        0.000        0.000        0.000        0.000        0.000        0.000        0.000        3.000        2.000        1.000        2.000        2.000        0.000        0.000        4.000        0.000        4.494        0.000       95.506        0.000        0.000        2.741        2.704        3.733
     860.000  -229810.885    23209.550    14027.666    33406.290      128.585  -341071.411    40488.435       25.996       26.225        2.568        2.512        2.635        2.637        3.182        3.107        3.234        3.007        3.281        3.169        3.184        3.192        2.521        2.568        2.643        2.580        0.482        0.000        0.000        0.000        0.000        0.000        0.000        0.000        2.000        0.000        1.000        0.000        1.000        0.000        0.000        0.000        3.000        0.000        0.000        0.000        0.000        0.000        0.000        0.000        0.000        1.000        1.000        1.000        0.000        0.000        0.000        0.000        3.000        0.000        0.000        0.000      100.000        0.000        0.000        2.616        2.614        3.742
     870.000  -230166.644    22654.740    13909.701    33281.408      126.565  -341670.602    41531.545       25.877       25.860        2.585        2.446        2.660        2.610        3.110        3.075        3.205        3.111        3.267        3.222        3.234        3.145        2.565        2.564        2.624        2.535        0.487        0.000        1.000        0.000        0.000        0.000        0.000        0.000        2.000        0.000        2.000        0.000        0.000        0.000        0.000        0.000        4.000        0.000        0.000        0.000        0.000        0.000        0.000        0.000        0.000        3.000        2.000        1.000        0.000        0.000        0.000        0.000        3.000        0.000        0.000        0.000      100.000        0.000        0.000        2.414        2.392        3.567
     880.000  -229393.104    23786.100    14119.886    33267.105      112.479  -340455.942    39777.269       25.980       26.179        2.613        2.479        2.642        2.594        3.127        3.008        3.194        2.953        3.270        3.197        3.139        3.248        2.544        2.568        2.726        2.583        0.481        0.000        1.000        0.000        0.000        0.000        0.000        0.000        2.000        0.000        0.000        0.000        1.000        0.000        0.000        0.000        1.000        0.000        0.000        0.000        0.000        0.000        0.000        0.000        0.000        3.000        3.000        2.000        1.000        0.000        0.000        0.000        1.000        0.000        0.000        0.000      100.000        0.000        0.000        2.934        2.926        3.935
     890.000  -229844.357    22601.245    14001.951    33506.013      131.275  -341725.309    41640.467       25.811       26.112        2.602        2.446        2.589        2.540        3.156        3.091        3.225        2.856        3.266        3.169        3.157        3.150        2.535        2.583        2.646        2.596        0.474        0.000        1.000        0.000        0.000        0.000        0.000        0.000        1.000        0.000        1.000        0.000        0.000        0.000        0.000        0.000        2.000        0.000        0.000        0.000        0.000        0.000        0.000        0.000        0.000        2.000        0.000        2.000        2.000        0.000        0.000        0.000        1.000        0.000        0.000        0.000      100.000        0.000        0.000        2.790        2.758        3.858
     900.000  -230449.780    23219.067    13764.958    33464.220      133.079  -341880.526    40849.423       25.983       25.790        2.554        2.463        2.656        2.563        3.163        3.024        3.255        2.944        3.289        3.178        3.163        3.197        2.492        2.563        2.632        2.548        0.503        0.000        1.000        0.000        0.000        0.000        0.000        0.000        2.000        0.000        1.000        0.000        0.000        0.000        0.000        0.000        3.000        0.000        0.000        0.000        0.000        0.000        0.000        0.000        0.000        2.000        1.000        2.000        1.000        0.000        0.000        0.000        2.000        0.000        0.000        0.000      100.000        0.000        0.000        2.519        2.499        3.786
     910.000  -229220.920    22964.657    13963.391    33481.466      132.311  -340731.555    40968.810       25.953       25.742        2.605        2.478        2.640        2.606        3.143        3.018        3.198        2.992        3.244        3.172        3.207        3.070        2.551        2.580        2.646        2.545        0.515        0.000        1.000        0.000        0.000        0.000        0.000        0.000        2.000        0.000        1.000        0.000        0.000        0.000        0.000        0.000        1.000        0.000        0.000        0.000        0.000        0.000        0.000        0.000        0.000        4.000        1.000        2.000        2.000        0.000        0.000        1.000        1.000        0.000        0.000        0.000      100.000        0.000        0.000        2.707        2.752        3.862
     920.000  -229526.412    23217.076    13864.926    33338.971      115.697  -341636.531    41573.449       25.995       25.721        2.580        2.468        2.641        2.620        3.169        3.093        3.259        2.938        3.242        3.175        3.199        3.100        2.526        2.600        2.713        2.579        0.503        0.000        1.000        0.000        0.000        0.000        0.000        0.000        1.000        0.000        1.000        0.000        0.000        0.000        0.000        0.000        1.000        0.000        0.000        0.000        0.000        0.000        0.000        0.000        0.000        1.000        2.000        1.000        2.000        0.000        0.000        0.000        1.000        0.000        0.000        0.000      100.000        0.000        0.000        2.976        3.036        3.890
     930.000  -229202.416    22450.776    14021.028    33415.852      124.071  -341865.285    42651.143       25.871       25.581        2.598        2.439        2.619        2.600        3.144        3.083        3.185        3.043        3.244        3.130        3.176        3.141        2.506        2.653        2.703        2.629        0.473        0.000        1.000        0.000        0.000        0.000        0.000        0.000        2.000        0.000        1.000        0.000        0.000        0.000        0.000        0.000        1.000        0.000        0.000        0.000        0.000        0.000        0.000        0.000        0.000        2.000        1.000        1.000        2.000        0.000        0.000        1.000        0.000        0.000        0.000        0.000      100.000        0.000        0.000        2.757        2.804        3.885
     940.000  -229876.521    22010.785    14051.559    33267.624      124.407  -341019.431    41688.536       25.994       25.780        2.574        2.483        2.595        2.583        3.153        3.064        3.234        2.986        3.228        3.182        3.205        3.231        2.535        2.609        2.701        2.526        0.498        0.000        1.000        0.000        0.000        0.000        0.000        0.000        1.000        0.000        2.000        0.000        0.000        0.000        0.000        0.000        3.000        0.000        0.000        0.000        0.000        0.000        0.000        0.000        0.000        3.000        1.000        1.000        1.000        1.000        0.000        0.000        3.000        0.000        0.000        0.000      100.000        0.000        0.000        2.885        2.913        3.949
     950.000  -229317.030    22459.576    13902.454    33162.959      133.510  -340498.849    41523.320       25.895       26.168        2.539        2.463        2.607        2.575        3.128        3.077        3.306        3.023        3.233        3.159        3.227        3.121        2.543        2.502        2.674        2.553        0.488        0.000        1.000        0.000        0.000        0.000        0.000        0.000        0.000        0.000        1.000        0.000        1.000        0.000        0.000        0.000        1.000        0.000        0.000        0.000        0.000        0.000        0.000        0.000        0.000        1.000        4.000        1.000        1.000        1.000        0.000        1.000        1.000        0.000        0.000        0.000      100.000        0.000        0.000        2.738        2.744        4.024
     960.000  -229644.553    22379.118    14080.272    33341.807      150.713  -341674.135    42077.672       25.565       25.785        2.573        2.468        2.634        2.621        3.117        3.083        3.246        2.918        3.245        3.176        3.183        3.116        2.580        2.550        2.678        2.524        0.478        0.000        1.000        0.000        0.000        0.000        0.000        0.000        1.000        0.000        0.000        0.000        0.000        0.000        0.000        0.000        3.000        0.000        0.000        0.000        0.000        0.000        0.000        0.000        0.000        2.000        3.000        2.000        1.000        1.000        0.000        1.000        1.000        0.000        0.000        0.000      100.000        0.000        0.000        2.775        2.814        4.123
     970.000  -229632.425    22399.142    13518.953    33476.313      127.093  -340400.873    41246.948       25.496       25.846        2.594        2.502        2.636        2.594        3.133        3.062        3.242        2.960        3.310        3.233        3.211        3.109        2.517        2.537        2.647        2.550        0.469        0.000        1.000        0.000        0.000        0.000        0.000        0.000        1.000        0.000        1.000        0.000        1.000        0.000        0.000        0.000        1.000        0.000        0.000        0.000        0.000        0.000        0.000        0.000        0.000        2.000        1.000        2.000        1.000        0.000        0.000        0.000        1.000        0.000        4.494        0.000       95.506        0.000        0.000        3.125        3.176        4.196
     980.000  -229573.797    22269.844    13725.789    33353.626      123.832  -340355.225    41308.338       25.518       25.901        2.614        2.485        2.605        2.620        3.143        3.001        3.298        3.093        3.299        3.165        3.159        3.136        2.580        2.544        2.646        2.508        0.492        0.000        1.000        0.000        0.000        0.000        0.000        0.000        1.000        0.000        0.000        0.000        0.000        0.000        0.000        0.000        4.000        0.000        0.000        0.000        0.000        0.000        0.000        0.000        0.000        2.000        0.000        0.000        0.000        1.000        0.000        0.000        2.000        0.000        0.000        0.000      100.000        0.000        0.000        2.908        2.939        4.190
     990.000  -230542.018    22874.080    13964.915    33432.118      127.342  -342659.699    41719.226       25.534       25.674        2.656        2.424        2.634        2.612        3.106        3.038        3.255        3.014        3.282        3.189        3.127        3.251        2.599        2.527        2.610        2.530        0.476        0.000        1.000        0.000        0.000        0.000        0.000        0.000        1.000        0.000        0.000        0.000        0.000        0.000        0.000        0.000        2.000        0.000        0.000        0.000        0.000        0.000        0.000        0.000        0.000        1.000        1.000        1.000        1.000        0.000        0.000        0.000        0.000        0.000        0.000        0.000      100.000        0.000        0.000        2.703        2.719        4.276
    1000.000  -230312.472    23378.042    13846.064    33221.172      138.873  -340873.820    39977.197       25.595       25.987        2.609        2.469        2.669        2.622        3.165        3.045        3.268        2.999        3.268        3.236        3.246        3.128        2.562        2.581        2.650        2.529        0.493        0.000        1.000        0.000        0.000        0.000        0.000        0.000        1.000        0.000        0.000        0.000        0.000        0.000        0.000        0.000        1.000        0.000        0.000        0.000        0.000        0.000        0.000        0.000        0.000        1.000        1.000        1.000        0.000        1.000        0.000        0.000        2.000        0.000        4.494        0.000       95.506        0.000        0.000        2.712        2.742        4.191
     Average  -231767.115    23372.453    14081.567    33398.876      127.782  -345082.791    42334.998       25.884       25.894        2.576        2.470        2.615        2.621        3.144        3.057        3.252        3.012        3.252        3.182        3.156        3.127        2.534        2.574        2.650        2.513        0.486        0.703        0.446        0.386        0.198        0.228        0.000        0.000        1.772        0.079        0.416        0.000        0.050        0.000        0.000        0.149        1.733        0.000        0.000        0.000        0.000        0.000        0.000        0.000        0.000        1.455        1.653        0.990        0.881        0.861        0.000        0.376        2.475        0.000        0.667        0.000       99.333        0.000        0.000        2.087        2.090        2.901

