____Time[ps] Energy[ kJ/mol ]_____Bond _______Angle ____Dihedral ___Planarity _____Coulomb _________VdW _Your result _Your result _Your result _Your result _Your result _Your result _Your result _Your result _Your result _Your result _Your result _Your result _Your result _Your result _Your result _Your result _Your result _Your result _Your result _Your result _Your result _Your result _Your result _Your result _Your result _Your result _Your result _Your result _Your result _Your result _Your result _Your result _Your result _Your result _Your result _Your result _Your result _Your result _Your result _Your result _Your result _Your result _Your result _Your result _Your result _Your result _Your result _Your result _Your result _Your result _Your result _Your result _Your result _Your result _Your result _Your result _Your result _RMSDs[A]:CA ____Backbone __HeavyAtoms
       0.000  -340830.720     9151.687     5120.969    34305.077       20.021  -455823.978    66395.503       25.259       25.226        2.578        2.574        2.720        2.678        2.675        2.514        2.741        2.587        2.712        2.730        2.513        2.706        2.561        2.563        2.618        2.627        0.489        0.000        0.000        1.000        0.000        1.000        0.000        0.000        1.000        0.000        0.000        0.000        1.000        0.000        0.000        1.000        1.000        0.000        0.000        0.000        0.000        0.000        0.000        0.000        0.000        0.000        2.000        1.000        4.000        1.000        0.000        2.000        3.000        0.000        0.000        0.000      100.000        0.000        0.000        0.613        0.641        0.809
      10.000  -256108.913    29555.437    15904.927    34641.081      121.527  -386073.765    49741.881       25.761       25.684        2.526        2.541        2.693        2.631        2.668        2.493        2.701        2.582        2.694        2.718        2.526        2.568        2.536        2.523        2.698        2.619        0.509        0.000        0.000        1.000        1.000        1.000        0.000        0.000        1.000        0.000        0.000        0.000        0.000        0.000        0.000        0.000        0.000        0.000        0.000        0.000        0.000        0.000        0.000        0.000        0.000        3.000        1.000        1.000        5.000        4.000        0.000        0.000        3.000        0.000        0.000        0.000      100.000        0.000        0.000        1.190        1.220        1.398
      20.000  -255945.093    28442.287    15681.751    34294.223      116.832  -382539.682    48059.496       25.736       25.683        2.611        2.556        2.715        2.663        2.720        2.473        2.707        2.577        2.692        2.722        2.492        2.546        2.618        2.531        2.725        2.602        0.497        0.000        0.000        1.000        1.000        1.000        0.000        0.000        1.000        0.000        0.000        0.000        0.000        0.000        0.000        1.000        0.000        0.000        0.000        0.000        1.000        0.000        0.000        0.000        0.000        1.000        1.000        1.000        5.000        2.000        0.000        0.000        1.000        0.000        0.000        0.000      100.000        0.000        0.000        1.684        1.727        1.822
      30.000  -255280.645    28797.887    15542.396    34369.095       95.232  -381468.091    47382.837       25.740       25.669        2.619        2.563        2.732        2.691        2.714        2.494        2.728        2.543        2.720        2.678        2.511        2.539        2.556        2.480        2.723        2.581        0.495        0.000        0.000        1.000        1.000        1.000        0.000        0.000        1.000        0.000        0.000        0.000        0.000        0.000        0.000        2.000        2.000        0.000        0.000        0.000        1.000        0.000        0.000        0.000        0.000        1.000        3.000        3.000        3.000        1.000        0.000        0.000        3.000        0.000        0.000        0.000      100.000        0.000        0.000        1.495        1.540        1.663
      40.000  -255243.904    29238.616    15705.417    34423.557       99.473  -382019.590    47308.622       25.655       25.439        2.639        2.587        2.721        2.685        2.690        2.522        2.787        2.544        2.723        2.736        2.484        2.583        2.506        2.518        2.708        2.551        0.500        0.000        0.000        1.000        1.000        1.000        0.000        0.000        1.000        1.000        0.000        0.000        0.000        0.000        0.000        0.000        2.000        0.000        0.000        0.000        1.000        0.000        0.000        0.000        0.000        1.000        1.000        1.000        3.000        1.000        0.000        1.000        1.000        0.000        0.000        0.000      100.000        0.000        0.000        1.442        1.490        1.758
      50.000  -254539.665    28434.555    15420.820    34280.086      128.041  -379052.231    46249.063       25.834       25.769        2.582        2.587        2.665        2.669        2.709        2.536        2.703        2.591        2.720        2.697        2.539        2.518        2.565        2.544        2.726        2.602        0.497        0.000        0.000        0.000        1.000        1.000        0.000        0.000        1.000        0.000        0.000        0.000        0.000        0.000        0.000        0.000        1.000        0.000        0.000        0.000        1.000        0.000        0.000        0.000        0.000        1.000        1.000        1.000        4.000        1.000        0.000        0.000        2.000        0.000        0.000        0.000      100.000        0.000        0.000        1.552        1.595        1.850
      60.000  -255341.056    26517.631    15313.336    34538.004      111.987  -381622.851    49800.837       25.753       25.863        2.589        2.547        2.693        2.655        2.719        2.562        2.751        2.580        2.725        2.710        2.464        2.562        2.537        2.451        2.734        2.566        0.475        0.000        0.000        1.000        1.000        1.000        0.000        0.000        0.000        0.000        0.000        0.000        0.000        0.000        0.000        0.000        0.000        0.000        0.000        0.000        1.000        0.000        0.000        0.000        0.000        4.000        2.000        1.000        4.000        3.000        0.000        3.000        2.000        0.000        0.000        0.000      100.000        0.000        0.000        1.450        1.491        1.827
      70.000  -253896.511    27299.807    15186.042    34760.668      119.656  -378866.097    47603.413       25.674       25.650        2.654        2.532        2.723        2.677        2.723        2.488        2.699        2.559        2.686        2.760        2.489        2.522        2.479        2.435        2.701        2.617        0.502        0.000        0.000        1.000        1.000        1.000        0.000        0.000        1.000        1.000        0.000        0.000        1.000        0.000        0.000        1.000        1.000        0.000        0.000        0.000        1.000        0.000        0.000        0.000        0.000        2.000        0.000        2.000        5.000        1.000        0.000        1.000        3.000        0.000        0.000        0.000      100.000        0.000        0.000        1.220        1.244        1.725
      80.000  -253685.362    27836.130    15576.740    34420.258      105.144  -378545.526    46921.892       25.705       25.901        2.633        2.537        2.686        2.711        2.683        2.503        2.732        2.613        2.736        2.682        2.476        2.599        2.566        2.429        2.743        2.586        0.487        0.000        0.000        1.000        1.000        2.000        0.000        0.000        1.000        0.000        0.000        0.000        0.000        0.000        0.000        1.000        0.000        0.000        0.000        0.000        1.000        0.000        0.000        0.000        0.000        2.000        1.000        3.000        4.000        3.000        0.000        0.000        5.000        0.000        4.494        0.000       95.506        0.000        0.000        1.501        1.540        1.915
      90.000  -254095.405    27872.375    15213.040    34499.429      117.551  -378733.135    46935.334       25.755       25.770        2.624        2.579        2.692        2.697        2.680        2.512        2.739        2.570        2.715        2.746        2.557        2.520        2.550        2.489        2.739        2.566        0.482        0.000        0.000        0.000        1.000        0.000        0.000        0.000        1.000        1.000        0.000        0.000        1.000        0.000        0.000        1.000        1.000        0.000        0.000        0.000        1.000        0.000        0.000        0.000        0.000        1.000        1.000        1.000        5.000        1.000        0.000        2.000        0.000        0.000        0.000        0.000      100.000        0.000        0.000        1.693        1.743        2.074
     100.000  -253633.510    26230.783    15337.788    34390.386      119.779  -376770.473    47058.227       25.937       26.024        2.702        2.530        2.707        2.719        2.675        2.494        2.742        2.569        2.675        2.720        2.496        2.549        2.498        2.479        2.682        2.551        0.481        0.000        0.000        1.000        2.000        0.000        0.000        0.000        0.000        0.000        0.000        0.000        0.000        0.000        0.000        1.000        2.000        0.000        0.000        0.000        1.000        0.000        0.000        0.000        0.000        3.000        1.000        1.000        1.000        2.000        0.000        0.000        4.000        0.000        0.000        0.000      100.000        0.000        0.000        1.990        2.026        2.344
     110.000  -252766.359    26960.763    15790.316    34305.578      109.155  -377403.792    47471.621       26.052       26.199        2.680        2.590        2.713        2.672        2.719        2.536        2.715        2.606        2.721        2.703        2.544        2.541        2.573        2.448        2.724        2.586        0.488        1.000        0.000        1.000        1.000        1.000        0.000        0.000        1.000        0.000        0.000        0.000        0.000        0.000        0.000        0.000        0.000        0.000        0.000        0.000        1.000        0.000        0.000        0.000        0.000        4.000        0.000        1.000        5.000        0.000        0.000        0.000        3.000        0.000        0.000        0.000      100.000        0.000        0.000        2.000        2.039        2.346
     120.000  -253200.912    26192.262    15428.294    34499.710       93.352  -376485.088    47070.558       26.082       26.187        2.691        2.559        2.699        2.697        2.713        2.502        2.711        2.603        2.696        2.686        2.524        2.580        2.567        2.454        2.684        2.590        0.484        0.000        0.000        1.000        1.000        0.000        0.000        0.000        1.000        0.000        0.000        0.000        1.000        0.000        0.000        0.000        1.000        0.000        0.000        0.000        1.000        0.000        0.000        0.000        0.000        0.000        1.000        0.000        4.000        1.000        0.000        1.000        4.000        0.000        0.000        0.000      100.000        0.000        0.000        2.100        2.120        2.391
     130.000  -253092.629    26584.576    15227.991    34403.030      109.260  -376078.430    46660.943       25.870       25.984        2.687        2.484        2.707        2.710        2.681        2.541        2.702        2.626        2.687        2.732        2.530        2.559        2.553        2.548        2.729        2.563        0.487        1.000        0.000        1.000        1.000        0.000        0.000        0.000        1.000        0.000        0.000        0.000        1.000        0.000        0.000        0.000        1.000        0.000        0.000        0.000        0.000        0.000        0.000        0.000        0.000        0.000        2.000        0.000        3.000        0.000        0.000        2.000        2.000        0.000        0.000        0.000      100.000        0.000        0.000        2.392        2.436        2.712
     140.000  -252539.101    25931.104    15625.638    34573.354      129.360  -375150.520    46351.963       25.712       25.812        2.673        2.459        2.695        2.714        2.713        2.497        2.702        2.636        2.664        2.653        2.531        2.559        2.563        2.521        2.702        2.587        0.486        1.000        0.000        1.000        1.000        0.000        0.000        0.000        1.000        0.000        0.000        0.000        0.000        0.000        0.000        0.000        0.000        0.000        0.000        0.000        0.000        0.000        0.000        0.000        0.000        0.000        3.000        1.000        4.000        0.000        0.000        2.000        0.000        0.000        0.000        0.000      100.000        0.000        0.000        2.905        2.958        3.138
     150.000  -251741.810    25230.092    15588.806    34732.622      123.284  -375554.960    48138.344       25.610       25.567        2.632        2.440        2.735        2.766        2.698        2.535        2.695        2.605        2.683        2.631        2.495        2.575        2.560        2.580        2.717        2.599        0.468        1.000        0.000        1.000        1.000        0.000        0.000        0.000        0.000        0.000        0.000        0.000        0.000        0.000        0.000        0.000        0.000        0.000        0.000        0.000        0.000        0.000        0.000        0.000        0.000        1.000        5.000        1.000        3.000        1.000        0.000        1.000        1.000        0.000        4.494        0.000       95.506        0.000        0.000        2.686        2.760        2.923
     160.000  -252920.164    26344.150    15381.787    34351.163      121.231  -374878.673    45760.179       26.041       25.900        2.603        2.467        2.707        2.746        2.723        2.564        2.725        2.614        2.700        2.678        2.526        2.537        2.539        2.504        2.726        2.579        0.504        1.000        0.000        0.000        1.000        0.000        0.000        0.000        1.000        0.000        0.000        0.000        0.000        0.000        0.000        2.000        1.000        0.000        0.000        0.000        0.000        0.000        0.000        0.000        0.000        1.000        0.000        1.000        6.000        0.000        0.000        1.000        2.000        0.000        0.000        0.000      100.000        0.000        0.000        2.663        2.720        2.950
     170.000  -252149.905    26766.364    15445.134    34294.726      130.616  -374697.663    45910.919       25.942       25.657        2.538        2.449        2.735        2.742        2.658        2.514        2.734        2.639        2.681        2.650        2.644        2.572        2.489        2.493        2.689        2.592        0.470        1.000        0.000        1.000        1.000        0.000        0.000        0.000        1.000        0.000        0.000        0.000        0.000        0.000        0.000        0.000        3.000        0.000        0.000        0.000        0.000        0.000        0.000        0.000        0.000        1.000        2.000        2.000        3.000        0.000        0.000        1.000        3.000        0.000        0.000        0.000      100.000        0.000        0.000        2.360        2.430        2.673
     180.000  -252348.318    26050.328    15246.715    34391.889      125.653  -374698.071    46535.167       25.690       25.684        2.634        2.494        2.732        2.702        2.711        2.463        2.720        2.595        2.679        2.702        2.720        2.546        2.465        2.486        2.732        2.502        0.488        0.000        0.000        0.000        0.000        0.000        0.000        0.000        1.000        1.000        0.000        0.000        1.000        0.000        0.000        0.000        1.000        0.000        0.000        0.000        0.000        0.000        0.000        0.000        0.000        2.000        2.000        2.000        3.000        0.000        0.000        0.000        0.000        0.000        4.494        0.000       95.506        0.000        0.000        2.180        2.242        2.566
     190.000  -251585.822    25126.060    15317.097    34346.246      134.902  -372818.119    46307.993       26.048       25.826        2.684        2.468        2.730        2.697        2.691        2.558        2.673        2.571        2.672        2.737        2.730        2.560        2.500        2.516        2.715        2.542        0.463        1.000        0.000        1.000        1.000        0.000        0.000        0.000        1.000        2.000        0.000        0.000        0.000        0.000        0.000        0.000        0.000        0.000        0.000        0.000        0.000        0.000        0.000        0.000        0.000        1.000        0.000        4.000        2.000        2.000        0.000        0.000        5.000        0.000        0.000        0.000      100.000        0.000        0.000        2.091        2.163        2.462
     200.000  -252421.968    25407.666    15185.052    34361.314      116.013  -373238.861    45746.848       25.921       25.574        2.638        2.468        2.720        2.741        2.727        2.486        2.693        2.603        2.667        2.718        2.746        2.574        2.486        2.455        2.702        2.564        0.483        1.000        0.000        1.000        1.000        0.000        0.000        0.000        1.000        0.000        0.000        0.000        0.000        0.000        0.000        0.000        0.000        0.000        0.000        0.000        0.000        0.000        0.000        0.000        0.000        1.000        0.000        2.000        2.000        0.000        0.000        1.000        0.000        0.000        0.000        0.000      100.000        0.000        0.000        1.953        1.997        2.363
     210.000  -251582.773    26562.072    15550.815    34276.086      117.428  -373449.124    45359.950       25.887       25.685        2.650        2.476        2.704        2.703        2.682        2.531        2.677        2.631        2.669        2.705        2.726        2.572        2.478        2.541        2.745        2.536        0.494        1.000        0.000        0.000        1.000        0.000        0.000        0.000        1.000        0.000        0.000        0.000        0.000        0.000        0.000        0.000        2.000        0.000        0.000        0.000        0.000        0.000        0.000        0.000        0.000        1.000        0.000        0.000        5.000        0.000        0.000        2.000        3.000        0.000        0.000        0.000      100.000        0.000        0.000        2.407        2.455        2.773
     220.000  -250598.073    26156.688    15088.559    34486.132      121.728  -371066.102    44614.921       25.745       25.554        2.653        2.479        2.677        2.672        2.691        2.530        2.701        2.591        2.647        2.675        2.681        2.533        2.536        2.551        2.715        2.550        0.507        2.000        0.000        1.000        1.000        0.000        0.000        0.000        1.000        1.000        0.000        0.000        0.000        0.000        0.000        0.000        2.000        0.000        0.000        0.000        0.000        0.000        0.000        0.000        0.000        2.000        1.000        3.000        5.000        0.000        0.000        1.000        0.000        0.000        0.000        0.000      100.000        0.000        0.000        3.128        3.213        3.293
     230.000  -250981.007    25163.052    15355.300    34729.140      120.819  -372111.367    45762.048       25.697       25.576        2.676        2.468        2.707        2.718        2.705        2.467        2.674        2.590        2.646        2.667        2.689        2.557        2.536        2.491        2.710        2.515        0.495        1.000        0.000        0.000        1.000        0.000        0.000        0.000        1.000        0.000        0.000        0.000        0.000        0.000        0.000        0.000        2.000        0.000        0.000        0.000        0.000        0.000        0.000        0.000        0.000        2.000        0.000        1.000        4.000        0.000        0.000        3.000        1.000        0.000        0.000        0.000      100.000        0.000        0.000        3.670        3.762        3.759
     240.000  -251231.593    24931.190    15434.085    34577.145      128.744  -373513.877    47211.121       25.849       25.521        2.643        2.499        2.666        2.727        2.690        2.495        2.653        2.601        2.656        2.690        2.685        2.570        2.520        2.482        2.715        2.550        0.491        2.000        0.000        1.000        1.000        0.000        0.000        0.000        1.000        0.000        0.000        0.000        0.000        0.000        0.000        0.000        0.000        0.000        0.000        0.000        0.000        0.000        0.000        0.000        0.000        2.000        0.000        1.000        5.000        2.000        0.000        4.000        2.000        0.000        4.494        0.000       95.506        0.000        0.000        3.026        3.128        3.271
     250.000  -251262.729    25795.783    15266.293    34586.089      105.433  -371732.545    44716.218       25.708       25.514        2.630        2.514        2.718        2.696        2.726        2.507        2.679        2.644        2.667        2.661        2.677        2.564        2.526        2.476        2.711        2.565        0.493        1.000        0.000        0.000        1.000        0.000        0.000        0.000        1.000        1.000        0.000        0.000        0.000        0.000        0.000        0.000        0.000        0.000        0.000        0.000        0.000        0.000        0.000        0.000        0.000        2.000        1.000        0.000        3.000        1.000        0.000        0.000        2.000        0.000        0.000        0.000      100.000        0.000        0.000        2.842        2.918        3.203
     260.000  -252146.943    26202.617    14734.375    34522.000      127.042  -372380.786    44647.809       25.788       25.694        2.648        2.460        2.716        2.690        2.737        2.514        2.675        2.601        2.654        2.708        2.720        2.609        2.543        2.434        2.743        2.541        0.490        1.000        0.000        1.000        1.000        0.000        0.000        0.000        0.000        0.000        0.000        0.000        0.000        0.000        0.000        0.000        2.000        0.000        0.000        0.000        0.000        0.000        0.000        0.000        0.000        1.000        0.000        2.000        5.000        0.000        0.000        0.000        1.000        0.000        0.000        0.000      100.000        0.000        0.000        2.783        2.857        3.010
     270.000  -251192.848    24730.499    14956.148    34736.922      103.597  -373410.033    47690.019       25.625       25.495        2.587        2.472        2.728        2.680        2.702        2.523        2.701        2.588        2.649        2.690        2.688        2.586        2.459        2.533        2.707        2.579        0.499        1.000        0.000        0.000        1.000        0.000        0.000        0.000        1.000        1.000        0.000        0.000        0.000        0.000        0.000        1.000        0.000        0.000        0.000        0.000        0.000        0.000        0.000        0.000        0.000        1.000        1.000        0.000        2.000        2.000        0.000        1.000        2.000        0.000        0.000        0.000      100.000        0.000        0.000        2.801        2.823        2.943
     280.000  -251774.306    25451.032    15078.234    34605.395       96.080  -372853.152    45848.104       25.651       25.869        2.626        2.446        2.728        2.704        2.755        2.519        2.670        2.600        2.614        2.679        2.698        2.573        2.482        2.589        2.696        2.537        0.495        1.000        0.000        0.000        1.000        1.000        0.000        0.000        0.000        0.000        0.000        0.000        0.000        0.000        0.000        0.000        0.000        0.000        0.000        0.000        0.000        0.000        0.000        0.000        0.000        0.000        2.000        5.000        6.000        0.000        0.000        0.000        4.000        0.000        0.000        0.000      100.000        0.000        0.000        2.467        2.498        2.719
     290.000  -250655.495    24808.201    14991.450    34528.821      113.802  -370946.633    45848.864       25.923       26.019        2.569        2.477        2.708        2.707        2.671        2.523        2.651        2.596        2.647        2.687        2.645        2.526        2.526        2.455        2.708        2.562        0.475        1.000        0.000        0.000        1.000        0.000        0.000        0.000        1.000        1.000        0.000        0.000        0.000        0.000        0.000        0.000        1.000        0.000        0.000        0.000        0.000        0.000        0.000        0.000        0.000        3.000        0.000        1.000        4.000        0.000        0.000        1.000        2.000        0.000        0.000        0.000      100.000        0.000        0.000        2.455        2.494        2.741
     300.000  -250081.864    24857.869    14997.430    34602.811      156.998  -370217.649    45520.677       26.151       26.097        2.582        2.490        2.707        2.752        2.682        2.516        2.676        2.602        2.681        2.678        2.695        2.556        2.494        2.464        2.705        2.538        0.498        1.000        0.000        1.000        1.000        0.000        0.000        0.000        1.000        0.000        0.000        0.000        0.000        0.000        0.000        0.000        0.000        0.000        0.000        0.000        0.000        0.000        0.000        0.000        0.000        2.000        1.000        2.000        3.000        0.000        0.000        0.000        4.000        0.000        0.000        0.000      100.000        0.000        0.000        2.428        2.472        2.760
     310.000  -251586.348    25308.378    15080.643    34210.014      133.771  -371744.372    45425.218       26.228       26.235        2.609        2.483        2.742        2.693        2.677        2.474        2.677        2.599        2.674        2.680        2.708        2.537        2.520        2.469        2.739        2.561        0.500        2.000        0.000        1.000        1.000        0.000        0.000        0.000        0.000        1.000        0.000        0.000        0.000        0.000        0.000        0.000        2.000        0.000        0.000        0.000        0.000        0.000        0.000        0.000        0.000        0.000        1.000        2.000        3.000        0.000        0.000        0.000        8.000        0.000        0.000        0.000      100.000        0.000        0.000        1.895        1.918        2.254
     320.000  -250863.039    24956.263    15132.976    34535.272      136.879  -370302.457    44678.028       26.247       26.055        2.621        2.476        2.719        2.711        2.698        2.526        2.654        2.637        2.648        2.654        2.714        2.535        2.498        2.472        2.743        2.537        0.486        2.000        0.000        0.000        1.000        0.000        0.000        0.000        0.000        1.000        0.000        0.000        0.000        0.000        0.000        1.000        2.000        0.000        0.000        0.000        0.000        0.000        0.000        0.000        0.000        0.000        0.000        2.000        5.000        1.000        0.000        0.000        5.000        0.000        0.000        0.000      100.000        0.000        0.000        2.106        2.113        2.353
     330.000  -250402.454    24954.086    15192.459    34619.241      114.498  -370576.600    45293.862       26.065       26.158        2.593        2.459        2.694        2.722        2.713        2.572        2.660        2.635        2.670        2.647        2.728        2.560        2.506        2.504        2.718        2.523        0.467        2.000        0.000        0.000        1.000        0.000        0.000        0.000        0.000        1.000        0.000        0.000        0.000        0.000        0.000        0.000        0.000        0.000        0.000        0.000        0.000        0.000        0.000        0.000        0.000        1.000        0.000        1.000        3.000        0.000        0.000        1.000        5.000        0.000        0.000        0.000      100.000        0.000        0.000        2.135        2.123        2.405
     340.000  -251434.459    24203.220    15077.087    34531.247      104.404  -371697.522    46347.104       26.040       25.868        2.667        2.477        2.733        2.718        2.636        2.520        2.667        2.641        2.668        2.687        2.709        2.533        2.456        2.552        2.740        2.541        0.474        1.000        0.000        1.000        1.000        0.000        0.000        0.000        0.000        2.000        0.000        0.000        0.000        0.000        0.000        0.000        1.000        0.000        0.000        0.000        0.000        0.000        0.000        0.000        0.000        3.000        0.000        4.000        5.000        0.000        0.000        0.000        2.000        0.000        0.000        0.000      100.000        0.000        0.000        2.425        2.419        2.679
     350.000  -250479.952    24168.303    15095.775    34702.444      121.561  -372763.979    48195.945       26.246       26.041        2.609        2.457        2.732        2.704        2.710        2.501        2.614        2.608        2.659        2.659        2.700        2.566        2.500        2.562        2.704        2.592        0.495        2.000        0.000        1.000        1.000        1.000        0.000        0.000        1.000        0.000        0.000        0.000        0.000        0.000        0.000        0.000        1.000        0.000        0.000        0.000        0.000        0.000        0.000        0.000        0.000        1.000        1.000        1.000        5.000        1.000        0.000        0.000        5.000        0.000        4.494        0.000       95.506        0.000        0.000        2.294        2.289        2.499
     360.000  -250386.056    25413.382    15100.716    34410.263      109.650  -370033.461    44613.394       26.300       25.974        2.607        2.450        2.734        2.741        2.704        2.571        2.657        2.618        2.661        2.684        2.739        2.543        2.521        2.590        2.740        2.575        0.502        2.000        0.000        1.000        1.000        0.000        0.000        0.000        1.000        2.000        0.000        0.000        0.000        0.000        0.000        0.000        1.000        0.000        0.000        0.000        0.000        0.000        0.000        0.000        0.000        0.000        0.000        2.000        4.000        1.000        0.000        0.000        4.000        0.000        0.000        0.000      100.000        0.000        0.000        2.330        2.332        2.616
     370.000  -250644.712    24378.013    14931.649    34513.481      119.874  -372012.386    47424.657       25.864       25.668        2.645        2.456        2.751        2.714        2.703        2.538        2.671        2.588        2.655        2.643        2.711        2.542        2.497        2.569        2.757        2.599        0.475        2.000        0.000        1.000        1.000        0.000        0.000        0.000        0.000        0.000        0.000        0.000        0.000        0.000        0.000        2.000        0.000        0.000        0.000        0.000        0.000        0.000        0.000        0.000        0.000        1.000        1.000        0.000        4.000        0.000        0.000        3.000        3.000        0.000        4.494        0.000       95.506        0.000        0.000        2.335        2.346        2.658
     380.000  -250560.928    24084.166    15113.881    34761.597      124.076  -370582.181    45937.533       25.902       25.835        2.546        2.441        2.693        2.735        2.692        2.532        2.678        2.644        2.704        2.690        2.702        2.537        2.458        2.605        2.690        2.543        0.470        2.000        0.000        0.000        1.000        0.000        0.000        0.000        1.000        1.000        0.000        0.000        0.000        0.000        0.000        1.000        0.000        0.000        0.000        0.000        0.000        0.000        0.000        0.000        0.000        1.000        0.000        4.000        4.000        1.000        0.000        0.000        2.000        0.000        0.000        0.000      100.000        0.000        0.000        2.357        2.359        2.670
     390.000  -250894.814    24375.896    14862.270    34560.137      136.726  -371441.226    46611.383       25.982       25.953        2.622        2.438        2.728        2.692        2.736        2.558        2.679        2.604        2.670        2.698        2.728        2.571        2.513        2.540        2.677        2.520        0.473        1.000        0.000        0.000        1.000        0.000        0.000        0.000        1.000        1.000        0.000        0.000        0.000        0.000        0.000        0.000        2.000        0.000        0.000        0.000        0.000        0.000        0.000        0.000        0.000        3.000        0.000        2.000        4.000        0.000        0.000        0.000        2.000        0.000        0.000        0.000      100.000        0.000        0.000        2.420        2.443        2.738
     400.000  -251164.074    24607.452    15276.537    34427.359      104.584  -372164.153    46584.148       26.274       26.116        2.620        2.481        2.750        2.691        2.733        2.506        2.669        2.563        2.702        2.651        2.744        2.598        2.499        2.527        2.698        2.550        0.464        2.000        0.000        1.000        1.000        0.000        0.000        0.000        1.000        0.000        0.000        0.000        0.000        0.000        0.000        0.000        0.000        0.000        0.000        0.000        0.000        0.000        0.000        0.000        0.000        0.000        0.000        0.000        5.000        1.000        0.000        1.000        3.000        0.000        0.000        0.000      100.000        0.000        0.000        2.405        2.425        2.778
     410.000  -250769.140    24172.729    15043.784    34600.729      137.220  -371457.502    46733.899       25.887       25.962        2.613        2.435        2.765        2.704        2.718        2.549        2.672        2.574        2.664        2.647        2.739        2.570        2.512        2.537        2.713        2.582        0.490        1.000        0.000        1.000        1.000        0.000        0.000        0.000        1.000        0.000        0.000        0.000        0.000        0.000        0.000        0.000        1.000        0.000        0.000        0.000        0.000        0.000        0.000        0.000        0.000        1.000        0.000        1.000        5.000        0.000        0.000        1.000        2.000        0.000        0.000        0.000      100.000        0.000        0.000        2.308        2.305        2.700
     420.000  -251134.554    25516.892    14707.384    34508.326      124.857  -372095.190    46103.177       25.926       25.862        2.618        2.440        2.750        2.627        2.696        2.485        2.681        2.617        2.639        2.658        2.719        2.527        2.525        2.532        2.729        2.565        0.491        1.000        0.000        0.000        1.000        0.000        0.000        0.000        0.000        0.000        0.000        0.000        0.000        0.000        0.000        1.000        0.000        0.000        0.000        0.000        0.000        0.000        0.000        0.000        0.000        2.000        0.000        2.000        4.000        1.000        0.000        0.000        6.000        0.000        0.000        0.000      100.000        0.000        0.000        2.459        2.482        2.822
     430.000  -250563.105    25416.557    15086.186    34394.397      120.105  -369802.277    44221.926       26.065       26.009        2.713        2.481        2.753        2.697        2.739        2.496        2.701        2.649        2.662        2.683        2.699        2.595        2.493        2.512        2.727        2.596        0.500        0.000        0.000        1.000        1.000        0.000        0.000        0.000        1.000        0.000        0.000        1.000        0.000        0.000        0.000        0.000        0.000        0.000        0.000        0.000        0.000        0.000        0.000        0.000        0.000        1.000        0.000        0.000        5.000        0.000        0.000        0.000        1.000        0.000        0.000        0.000      100.000        0.000        0.000        2.157        2.162        2.558
     440.000  -250583.478    24243.640    15124.021    34588.551      112.776  -369779.833    45127.365       25.996       25.805        2.692        2.510        2.709        2.692        2.708        2.577        2.636        2.613        2.672        2.675        2.721        2.609        2.516        2.499        2.702        2.588        0.506        1.000        0.000        1.000        1.000        0.000        0.000        0.000        1.000        1.000        0.000        0.000        0.000        0.000        0.000        0.000        0.000        0.000        0.000        0.000        0.000        0.000        0.000        0.000        0.000        1.000        0.000        1.000        4.000        0.000        0.000        2.000        3.000        0.000        4.494        0.000       95.506        0.000        0.000        1.849        1.843        2.377
     450.000  -250087.092    25901.338    15097.635    34403.180      122.528  -370743.496    45131.723       25.972       25.954        2.678        2.499        2.735        2.690        2.703        2.588        2.646        2.625        2.671        2.657        2.664        2.582        2.495        2.505        2.706        2.574        0.498        1.000        0.000        1.000        1.000        0.000        0.000        0.000        0.000        1.000        0.000        0.000        0.000        0.000        0.000        1.000        0.000        0.000        0.000        0.000        0.000        0.000        0.000        0.000        0.000        1.000        0.000        0.000        3.000        2.000        0.000        2.000        3.000        0.000        0.000        0.000      100.000        0.000        0.000        2.017        2.015        2.511
     460.000  -250425.704    24341.338    15132.123    34435.425      153.859  -369886.222    45397.774       26.206       25.830        2.634        2.444        2.698        2.732        2.697        2.562        2.681        2.572        2.658        2.667        2.703        2.542        2.532        2.512        2.729        2.613        0.489        1.000        0.000        1.000        1.000        0.000        0.000        0.000        0.000        1.000        0.000        0.000        0.000        0.000        0.000        0.000        0.000        0.000        0.000        0.000        0.000        0.000        0.000        0.000        0.000        1.000        0.000        3.000        4.000        1.000        0.000        2.000        3.000        0.000        0.000        0.000      100.000        0.000        0.000        1.838        1.831        2.688
     470.000  -250652.610    24210.665    15247.842    34447.611       99.380  -371278.427    46620.318       26.051       25.997        2.670        2.474        2.716        2.712        2.676        2.586        2.689        2.589        2.679        2.691        2.689        2.561        2.503        2.570        2.707        2.595        0.512        1.000        0.000        1.000        1.000        0.000        0.000        0.000        0.000        1.000        0.000        0.000        0.000        0.000        0.000        1.000        0.000        0.000        0.000        0.000        0.000        0.000        0.000        0.000        0.000        0.000        4.000        1.000        5.000        1.000        0.000        0.000        2.000        0.000        0.000        0.000      100.000        0.000        0.000        1.641        1.652        2.369
     480.000  -251166.699    25059.830    14809.921    34511.248      131.679  -370275.490    44596.113       26.198       25.982        2.579        2.463        2.725        2.701        2.703        2.578        2.682        2.589        2.672        2.668        2.717        2.557        2.466        2.599        2.709        2.576        0.484        1.000        0.000        1.000        1.000        0.000        0.000        0.000        0.000        1.000        0.000        0.000        0.000        0.000        0.000        0.000        0.000        0.000        0.000        0.000        0.000        0.000        0.000        0.000        0.000        2.000        0.000        1.000        3.000        1.000        0.000        0.000        2.000        0.000        0.000        0.000      100.000        0.000        0.000        1.500        1.509        2.448
     490.000  -250606.361    24449.766    14745.460    34468.346      128.338  -371660.559    47262.287       25.979       25.899        2.658        2.475        2.693        2.726        2.703        2.608        2.694        2.578        2.673        2.670        2.716        2.599        2.491        2.562        2.717        2.581        0.503        1.000        0.000        1.000        1.000        0.000        0.000        0.000        0.000        1.000        0.000        0.000        0.000        0.000        0.000        0.000        0.000        0.000        0.000        0.000        0.000        0.000        0.000        0.000        0.000        3.000        0.000        1.000        6.000        2.000        0.000        1.000        4.000        0.000        8.989        0.000       91.011        0.000        0.000        1.556        1.550        2.464
     500.000  -249881.056    24355.672    14627.576    34599.695      112.616  -368813.186    45236.571       26.248       25.727        2.560        2.431        2.684        2.749        2.679        2.605        2.691        2.627        2.633        2.678        2.718        2.571        2.489        2.588        2.715        2.575        0.485        0.000        0.000        0.000        1.000        0.000        0.000        0.000        0.000        1.000        0.000        0.000        0.000        0.000        0.000        2.000        0.000        0.000        0.000        0.000        0.000        0.000        0.000        0.000        0.000        5.000        1.000        1.000        3.000        3.000        0.000        2.000        2.000        0.000        0.000        0.000      100.000        0.000        0.000        1.843        1.869        2.619
     510.000  -250469.554    25399.825    15033.779    34394.497      130.298  -370264.494    44836.540       26.171       25.930        2.655        2.506        2.695        2.696        2.713        2.579        2.649        2.601        2.706        2.643        2.697        2.570        2.500        2.585        2.757        2.580        0.479        2.000        0.000        0.000        1.000        0.000        0.000        0.000        0.000        0.000        0.000        0.000        0.000        0.000        0.000        1.000        0.000        0.000        0.000        0.000        0.000        0.000        0.000        0.000        0.000        2.000        0.000        0.000        5.000        1.000        0.000        2.000        4.000        0.000        0.000        0.000      100.000        0.000        0.000        1.810        1.827        2.618
     520.000  -249901.033    24929.836    14837.614    34547.670      130.393  -370171.276    45824.730       26.246       25.802        2.589        2.473        2.704        2.651        2.703        2.562        2.665        2.602        2.725        2.691        2.691        2.540        2.527        2.570        2.738        2.611        0.504        2.000        0.000        0.000        1.000        0.000        0.000        0.000        0.000        1.000        0.000        0.000        0.000        0.000        0.000        0.000        0.000        0.000        0.000        0.000        0.000        0.000        0.000        0.000        0.000        1.000        1.000        2.000        5.000        2.000        0.000        3.000        2.000        0.000        4.494        0.000       95.506        0.000        0.000        2.068        2.090        2.760
     530.000  -250704.773    24705.146    14954.562    34313.334      109.100  -370222.303    45435.389       26.219       25.687        2.596        2.491        2.700        2.683        2.730        2.561        2.693        2.626        2.721        2.662        2.728        2.558        2.496        2.569        2.752        2.549        0.491        1.000        0.000        1.000        1.000        0.000        0.000        0.000        0.000        1.000        0.000        0.000        0.000        0.000        0.000        0.000        0.000        0.000        0.000        0.000        0.000        0.000        0.000        0.000        0.000        1.000        3.000        2.000        5.000        1.000        0.000        1.000        3.000        0.000        0.000        0.000      100.000        0.000        0.000        2.481        2.531        3.087
     540.000  -249733.166    25763.482    14956.019    34402.718      130.528  -369858.176    44872.263       26.052       25.806        2.661        2.468        2.704        2.739        2.714        2.639        2.682        2.608        2.686        2.663        2.760        2.569        2.512        2.601        2.670        2.596        0.477        1.000        0.000        0.000        1.000        0.000        0.000        0.000        0.000        1.000        0.000        0.000        0.000        0.000        0.000        0.000        0.000        0.000        0.000        0.000        0.000        0.000        0.000        0.000        0.000        0.000        1.000        1.000        5.000        5.000        0.000        1.000        3.000        0.000        0.000        0.000      100.000        0.000        0.000        2.800        2.839        3.355
     550.000  -249839.361    25874.874    14963.303    34390.939      115.571  -369331.732    44147.685       25.833       25.647        2.651        2.485        2.753        2.727        2.638        2.598        2.688        2.593        2.704        2.664        2.716        2.581        2.525        2.591        2.737        2.616        0.496        1.000        0.000        1.000        1.000        0.000        0.000        0.000        0.000        0.000        0.000        0.000        0.000        0.000        0.000        0.000        0.000        0.000        0.000        0.000        0.000        0.000        0.000        0.000        0.000        1.000        3.000        0.000        2.000        3.000        0.000        0.000        2.000        0.000        0.000        0.000      100.000        0.000        0.000        2.594        2.639        3.118
     560.000  -250017.274    24530.243    14997.140    34480.365      107.152  -369495.279    45363.105       25.856       25.884        2.623        2.492        2.693        2.703        2.713        2.639        2.678        2.598        2.747        2.699        2.666        2.576        2.476        2.616        2.726        2.593        0.482        2.000        0.000        0.000        1.000        0.000        0.000        0.000        0.000        1.000        0.000        0.000        0.000        0.000        0.000        0.000        0.000        0.000        0.000        0.000        0.000        0.000        0.000        0.000        0.000        2.000        0.000        1.000        5.000        1.000        0.000        2.000        2.000        0.000        0.000        0.000      100.000        0.000        0.000        2.464        2.494        3.049
     570.000  -250852.244    24483.350    15055.255    34408.856      130.706  -369389.237    44458.827       26.465       26.177        2.602        2.504        2.687        2.737        2.695        2.554        2.703        2.627        2.714        2.667        2.663        2.578        2.487        2.556        2.710        2.628        0.499        1.000        0.000        0.000        1.000        0.000        0.000        0.000        0.000        1.000        0.000        0.000        0.000        0.000        0.000        1.000        0.000        0.000        0.000        0.000        0.000        0.000        0.000        0.000        0.000        1.000        1.000        2.000        5.000        2.000        0.000        1.000        5.000        0.000        0.000        0.000      100.000        0.000        0.000        2.405        2.414        3.042
     580.000  -250284.610    24593.158    15156.785    34328.247      114.450  -368607.680    44130.430       26.164       25.801        2.609        2.471        2.717        2.726        2.650        2.571        2.672        2.619        2.700        2.637        2.748        2.577        2.506        2.585        2.709        2.546        0.498        1.000        0.000        1.000        1.000        0.000        0.000        0.000        0.000        0.000        0.000        0.000        0.000        0.000        0.000        0.000        0.000        0.000        0.000        0.000        0.000        0.000        0.000        0.000        0.000        0.000        0.000        0.000        6.000        0.000        0.000        0.000        1.000        0.000        0.000        0.000      100.000        0.000        0.000        1.947        1.973        2.776
     590.000  -249849.577    25072.268    15159.111    34274.036      103.952  -369704.366    45245.423       26.043       25.810        2.623        2.498        2.680        2.735        2.687        2.586        2.657        2.634        2.695        2.653        2.702        2.578        2.504        2.524        2.744        2.574        0.483        1.000        0.000        0.000        1.000        0.000        0.000        0.000        0.000        0.000        0.000        0.000        0.000        0.000        0.000        1.000        0.000        0.000        0.000        0.000        0.000        0.000        0.000        0.000        0.000        0.000        0.000        1.000        4.000        1.000        0.000        2.000        0.000        0.000        0.000        0.000      100.000        0.000        0.000        2.174        2.201        2.941
     600.000  -249824.015    24441.378    15185.804    34326.876      109.923  -368579.736    44691.740       25.923       25.869        2.615        2.485        2.664        2.681        2.687        2.569        2.673        2.601        2.729        2.627        2.734        2.579        2.465        2.488        2.765        2.549        0.478        2.000        0.000        1.000        1.000        0.000        0.000        0.000        0.000        0.000        0.000        0.000        0.000        0.000        0.000        1.000        0.000        0.000        0.000        0.000        0.000        0.000        0.000        0.000        0.000        1.000        1.000        0.000        5.000        2.000        0.000        4.000        3.000        0.000        0.000        0.000      100.000        0.000        0.000        2.559        2.583        3.243
     610.000  -249595.040    25343.887    15155.947    34311.861      118.690  -369356.373    44830.947       26.158       25.689        2.613        2.492        2.692        2.736        2.737        2.558        2.637        2.606        2.705        2.639        2.691        2.569        2.510        2.482        2.741        2.592        0.478        2.000        0.000        1.000        1.000        0.000        0.000        0.000        0.000        0.000        0.000        0.000        0.000        0.000        0.000        0.000        0.000        0.000        0.000        0.000        0.000        0.000        0.000        0.000        0.000        2.000        1.000        1.000        9.000        2.000        0.000        3.000        5.000        0.000        0.000        0.000      100.000        0.000        0.000        2.778        2.795        3.358
     620.000  -249065.679    23650.659    14978.405    34555.955      140.342  -368617.244    46226.204       25.913       25.853        2.604        2.451        2.693        2.715        2.714        2.576        2.668        2.633        2.740        2.673        2.686        2.569        2.468        2.510        2.711        2.580        0.491        2.000        0.000        0.000        1.000        0.000        0.000        0.000        0.000        1.000        0.000        0.000        0.000        0.000        0.000        2.000        0.000        0.000        0.000        0.000        0.000        0.000        0.000        0.000        0.000        1.000        1.000        2.000        5.000        2.000        0.000        1.000        3.000        0.000        0.000        0.000      100.000        0.000        0.000        2.730        2.762        3.318
     630.000  -250403.077    24355.676    15515.594    34654.120      137.832  -370769.993    45703.694       25.933       25.754        2.712        2.459        2.701        2.712        2.688        2.578        2.680        2.558        2.647        2.669        2.749        2.638        2.532        2.569        2.743        2.593        0.492        1.000        0.000        1.000        1.000        0.000        0.000        0.000        0.000        0.000        0.000        0.000        0.000        0.000        0.000        1.000        1.000        0.000        0.000        0.000        0.000        0.000        0.000        0.000        0.000        1.000        0.000        1.000        5.000        3.000        0.000        2.000        1.000        0.000        0.000        0.000      100.000        0.000        0.000        2.415        2.452        3.049
     640.000  -249924.542    25319.297    14910.882    34311.463      128.795  -368421.235    43826.256       25.949       25.999        2.662        2.515        2.727        2.687        2.676        2.573        2.644        2.616        2.739        2.703        2.658        2.606        2.508        2.566        2.684        2.579        0.480        1.000        0.000        1.000        1.000        0.000        0.000        0.000        0.000        0.000        0.000        0.000        0.000        0.000        0.000        2.000        0.000        0.000        0.000        0.000        0.000        0.000        0.000        0.000        0.000        2.000        1.000        0.000        2.000        1.000        0.000        0.000        3.000        0.000        0.000        0.000      100.000        0.000        0.000        2.241        2.287        2.894
     650.000  -249706.967    24141.236    15083.905    34662.804      124.122  -369903.671    46184.636       25.494       25.753        2.657        2.442        2.716        2.723        2.673        2.609        2.680        2.631        2.699        2.663        2.726        2.565        2.484        2.598        2.755        2.575        0.500        1.000        0.000        1.000        1.000        0.000        0.000        0.000        0.000        1.000        0.000        0.000        0.000        0.000        0.000        1.000        0.000        0.000        0.000        0.000        0.000        0.000        0.000        0.000        0.000        1.000        1.000        1.000        6.000        3.000        0.000        2.000        4.000        0.000        4.494        0.000       95.506        0.000        0.000        2.371        2.400        2.990
     660.000  -249427.690    23957.274    15071.471    34538.101      126.113  -368870.658    45750.009       25.941       26.044        2.624        2.491        2.670        2.666        2.683        2.555        2.664        2.624        2.692        2.683        2.688        2.533        2.468        2.505        2.693        2.559        0.481        1.000        0.000        1.000        1.000        0.000        0.000        0.000        1.000        0.000        0.000        0.000        0.000        0.000        0.000        0.000        0.000        0.000        0.000        0.000        0.000        0.000        0.000        0.000        0.000        0.000        0.000        0.000        5.000        3.000        0.000        1.000        3.000        0.000        0.000        0.000      100.000        0.000        0.000        2.643        2.664        3.348
     670.000  -249689.482    25337.989    14765.550    34518.023      134.389  -369562.287    45116.854       25.879       25.944        2.594        2.452        2.706        2.666        2.698        2.555        2.698        2.644        2.764        2.671        2.713        2.547        2.481        2.513        2.745        2.599        0.497        1.000        0.000        2.000        1.000        0.000        0.000        0.000        0.000        1.000        0.000        0.000        0.000        0.000        0.000        0.000        0.000        0.000        0.000        0.000        0.000        0.000        0.000        0.000        0.000        0.000        1.000        0.000        4.000        4.000        0.000        1.000        4.000        0.000        0.000        0.000      100.000        0.000        0.000        2.459        2.483        3.248
     680.000  -250145.341    23978.430    14575.130    34425.554      139.950  -368894.804    45630.398       25.957       25.999        2.594        2.495        2.704        2.686        2.688        2.560        2.684        2.623        2.721        2.687        2.681        2.567        2.549        2.517        2.734        2.677        0.485        2.000        0.000        1.000        1.000        0.000        0.000        0.000        0.000        0.000        0.000        0.000        0.000        0.000        0.000        1.000        0.000        0.000        0.000        0.000        0.000        0.000        0.000        0.000        0.000        0.000        0.000        2.000        5.000        1.000        0.000        2.000        2.000        0.000        4.494        0.000       95.506        0.000        0.000        2.581        2.577        3.348
     690.000  -249655.286    25009.427    14732.101    34360.446      132.118  -367769.811    43880.433       26.153       25.841        2.669        2.477        2.713        2.729        2.681        2.579        2.679        2.636        2.727        2.691        2.738        2.542        2.519        2.488        2.723        2.620        0.487        2.000        0.000        1.000        1.000        0.000        0.000        0.000        0.000        1.000        0.000        0.000        0.000        0.000        0.000        0.000        0.000        0.000        0.000        0.000        0.000        0.000        0.000        0.000        0.000        0.000        1.000        0.000        5.000        2.000        0.000        2.000        2.000        0.000        4.494        0.000       95.506        0.000        0.000        2.272        2.264        3.241
     700.000  -249329.806    23954.353    14489.644    34414.015      108.585  -368905.053    46608.650       26.198       26.228        2.616        2.480        2.702        2.707        2.742        2.572        2.677        2.620        2.704        2.652        2.719        2.501        2.515        2.517        2.735        2.579        0.479        1.000        0.000        0.000        1.000        0.000        0.000        0.000        0.000        0.000        0.000        0.000        0.000        0.000        0.000        0.000        0.000        0.000        0.000        0.000        0.000        0.000        0.000        0.000        0.000        1.000        5.000        2.000        4.000        0.000        0.000        2.000        3.000        0.000        0.000        0.000      100.000        0.000        0.000        2.390        2.378        3.390
     710.000  -250375.967    25450.820    15068.838    34244.719      129.148  -370075.748    44806.255       26.033       25.887        2.635        2.442        2.688        2.737        2.665        2.589        2.681        2.588        2.709        2.680        2.718        2.521        2.502        2.594        2.752        2.602        0.474        2.000        0.000        1.000        1.000        0.000        0.000        0.000        0.000        1.000        0.000        0.000        0.000        0.000        0.000        0.000        0.000        0.000        0.000        0.000        0.000        0.000        0.000        0.000        0.000        1.000        0.000        0.000        2.000        1.000        0.000        1.000        4.000        0.000        0.000        0.000      100.000        0.000        0.000        2.359        2.368        3.401
     720.000  -249593.503    25381.497    14434.993    34271.599      119.538  -367640.439    43839.310       26.033       25.863        2.681        2.495        2.723        2.708        2.743        2.570        2.682        2.648        2.743        2.671        2.705        2.550        2.528        2.548        2.718        2.572        0.506        2.000        0.000        0.000        1.000        0.000        0.000        0.000        1.000        0.000        0.000        0.000        0.000        0.000        0.000        0.000        0.000        0.000        0.000        0.000        0.000        0.000        0.000        0.000        0.000        1.000        1.000        4.000        3.000        0.000        0.000        2.000        2.000        0.000        0.000        0.000      100.000        0.000        0.000        2.369        2.385        3.370
     730.000  -249516.861    23909.356    14131.896    34360.427      147.896  -366688.366    44621.930       25.946       25.962        2.630        2.479        2.693        2.704        2.698        2.592        2.631        2.597        2.710        2.672        2.721        2.526        2.505        2.455        2.749        2.562        0.501        2.000        0.000        1.000        2.000        0.000        0.000        0.000        1.000        0.000        0.000        0.000        0.000        0.000        0.000        0.000        1.000        0.000        0.000        0.000        0.000        0.000        0.000        0.000        0.000        1.000        2.000        1.000        4.000        2.000        0.000        1.000        2.000        0.000        4.494        0.000       95.506        0.000        0.000        2.405        2.404        3.414
     740.000  -249207.377    24608.309    14445.102    34318.238      121.807  -368331.867    45631.033       25.953       25.802        2.679        2.469        2.720        2.683        2.677        2.622        2.649        2.632        2.680        2.681        2.758        2.519        2.491        2.527        2.743        2.572        0.505        1.000        0.000        1.000        1.000        0.000        0.000        0.000        0.000        1.000        0.000        0.000        0.000        0.000        0.000        0.000        0.000        0.000        0.000        0.000        0.000        0.000        0.000        0.000        0.000        0.000        3.000        0.000        5.000        2.000        0.000        1.000        3.000        0.000        4.494        0.000       95.506        0.000        0.000        2.342        2.367        3.480
     750.000  -250037.301    24771.630    14806.617    34438.937      113.475  -368591.090    44423.130       26.049       25.869        2.699        2.486        2.710        2.671        2.717        2.549        2.706        2.604        2.683        2.641        2.678        2.544        2.519        2.514        2.737        2.610        0.502        1.000        0.000        0.000        1.000        0.000        0.000        0.000        0.000        1.000        0.000        0.000        0.000        0.000        0.000        0.000        1.000        0.000        0.000        0.000        0.000        0.000        0.000        0.000        0.000        1.000        3.000        0.000        2.000        2.000        0.000        2.000        3.000        0.000        0.000        0.000      100.000        0.000        0.000        2.631        2.683        3.624
     760.000  -249100.686    24000.836    14512.912    34411.824      120.324  -367853.602    45707.021       25.706       25.783        2.706        2.476        2.701        2.719        2.662        2.549        2.667        2.590        2.731        2.639        2.669        2.541        2.537        2.496        2.721        2.584        0.496        2.000        0.000        1.000        1.000        0.000        0.000        0.000        0.000        1.000        0.000        0.000        0.000        0.000        0.000        0.000        0.000        0.000        0.000        0.000        0.000        0.000        0.000        0.000        0.000        1.000        2.000        2.000        5.000        1.000        0.000        1.000        4.000        0.000        0.000        0.000      100.000        0.000        0.000        2.846        2.883        3.625
     770.000  -249873.326    24817.317    14427.568    34540.587      138.035  -367158.284    43361.450       25.638       25.710        2.683        2.489        2.714        2.718        2.723        2.530        2.685        2.640        2.727        2.660        2.717        2.577        2.465        2.480        2.690        2.590        0.488        2.000        0.000        1.000        1.000        0.000        0.000        0.000        0.000        0.000        0.000        0.000        0.000        0.000        0.000        0.000        0.000        0.000        0.000        0.000        0.000        0.000        0.000        0.000        0.000        1.000        1.000        3.000        2.000        1.000        0.000        1.000        4.000        0.000        0.000        0.000      100.000        0.000        0.000        2.687        2.702        3.647
     780.000  -249235.000    23949.752    14699.675    34566.411      158.469  -368039.225    45429.918       25.731       25.723        2.584        2.477        2.661        2.698        2.658        2.585        2.686        2.653        2.731        2.651        2.704        2.474        2.497        2.479        2.730        2.583        0.510        2.000        0.000        0.000        1.000        1.000        0.000        0.000        0.000        1.000        0.000        0.000        0.000        0.000        0.000        0.000        0.000        0.000        0.000        0.000        0.000        0.000        0.000        0.000        0.000        2.000        1.000        4.000        4.000        3.000        0.000        0.000        2.000        0.000        0.000        0.000      100.000        0.000        0.000        3.028        3.044        3.879
     790.000  -249890.049    24810.563    14623.629    34388.268      108.020  -369243.609    45423.079       25.736       25.903        2.623        2.442        2.723        2.719        2.659        2.544        2.681        2.613        2.709        2.656        2.679        2.559        2.511        2.507        2.706        2.625        0.498        1.000        0.000        0.000        1.000        0.000        0.000        0.000        1.000        0.000        0.000        0.000        0.000        0.000        0.000        0.000        2.000        0.000        0.000        0.000        0.000        0.000        0.000        0.000        0.000        1.000        1.000        2.000        5.000        1.000        0.000        0.000        2.000        0.000        0.000        0.000      100.000        0.000        0.000        3.310        3.340        3.975
     800.000  -250002.896    24608.255    14784.988    34368.246      122.682  -368888.642    45001.576       25.182       25.710        2.584        2.502        2.702        2.697        2.727        2.584        2.675        2.579        2.708        2.647        2.709        2.537        2.504        2.504        2.713        2.620        0.460        2.000        0.000        0.000        1.000        0.000        0.000        0.000        0.000        1.000        0.000        0.000        0.000        0.000        0.000        0.000        0.000        0.000        0.000        0.000        0.000        0.000        0.000        0.000        0.000        1.000        1.000        2.000        5.000        1.000        0.000        2.000        0.000        0.000        0.000        0.000      100.000        0.000        0.000        3.529        3.576        4.156
     810.000  -249779.914    25383.642    14700.360    34311.534      131.953  -368944.669    44637.268       25.365       25.786        2.649        2.492        2.688        2.709        2.711        2.590        2.665        2.600        2.738        2.676        2.707        2.570        2.525        2.469        2.768        2.564        0.487        1.000        0.000        1.000        1.000        0.000        0.000        0.000        1.000        1.000        0.000        0.000        1.000        0.000        0.000        0.000        0.000        0.000        0.000        0.000        0.000        0.000        0.000        0.000        0.000        1.000        0.000        2.000        2.000        1.000        0.000        1.000        2.000        0.000        0.000        0.000      100.000        0.000        0.000        4.516        4.589        4.982
     820.000  -249557.523    24748.953    14837.377    34505.551      119.963  -368629.189    44859.822       25.472       25.707        2.682        2.438        2.687        2.730        2.620        2.606        2.677        2.631        2.720        2.643        2.730        2.494        2.519        2.507        2.767        2.610        0.494        2.000        0.000        1.000        1.000        0.000        0.000        0.000        0.000        0.000        0.000        0.000        0.000        0.000        0.000        0.000        0.000        0.000        0.000        0.000        0.000        0.000        0.000        0.000        0.000        0.000        2.000        1.000        3.000        1.000        0.000        0.000        2.000        0.000        0.000        0.000      100.000        0.000        0.000        3.981        4.034        4.573
     830.000  -250202.751    25303.035    14839.428    34509.727      120.982  -369131.873    44155.950       25.414       25.786        2.685        2.506        2.738        2.725        2.696        2.598        2.678        2.584        2.739        2.698        2.752        2.607        2.548        2.492        2.689        2.580        0.489        2.000        0.000        1.000        1.000        0.000        0.000        0.000        0.000        1.000        0.000        0.000        0.000        0.000        0.000        0.000        0.000        0.000        0.000        0.000        0.000        0.000        0.000        0.000        0.000        2.000        2.000        1.000        6.000        1.000        0.000        0.000        1.000        0.000        0.000        0.000      100.000        0.000        0.000        3.624        3.695        4.195
     840.000  -249776.921    24642.638    14655.337    34535.041      125.208  -368608.042    44872.897       25.568       25.689        2.624        2.446        2.689        2.703        2.763        2.566        2.714        2.542        2.716        2.653        2.732        2.554        2.505        2.548        2.719        2.593        0.486        1.000        0.000        0.000        1.000        0.000        0.000        0.000        0.000        1.000        0.000        0.000        0.000        0.000        0.000        0.000        0.000        0.000        0.000        0.000        0.000        0.000        0.000        0.000        0.000        1.000        1.000        1.000        5.000        2.000        0.000        2.000        3.000        0.000        0.000        0.000      100.000        0.000        0.000        2.804        2.858        3.678
     850.000  -249466.485    24964.245    14803.119    34527.184      138.161  -368400.051    44500.858       25.767       25.671        2.664        2.472        2.696        2.707        2.728        2.566        2.623        2.606        2.736        2.691        2.710        2.539        2.485        2.509        2.735        2.567        0.507        2.000        0.000        0.000        1.000        0.000        0.000        0.000        1.000        0.000        0.000        0.000        0.000        0.000        0.000        1.000        0.000        0.000        0.000        0.000        0.000        0.000        0.000        0.000        0.000        0.000        0.000        0.000        6.000        1.000        0.000        1.000        0.000        0.000        0.000        0.000      100.000        0.000        0.000        2.775        2.791        3.713
     860.000  -249418.199    24086.208    15143.176    34503.506      119.346  -369372.257    46101.822       25.839       25.791        2.695        2.447        2.710        2.703        2.674        2.542        2.651        2.637        2.700        2.669        2.686        2.587        2.512        2.513        2.733        2.613        0.473        1.000        0.000        0.000        1.000        0.000        0.000        0.000        0.000        1.000        0.000        0.000        0.000        0.000        0.000        1.000        0.000        0.000        0.000        0.000        0.000        0.000        0.000        0.000        0.000        3.000        0.000        1.000        4.000        0.000        0.000        0.000        2.000        0.000        0.000        0.000      100.000        0.000        0.000        2.665        2.699        3.648
     870.000  -249753.642    25125.144    14531.310    34511.112      128.579  -368928.091    44878.304       25.975       26.026        2.699        2.463        2.743        2.723        2.659        2.592        2.676        2.592        2.722        2.668        2.731        2.518        2.544        2.517        2.705        2.605        0.507        1.000        0.000        1.000        1.000        0.000        0.000        0.000        0.000        0.000        0.000        0.000        0.000        0.000        0.000        0.000        0.000        0.000        0.000        0.000        0.000        0.000        0.000        0.000        0.000        2.000        3.000        3.000        4.000        2.000        0.000        2.000        4.000        0.000        0.000        0.000      100.000        0.000        0.000        2.578        2.608        3.543
     880.000  -249981.607    24917.317    15219.720    34321.790      139.156  -369026.396    44446.806       25.810       26.263        2.685        2.463        2.713        2.708        2.720        2.604        2.625        2.606        2.712        2.644        2.760        2.488        2.518        2.497        2.735        2.651        0.484        2.000        0.000        1.000        1.000        0.000        0.000        0.000        1.000        1.000        0.000        0.000        0.000        0.000        0.000        0.000        0.000        0.000        0.000        0.000        0.000        0.000        0.000        0.000        0.000        0.000        2.000        0.000        5.000        0.000        0.000        2.000        7.000        0.000        0.000        0.000      100.000        0.000        0.000        2.396        2.404        3.285
     890.000  -250071.164    24966.297    14555.620    34348.678      128.776  -369599.144    45528.609       25.929       25.999        2.672        2.478        2.707        2.703        2.714        2.610        2.619        2.579        2.683        2.636        2.743        2.620        2.522        2.453        2.716        2.606        0.478        1.000        0.000        1.000        1.000        0.000        0.000        0.000        0.000        0.000        0.000        0.000        0.000        0.000        0.000        0.000        0.000        0.000        0.000        0.000        0.000        0.000        0.000        0.000        0.000        4.000        0.000        2.000        6.000        2.000        0.000        4.000        3.000        0.000        0.000        0.000      100.000        0.000        0.000        2.181        2.197        3.233
     900.000  -250207.532    24493.556    14951.799    34481.484      123.950  -369103.316    44844.994       25.714       26.054        2.699        2.460        2.716        2.747        2.636        2.596        2.606        2.576        2.714        2.667        2.703        2.534        2.468        2.535        2.708        2.618        0.490        0.000        0.000        1.000        2.000        0.000        0.000        0.000        1.000        0.000        0.000        0.000        0.000        0.000        0.000        0.000        0.000        0.000        0.000        0.000        0.000        0.000        0.000        0.000        0.000        1.000        0.000        0.000        3.000        1.000        0.000        4.000        5.000        0.000        0.000        0.000      100.000        0.000        0.000        2.165        2.167        3.263
     910.000  -249588.723    24354.411    15208.574    34209.294      111.680  -367292.627    43819.945       26.000       26.333        2.674        2.468        2.756        2.728        2.710        2.619        2.603        2.609        2.706        2.676        2.776        2.590        2.555        2.513        2.724        2.549        0.484        1.000        0.000        0.000        2.000        0.000        0.000        0.000        1.000        0.000        0.000        0.000        0.000        0.000        0.000        1.000        0.000        0.000        0.000        0.000        0.000        0.000        0.000        0.000        0.000        2.000        1.000        1.000        2.000        1.000        0.000        1.000        3.000        0.000        0.000        0.000      100.000        0.000        0.000        2.413        2.396        3.454
     920.000  -249940.866    24168.202    14133.850    34580.241       98.895  -367914.431    44992.377       26.075       26.211        2.659        2.485        2.676        2.748        2.725        2.566        2.667        2.623        2.728        2.599        2.714        2.579        2.508        2.528        2.704        2.581        0.493        1.000        0.000        0.000        1.000        1.000        0.000        0.000        1.000        0.000        0.000        0.000        0.000        0.000        0.000        0.000        2.000        0.000        0.000        0.000        0.000        0.000        0.000        0.000        0.000        2.000        0.000        2.000        1.000        1.000        0.000        3.000        2.000        0.000        0.000        0.000      100.000        0.000        0.000        2.590        2.537        3.424
     930.000  -249535.874    25226.667    14857.761    34467.317      100.584  -368251.495    44063.292       25.956       26.186        2.674        2.476        2.696        2.710        2.686        2.618        2.606        2.633        2.731        2.665        2.701        2.596        2.499        2.499        2.701        2.615        0.496        1.000        0.000        0.000        1.000        0.000        0.000        0.000        0.000        0.000        0.000        0.000        0.000        0.000        0.000        1.000        1.000        0.000        0.000        0.000        0.000        0.000        0.000        0.000        0.000        1.000        0.000        4.000        3.000        3.000        0.000        4.000        1.000        0.000        4.494        0.000       95.506        0.000        0.000        2.512        2.474        3.278
     940.000  -249341.422    23683.429    14575.651    34579.275      110.447  -368472.933    46182.709       26.048       26.258        2.729        2.486        2.731        2.661        2.636        2.608        2.605        2.626        2.698        2.659        2.685        2.501        2.508        2.475        2.712        2.583        0.473        1.000        0.000        0.000        1.000        0.000        0.000        0.000        0.000        0.000        0.000        0.000        0.000        0.000        0.000        0.000        0.000        0.000        0.000        0.000        0.000        0.000        0.000        0.000        0.000        2.000        0.000        3.000        1.000        4.000        0.000        1.000        1.000        0.000        4.494        0.000       95.506        0.000        0.000        2.396        2.328        3.338
     950.000  -250329.304    24248.912    14669.284    34392.966      133.375  -368954.833    45180.992       25.862       26.090        2.610        2.467        2.719        2.697        2.710        2.596        2.672        2.622        2.668        2.684        2.749        2.587        2.506        2.498        2.733        2.561        0.489        0.000        0.000        0.000        1.000        1.000        0.000        0.000        1.000        0.000        0.000        0.000        0.000        0.000        0.000        1.000        0.000        0.000        0.000        0.000        0.000        0.000        0.000        0.000        0.000        4.000        0.000        4.000        2.000        1.000        0.000        4.000        2.000        0.000        0.000        0.000      100.000        0.000        0.000        2.312        2.275        3.199
     960.000  -250306.317    24919.073    14834.901    34239.940      143.670  -368035.795    43591.894       25.808       26.085        2.541        2.463        2.688        2.720        2.708        2.617        2.652        2.591        2.694        2.636        2.670        2.539        2.499        2.504        2.718        2.593        0.471        1.000        0.000        1.000        1.000        1.000        0.000        0.000        0.000        0.000        0.000        0.000        0.000        0.000        0.000        0.000        1.000        0.000        0.000        0.000        0.000        0.000        0.000        0.000        0.000        3.000        0.000        3.000        1.000        1.000        0.000        0.000        0.000        0.000        0.000        0.000      100.000        0.000        0.000        2.595        2.563        3.416
     970.000  -250475.006    24393.733    14894.005    34425.620      123.088  -370174.067    45862.616       25.838       25.851        2.573        2.467        2.689        2.721        2.715        2.607        2.617        2.571        2.715        2.641        2.706        2.619        2.451        2.494        2.716        2.548        0.496        1.000        0.000        0.000        1.000        0.000        0.000        0.000        1.000        1.000        0.000        0.000        0.000        0.000        0.000        0.000        0.000        0.000        0.000        0.000        0.000        0.000        0.000        0.000        0.000        3.000        0.000        1.000        4.000        2.000        0.000        1.000        0.000        0.000        4.494        0.000       95.506        0.000        0.000        2.463        2.443        3.363
     980.000  -249984.906    24893.725    14786.397    34063.317      130.174  -367851.455    43992.935       26.283       26.384        2.525        2.478        2.745        2.710        2.697        2.563        2.665        2.604        2.695        2.652        2.691        2.543        2.536        2.501        2.727        2.591        0.505        2.000        0.000        0.000        1.000        0.000        0.000        0.000        1.000        0.000        0.000        0.000        0.000        0.000        0.000        0.000        0.000        0.000        0.000        0.000        0.000        0.000        0.000        0.000        0.000        0.000        2.000        1.000        3.000        2.000        0.000        1.000        2.000        0.000        4.494        0.000       95.506        0.000        0.000        2.822        2.783        3.652
     990.000  -249903.828    24916.950    14675.411    34362.712      143.112  -368928.019    44926.006       26.266       26.299        2.609        2.449        2.668        2.692        2.718        2.634        2.606        2.577        2.703        2.624        2.725        2.565        2.510        2.527        2.726        2.568        0.451        0.000        0.000        0.000        1.000        0.000        0.000        0.000        1.000        0.000        0.000        0.000        0.000        0.000        0.000        0.000        0.000        0.000        0.000        0.000        0.000        0.000        0.000        0.000        0.000        3.000        1.000        0.000        2.000        1.000        0.000        1.000        2.000        0.000        4.494        0.000       95.506        0.000        0.000        2.698        2.659        3.705
    1000.000  -250640.933    25021.453    14452.626    34434.957      105.140  -369193.732    44538.623       26.082       26.106        2.562        2.488        2.649        2.691        2.647        2.598        2.636        2.603        2.713        2.642        2.719        2.600        2.480        2.519        2.702        2.612        0.495        0.000        0.000        1.000        1.000        0.000        0.000        0.000        1.000        0.000        0.000        0.000        0.000        0.000        0.000        1.000        0.000        0.000        0.000        0.000        0.000        0.000        0.000        0.000        0.000        1.000        1.000        2.000        3.000        1.000        0.000        1.000        3.000        0.000        4.494        0.000       95.506        0.000        0.000        2.528        2.512        3.713
     Average  -251808.678    25092.622    14920.976    34454.465      120.968  -372250.793    45853.083       25.912       25.875        2.634        2.484        2.709        2.706        2.698        2.555        2.677        2.605        2.694        2.674        2.676        2.561        2.511        2.519        2.720        2.580        0.489        1.109        0.000        0.614        1.020        0.168        0.000        0.000        0.485        0.465        0.000        0.010        0.069        0.000        0.000        0.366        0.446        0.000        0.000        0.000        0.109        0.000        0.000        0.000        0.000        1.337        0.931        1.406        4.000        1.248        0.000        1.198        2.584        0.000        0.934        0.000       99.066        0.000        0.000        2.374        2.397        2.958

