____Time[ps] Energy[ kJ/mol ]_____Bond _______Angle ____Dihedral ___Planarity _____Coulomb _________VdW _Your result _Your result _Your result _Your result _Your result _Your result _Your result _Your result _Your result _Your result _Your result _Your result _Your result _Your result _Your result _Your result _Your result _Your result _Your result _Your result _Your result _Your result _Your result _Your result _Your result _Your result _Your result _Your result _Your result _Your result _Your result _Your result _Your result _Your result _Your result _Your result _Your result _Your result _Your result _Your result _Your result _Your result _Your result _Your result _Your result _Your result _Your result _Your result _Your result _Your result _Your result _Your result _Your result _Your result _Your result _Your result _Your result _RMSDs[A]:CA ____Backbone __HeavyAtoms
       0.000  -402118.859     8733.984     6299.465    34086.427       22.513  -529100.386    77839.140       25.469       25.230        2.572        2.487        2.647        2.691        2.638        2.578        2.712        2.606        2.618        2.642        2.520        2.681        3.031        3.003        2.564        2.557        0.489        2.000        1.000        0.000        1.000        1.000        0.000        1.000        2.000        0.000        0.000        0.000        1.000        0.000        0.000        0.000        1.000        0.000        0.000        0.000        0.000        0.000        0.000        0.000        0.000        0.000        0.000        1.000        5.000        1.000        0.000        1.000        2.000        0.000        4.494        0.000       95.506        0.000        0.000        0.539        0.561        0.671
      10.000  -303361.062    33320.011    17185.513    33673.469      123.885  -447564.420    59900.481       26.013       25.706        2.617        2.486        2.719        2.691        2.627        2.566        2.728        2.546        2.669        2.635        2.476        2.483        3.147        3.082        2.549        2.562        0.493        2.000        1.000        0.000        1.000        1.000        0.000        0.000        2.000        0.000        0.000        0.000        0.000        0.000        0.000        0.000        0.000        0.000        0.000        0.000        0.000        0.000        0.000        0.000        0.000        1.000        7.000        0.000        1.000        2.000        0.000        0.000        3.000        0.000        0.000        0.000      100.000        0.000        0.000        1.228        1.257        1.507
      20.000  -304083.082    34459.388    17643.584    33694.375      129.113  -447231.078    57221.536       26.122       25.919        2.631        2.506        2.697        2.661        2.643        2.631        2.717        2.588        2.641        2.649        2.484        2.530        3.125        3.100        2.527        2.630        0.483        1.000        1.000        0.000        1.000        1.000        0.000        1.000        2.000        0.000        0.000        0.000        0.000        0.000        0.000        0.000        1.000        0.000        0.000        0.000        0.000        0.000        0.000        0.000        0.000        1.000        3.000        0.000        6.000        1.000        0.000        1.000        3.000        0.000        4.494        0.000       95.506        0.000        0.000        1.506        1.510        1.749
      30.000  -303347.418    33605.032    17632.963    33678.336      130.909  -446714.104    58319.446       26.013       25.814        2.602        2.497        2.637        2.642        2.640        2.532        2.740        2.565        2.636        2.636        2.471        2.549        3.087        3.046        2.575        2.595        0.503        1.000        1.000        0.000        1.000        1.000        0.000        0.000        2.000        0.000        0.000        0.000        0.000        0.000        0.000        0.000        0.000        0.000        0.000        0.000        0.000        0.000        0.000        0.000        0.000        0.000        3.000        0.000        2.000        2.000        0.000        0.000        5.000        0.000        7.865        0.000       92.135        0.000        0.000        1.360        1.381        1.684
      40.000  -303130.936    34364.477    17867.331    33636.439      137.340  -446632.258    57495.734       25.930       25.559        2.644        2.607        2.727        2.670        2.649        2.596        2.710        2.584        2.640        2.677        2.516        2.555        3.157        3.053        2.567        2.560        0.469        1.000        1.000        0.000        1.000        1.000        0.000        0.000        2.000        0.000        0.000        0.000        0.000        0.000        0.000        0.000        0.000        0.000        0.000        0.000        0.000        0.000        0.000        0.000        0.000        0.000        9.000        0.000        3.000        2.000        0.000        0.000        4.000        0.000        4.494        0.000       95.506        0.000        0.000        1.547        1.544        1.876
      50.000  -302022.210    32182.651    17884.829    33613.830      116.755  -444290.076    58469.801       25.935       25.597        2.643        2.581        2.714        2.620        2.614        2.597        2.726        2.584        2.624        2.662        2.458        2.574        3.123        3.033        2.524        2.598        0.482        1.000        0.000        0.000        1.000        1.000        0.000        0.000        2.000        0.000        1.000        0.000        1.000        0.000        0.000        0.000        1.000        0.000        0.000        0.000        0.000        0.000        0.000        0.000        0.000        2.000        4.000        0.000        2.000        1.000        0.000        0.000        4.000        0.000        4.494        0.000       95.506        0.000        0.000        1.573        1.559        1.911
      60.000  -300855.192    31961.877    17561.942    33763.483      139.319  -442023.282    57741.470       25.944       25.559        2.655        2.565        2.686        2.652        2.628        2.539        2.710        2.541        2.585        2.637        2.479        2.499        3.102        3.013        2.548        2.564        0.492        1.000        0.000        0.000        1.000        1.000        0.000        1.000        1.000        0.000        1.000        0.000        2.000        0.000        0.000        0.000        1.000        0.000        0.000        0.000        0.000        0.000        0.000        0.000        0.000        2.000        4.000        0.000        5.000        3.000        0.000        0.000        3.000        0.000        0.000        0.000      100.000        0.000        0.000        1.495        1.487        1.828
      70.000  -301136.838    32925.121    17963.327    33450.081      122.706  -442516.637    56918.564       25.956       25.710        2.629        2.581        2.710        2.660        2.674        2.564        2.749        2.608        2.628        2.590        2.482        2.527        3.093        3.092        2.605        2.579        0.505        1.000        0.000        0.000        1.000        2.000        0.000        1.000        2.000        0.000        3.000        0.000        1.000        0.000        0.000        0.000        1.000        0.000        0.000        0.000        0.000        0.000        0.000        0.000        0.000        1.000        6.000        0.000        3.000        1.000        0.000        1.000        2.000        0.000        4.494        0.000       95.506        0.000        0.000        1.657        1.638        2.103
      80.000  -301370.379    30750.084    18038.859    33640.022      113.581  -441779.367    57866.442       25.923       25.777        2.586        2.474        2.689        2.653        2.666        2.516        2.710        2.581        2.613        2.660        2.484        2.539        3.046        3.012        2.507        2.572        0.472        1.000        1.000        0.000        1.000        1.000        0.000        1.000        1.000        0.000        1.000        0.000        0.000        0.000        0.000        0.000        3.000        0.000        0.000        0.000        0.000        0.000        0.000        0.000        0.000        1.000        5.000        0.000        2.000        1.000        0.000        1.000        2.000        0.000        4.494        0.000       95.506        0.000        0.000        1.786        1.779        2.235
      90.000  -299967.124    32306.502    17523.255    33726.723      121.647  -439535.522    55890.271       25.832       25.805        2.633        2.508        2.716        2.642        2.651        2.595        2.691        2.604        2.628        2.556        2.478        2.456        3.103        3.071        2.601        2.595        0.486        1.000        1.000        0.000        1.000        1.000        0.000        1.000        2.000        0.000        0.000        0.000        0.000        0.000        0.000        0.000        0.000        0.000        0.000        0.000        0.000        0.000        0.000        0.000        0.000        1.000        6.000        0.000        5.000        1.000        0.000        0.000        1.000        0.000        0.000        0.000      100.000        0.000        0.000        1.482        1.500        2.001
     100.000  -300110.807    31439.748    17932.939    33651.585      134.377  -440790.454    57520.999       25.926       25.762        2.645        2.547        2.714        2.658        2.650        2.552        2.730        2.568        2.634        2.617        2.444        2.593        3.108        3.032        2.551        2.599        0.518        1.000        1.000        0.000        0.000        1.000        0.000        1.000        2.000        0.000        0.000        0.000        0.000        0.000        0.000        0.000        1.000        0.000        0.000        0.000        0.000        0.000        0.000        0.000        0.000        2.000        2.000        0.000        3.000        2.000        0.000        0.000        0.000        0.000        4.494        0.000       95.506        0.000        0.000        1.570        1.602        2.213
     110.000  -300696.210    30897.824    17676.802    33485.779      119.875  -440776.885    57900.394       26.079       25.913        2.634        2.570        2.669        2.649        2.640        2.586        2.696        2.598        2.638        2.603        2.474        2.570        3.116        3.084        2.502        2.617        0.496        1.000        1.000        0.000        1.000        1.000        0.000        0.000        2.000        0.000        1.000        0.000        1.000        0.000        0.000        0.000        0.000        0.000        0.000        0.000        0.000        0.000        0.000        0.000        0.000        1.000        4.000        1.000        2.000        1.000        0.000        0.000        2.000        0.000        0.000        0.000      100.000        0.000        0.000        1.743        1.768        2.222
     120.000  -299300.377    31116.487    17859.912    33489.653       89.265  -436466.468    54610.773       25.909       25.764        2.571        2.524        2.759        2.635        2.666        2.518        2.717        2.600        2.639        2.647        2.460        2.507        3.132        3.001        2.545        2.616        0.502        1.000        1.000        0.000        1.000        1.000        0.000        1.000        2.000        0.000        0.000        0.000        0.000        0.000        0.000        0.000        1.000        0.000        0.000        0.000        0.000        0.000        0.000        0.000        0.000        1.000        4.000        1.000        4.000        1.000        0.000        1.000        0.000        0.000        0.000        0.000      100.000        0.000        0.000        2.261        2.291        2.669
     130.000  -299502.393    31370.501    17455.388    33747.103      140.495  -438942.504    56726.624       25.383       25.578        2.593        2.548        2.705        2.647        2.638        2.583        2.689        2.590        2.625        2.593        2.557        2.466        3.066        2.943        2.570        2.609        0.486        1.000        2.000        0.000        1.000        1.000        0.000        1.000        2.000        0.000        0.000        0.000        0.000        0.000        0.000        0.000        0.000        0.000        0.000        0.000        0.000        0.000        0.000        0.000        0.000        2.000        4.000        0.000        2.000        0.000        0.000        0.000        2.000        0.000        0.000        0.000      100.000        0.000        0.000        2.086        2.129        2.694
     140.000  -298895.890    30931.240    17395.791    33515.561      118.995  -436673.940    55816.463       25.640       25.789        2.559        2.527        2.678        2.623        2.691        2.522        2.700        2.602        2.637        2.698        2.707        2.486        3.078        3.029        2.698        2.598        0.483        1.000        0.000        0.000        1.000        1.000        0.000        1.000        2.000        0.000        1.000        0.000        0.000        0.000        0.000        0.000        0.000        0.000        0.000        0.000        0.000        0.000        0.000        0.000        0.000        2.000        5.000        1.000        1.000        2.000        0.000        0.000        2.000        0.000        0.000        0.000      100.000        0.000        0.000        2.381        2.437        3.009
     150.000  -299360.245    30122.378    17733.672    33445.151      126.880  -436795.164    56006.838       25.394       25.781        2.574        2.541        2.673        2.626        2.656        2.520        2.713        2.576        2.664        2.657        2.690        2.519        3.120        3.034        2.673        2.607        0.471        1.000        1.000        0.000        1.000        1.000        0.000        0.000        1.000        0.000        1.000        0.000        0.000        0.000        0.000        0.000        0.000        0.000        0.000        0.000        0.000        0.000        0.000        0.000        0.000        2.000        5.000        1.000        3.000        0.000        0.000        2.000        2.000        0.000        0.000        0.000      100.000        0.000        0.000        1.964        1.966        2.635
     160.000  -299270.603    31105.966    17548.561    33454.055      117.171  -436623.817    55127.461       25.431       25.964        2.624        2.522        2.700        2.694        2.639        2.571        2.729        2.591        2.671        2.635        2.653        2.513        3.098        3.018        2.669        2.579        0.508        1.000        1.000        0.000        1.000        1.000        0.000        1.000        1.000        0.000        1.000        0.000        1.000        0.000        0.000        0.000        1.000        0.000        0.000        0.000        0.000        0.000        0.000        0.000        0.000        2.000        2.000        1.000        3.000        0.000        0.000        0.000        3.000        0.000        0.000        0.000      100.000        0.000        0.000        1.791        1.798        2.537
     170.000  -299329.001    30866.026    17462.944    33489.832      130.545  -435964.328    54685.980       25.702       25.729        2.619        2.537        2.723        2.630        2.668        2.587        2.742        2.622        2.712        2.633        2.630        2.543        3.077        2.982        2.687        2.600        0.490        1.000        1.000        0.000        1.000        1.000        0.000        0.000        1.000        0.000        2.000        0.000        0.000        0.000        0.000        0.000        0.000        0.000        0.000        0.000        0.000        0.000        0.000        0.000        0.000        2.000        4.000        1.000        1.000        3.000        0.000        1.000        1.000        0.000        0.000        0.000      100.000        0.000        0.000        1.473        1.452        2.319
     180.000  -298367.088    29639.207    18199.941    33374.866      121.427  -435509.843    55807.314       25.700       25.661        2.634        2.455        2.701        2.681        2.651        2.563        2.655        2.566        2.618        2.602        2.695        2.515        3.078        2.990        2.670        2.630        0.487        0.000        1.000        0.000        1.000        1.000        0.000        1.000        1.000        0.000        1.000        0.000        1.000        0.000        0.000        0.000        2.000        0.000        0.000        0.000        0.000        0.000        0.000        0.000        0.000        1.000        2.000        1.000        1.000        1.000        0.000        1.000        3.000        0.000        0.000        0.000      100.000        0.000        0.000        1.606        1.617        2.452
     190.000  -297615.540    29346.883    17213.731    33544.087      129.395  -434137.000    56287.363       25.699       25.773        2.601        2.488        2.723        2.641        2.667        2.533        2.683        2.567        2.676        2.610        2.658        2.470        3.133        3.020        2.640        2.609        0.495        2.000        1.000        0.000        1.000        1.000        0.000        1.000        2.000        0.000        0.000        0.000        1.000        0.000        0.000        0.000        0.000        0.000        0.000        0.000        0.000        0.000        0.000        0.000        0.000        2.000        2.000        1.000        3.000        1.000        0.000        0.000        3.000        0.000        0.000        0.000      100.000        0.000        0.000        1.389        1.408        2.291
     200.000  -298668.851    30285.380    17546.410    33398.097       98.086  -434941.257    54944.432       25.997       25.828        2.590        2.519        2.695        2.645        2.678        2.579        2.702        2.571        2.706        2.577        2.709        2.533        3.087        3.023        2.691        2.600        0.502        1.000        1.000        0.000        1.000        1.000        0.000        0.000        1.000        0.000        0.000        0.000        0.000        0.000        0.000        0.000        0.000        0.000        0.000        0.000        0.000        0.000        0.000        0.000        0.000        1.000        7.000        1.000        3.000        1.000        0.000        0.000        6.000        0.000        0.000        0.000      100.000        0.000        0.000        1.607        1.631        2.519
     210.000  -297890.358    29840.822    17619.296    33651.824      106.565  -435318.042    56209.177       25.602       25.699        2.674        2.509        2.727        2.675        2.645        2.536        2.718        2.584        2.679        2.576        2.700        2.497        3.106        2.999        2.704        2.580        0.484        1.000        1.000        0.000        1.000        1.000        0.000        1.000        2.000        0.000        0.000        0.000        0.000        0.000        0.000        0.000        0.000        0.000        0.000        0.000        0.000        0.000        0.000        0.000        0.000        3.000        4.000        1.000        2.000        2.000        0.000        0.000        2.000        0.000        0.000        0.000      100.000        0.000        0.000        1.638        1.644        2.557
     220.000  -297307.551    28993.680    17330.466    33555.478      123.776  -432996.813    55685.862       25.789       25.876        2.611        2.529        2.711        2.683        2.672        2.581        2.682        2.590        2.654        2.596        2.678        2.532        3.100        3.052        2.662        2.546        0.487        1.000        0.000        0.000        1.000        1.000        0.000        0.000        2.000        0.000        0.000        0.000        0.000        0.000        0.000        0.000        0.000        0.000        0.000        0.000        0.000        0.000        0.000        0.000        0.000        2.000        4.000        2.000        3.000        1.000        0.000        2.000        3.000        0.000        0.000        0.000      100.000        0.000        0.000        1.944        1.968        2.726
     230.000  -297427.916    30286.697    17688.269    33468.463      108.951  -433975.131    54994.835       25.707       25.584        2.687        2.458        2.656        2.631        2.614        2.568        2.702        2.591        2.707        2.655        2.656        2.521        3.145        3.052        2.693        2.557        0.489        1.000        1.000        0.000        1.000        1.000        0.000        1.000        1.000        0.000        0.000        0.000        0.000        0.000        0.000        0.000        0.000        0.000        0.000        0.000        0.000        0.000        0.000        0.000        0.000        2.000        4.000        1.000        1.000        3.000        0.000        3.000        2.000        0.000        0.000        0.000      100.000        0.000        0.000        2.131        2.170        3.082
     240.000  -298034.668    30041.314    17270.118    33446.846      112.438  -433604.984    54699.601       25.980       25.890        2.648        2.479        2.712        2.687        2.604        2.516        2.730        2.579        2.709        2.688        2.705        2.516        3.097        2.993        2.675        2.568        0.497        2.000        1.000        0.000        1.000        1.000        0.000        1.000        2.000        0.000        1.000        0.000        0.000        0.000        0.000        0.000        0.000        0.000        0.000        0.000        0.000        0.000        0.000        0.000        0.000        1.000        1.000        1.000        2.000        0.000        0.000        0.000        2.000        0.000        0.000        0.000      100.000        0.000        0.000        1.750        1.779        2.639
     250.000  -297961.894    29263.147    16951.653    33740.962       93.257  -433600.359    55589.446       25.500       25.566        2.575        2.449        2.719        2.659        2.654        2.579        2.724        2.572        2.659        2.628        2.656        2.503        3.096        2.940        2.680        2.504        0.512        1.000        1.000        0.000        1.000        1.000        0.000        0.000        2.000        0.000        0.000        0.000        0.000        0.000        0.000        1.000        0.000        0.000        0.000        0.000        0.000        0.000        0.000        0.000        0.000        1.000        2.000        0.000        3.000        2.000        0.000        0.000        3.000        0.000        0.000        0.000      100.000        0.000        0.000        1.942        1.985        2.853
     260.000  -297434.527    30618.225    17003.127    33435.687      123.613  -432494.229    53879.049       25.918       25.997        2.580        2.483        2.716        2.615        2.630        2.619        2.694        2.588        2.683        2.603        2.670        2.519        3.133        2.978        2.660        2.541        0.488        1.000        1.000        0.000        1.000        1.000        0.000        0.000        2.000        0.000        2.000        0.000        1.000        0.000        0.000        0.000        0.000        0.000        0.000        0.000        0.000        0.000        0.000        0.000        0.000        2.000        0.000        1.000        3.000        1.000        0.000        1.000        3.000        0.000        0.000        0.000      100.000        0.000        0.000        2.005        2.031        2.971
     270.000  -297229.146    29095.674    17217.622    33365.096      148.275  -432953.919    55898.106       25.760       25.675        2.529        2.469        2.673        2.629        2.724        2.554        2.714        2.584        2.689        2.696        2.673        2.547        3.192        3.033        2.707        2.544        0.494        2.000        1.000        0.000        1.000        1.000        0.000        0.000        2.000        0.000        2.000        0.000        0.000        0.000        0.000        0.000        0.000        0.000        0.000        0.000        0.000        0.000        0.000        0.000        0.000        1.000        0.000        1.000        2.000        1.000        0.000        1.000        1.000        0.000        0.000        0.000      100.000        0.000        0.000        1.848        1.894        2.768
     280.000  -296497.819    28572.982    16899.584    33523.823      116.441  -430725.577    55114.928       25.712       25.602        2.623        2.498        2.711        2.594        2.705        2.585        2.699        2.549        2.669        2.622        2.686        2.483        3.119        3.006        2.699        2.517        0.501        1.000        1.000        0.000        1.000        1.000        0.000        1.000        2.000        0.000        1.000        0.000        0.000        0.000        0.000        0.000        0.000        0.000        0.000        0.000        0.000        0.000        0.000        0.000        0.000        2.000        4.000        1.000        3.000        0.000        0.000        0.000        3.000        0.000        0.000        0.000      100.000        0.000        0.000        2.001        2.063        2.866
     290.000  -297297.424    29167.472    17407.636    33469.043      119.737  -432922.003    55460.691       26.153       25.935        2.648        2.538        2.707        2.626        2.700        2.575        2.723        2.569        2.609        2.599        2.665        2.523        3.073        3.009        2.692        2.590        0.498        1.000        1.000        0.000        1.000        1.000        0.000        0.000        2.000        0.000        0.000        0.000        0.000        0.000        0.000        1.000        0.000        0.000        0.000        0.000        0.000        0.000        0.000        0.000        0.000        1.000        7.000        0.000        5.000        2.000        0.000        1.000        4.000        0.000        0.000        0.000      100.000        0.000        0.000        1.986        2.031        2.787
     300.000  -297850.325    28453.897    16899.768    33575.378      128.217  -432876.509    55968.924       26.153       26.019        2.658        2.519        2.681        2.588        2.696        2.556        2.713        2.580        2.634        2.637        2.682        2.505        3.085        2.998        2.679        2.536        0.503        1.000        1.000        0.000        1.000        1.000        0.000        0.000        2.000        0.000        1.000        0.000        0.000        0.000        0.000        1.000        0.000        0.000        0.000        0.000        0.000        0.000        0.000        0.000        0.000        2.000        6.000        1.000        2.000        1.000        0.000        0.000        5.000        0.000        0.000        0.000      100.000        0.000        0.000        1.758        1.798        2.517
     310.000  -297215.091    29511.195    16697.547    33677.989      147.169  -431007.778    53758.787       25.958       26.178        2.611        2.512        2.643        2.627        2.618        2.538        2.720        2.619        2.622        2.657        2.668        2.452        3.052        3.017        2.674        2.557        0.502        1.000        1.000        0.000        1.000        1.000        0.000        1.000        2.000        0.000        0.000        0.000        0.000        0.000        0.000        0.000        0.000        0.000        0.000        0.000        0.000        0.000        0.000        0.000        0.000        2.000        2.000        1.000        3.000        1.000        0.000        0.000        0.000        0.000        0.000        0.000      100.000        0.000        0.000        1.776        1.815        2.539
     320.000  -296846.207    28884.145    16536.517    33553.291      119.005  -431827.342    55888.176       25.801       26.010        2.598        2.518        2.699        2.637        2.627        2.588        2.714        2.517        2.614        2.612        2.687        2.505        3.102        3.079        2.732        2.574        0.499        1.000        0.000        0.000        1.000        1.000        0.000        0.000        0.000        0.000        0.000        0.000        0.000        0.000        0.000        0.000        1.000        0.000        0.000        0.000        0.000        0.000        0.000        0.000        0.000        4.000        3.000        1.000        2.000        2.000        0.000        1.000        3.000        0.000        0.000        0.000      100.000        0.000        0.000        1.971        2.025        2.753
     330.000  -297872.993    29653.982    16800.619    33376.005      112.822  -431671.569    53855.148       26.003       26.096        2.564        2.542        2.692        2.623        2.639        2.577        2.718        2.601        2.708        2.653        2.704        2.443        3.108        3.013        2.662        2.552        0.482        2.000        0.000        0.000        1.000        1.000        0.000        1.000        1.000        0.000        0.000        0.000        0.000        0.000        0.000        0.000        0.000        0.000        0.000        0.000        0.000        0.000        0.000        0.000        0.000        2.000        4.000        1.000        2.000        0.000        0.000        0.000        3.000        0.000        0.000        0.000      100.000        0.000        0.000        1.960        2.000        2.778
     340.000  -297292.821    28978.843    16824.146    33557.547      124.894  -432551.012    55772.761       25.990       25.856        2.523        2.511        2.682        2.626        2.648        2.568        2.708        2.625        2.662        2.675        2.678        2.520        3.102        3.061        2.669        2.634        0.495        1.000        0.000        0.000        1.000        1.000        0.000        0.000        1.000        0.000        0.000        0.000        0.000        0.000        0.000        0.000        0.000        0.000        0.000        0.000        0.000        0.000        0.000        0.000        0.000        2.000        3.000        0.000        4.000        0.000        0.000        0.000        0.000        0.000        0.000        0.000      100.000        0.000        0.000        1.821        1.857        2.844
     350.000  -295796.792    29501.558    17031.246    33692.516      113.155  -429905.140    53769.872       25.924       25.755        2.633        2.550        2.698        2.611        2.607        2.556        2.704        2.573        2.662        2.624        2.679        2.510        3.137        2.993        2.634        2.578        0.505        1.000        0.000        0.000        1.000        1.000        0.000        1.000        1.000        0.000        1.000        0.000        0.000        0.000        0.000        0.000        0.000        0.000        0.000        0.000        0.000        0.000        0.000        0.000        0.000        2.000        1.000        0.000        3.000        1.000        0.000        0.000        6.000        0.000        0.000        0.000      100.000        0.000        0.000        1.648        1.684        2.981
     360.000  -296369.343    29098.853    17394.618    33687.175      129.392  -432680.551    56001.171       25.909       25.516        2.570        2.530        2.673        2.632        2.645        2.604        2.709        2.578        2.688        2.595        2.706        2.513        3.108        3.016        2.668        2.590        0.504        1.000        0.000        0.000        1.000        1.000        0.000        0.000        2.000        0.000        1.000        0.000        0.000        0.000        0.000        0.000        0.000        0.000        0.000        0.000        0.000        0.000        0.000        0.000        0.000        2.000        3.000        0.000        2.000        0.000        0.000        3.000        5.000        0.000        0.000        0.000      100.000        0.000        0.000        1.852        1.903        2.929
     370.000  -295866.191    29511.663    16861.479    33537.622       96.004  -430739.222    54866.263       26.069       25.685        2.658        2.533        2.699        2.625        2.610        2.567        2.692        2.562        2.660        2.670        2.631        2.532        3.028        3.049        2.687        2.599        0.482        1.000        0.000        0.000        1.000        1.000        0.000        0.000        1.000        0.000        1.000        0.000        0.000        0.000        0.000        1.000        0.000        0.000        0.000        0.000        0.000        0.000        0.000        0.000        0.000        2.000        5.000        0.000        5.000        4.000        0.000        0.000        0.000        0.000        0.000        0.000      100.000        0.000        0.000        1.993        2.052        3.104
     380.000  -296440.623    29011.113    16990.389    33569.950      127.100  -430403.410    54264.236       25.580       25.480        2.638        2.537        2.668        2.640        2.688        2.589        2.685        2.565        2.622        2.667        2.636        2.515        3.087        2.998        2.697        2.616        0.503        1.000        0.000        0.000        1.000        1.000        0.000        0.000        1.000        0.000        1.000        0.000        0.000        0.000        0.000        0.000        0.000        0.000        0.000        0.000        0.000        0.000        0.000        0.000        0.000        1.000        5.000        0.000        3.000        1.000        0.000        1.000        2.000        0.000        4.494        0.000       95.506        0.000        0.000        1.997        2.080        2.862
     390.000  -297133.738    28722.604    16435.779    33635.494      110.065  -431364.098    55326.417       25.825       25.456        2.675        2.529        2.706        2.604        2.615        2.627        2.651        2.592        2.619        2.657        2.667        2.539        3.065        3.021        2.697        2.521        0.491        1.000        1.000        0.000        1.000        1.000        0.000        0.000        1.000        0.000        3.000        0.000        0.000        0.000        0.000        0.000        0.000        0.000        0.000        0.000        0.000        0.000        0.000        0.000        0.000        0.000        2.000        0.000        3.000        1.000        0.000        0.000        1.000        0.000        8.989        0.000       91.011        0.000        0.000        2.344        2.421        3.084
     400.000  -296682.857    29755.396    16891.433    33401.792      125.713  -432204.910    55347.719       26.066       25.972        2.664        2.526        2.694        2.580        2.680        2.581        2.716        2.541        2.708        2.645        2.664        2.509        3.042        2.985        2.712        2.534        0.494        2.000        1.000        0.000        1.000        1.000        0.000        0.000        1.000        0.000        0.000        0.000        0.000        0.000        0.000        0.000        0.000        0.000        0.000        0.000        0.000        0.000        0.000        0.000        0.000        2.000        4.000        1.000        4.000        2.000        0.000        1.000        2.000        0.000        4.494        0.000       95.506        0.000        0.000        2.367        2.461        3.040
     410.000  -296442.790    27858.274    16417.336    33677.146      146.357  -429677.038    55135.135       25.940       25.727        2.659        2.516        2.683        2.645        2.600        2.559        2.703        2.588        2.683        2.602        2.643        2.514        3.064        3.058        2.681        2.553        0.484        1.000        1.000        0.000        1.000        1.000        0.000        0.000        1.000        0.000        1.000        0.000        0.000        0.000        0.000        0.000        0.000        0.000        0.000        0.000        0.000        0.000        0.000        0.000        0.000        2.000        2.000        0.000        6.000        0.000        0.000        0.000        4.000        0.000        0.000        0.000      100.000        0.000        0.000        2.599        2.690        3.141
     420.000  -296785.840    28929.085    16801.777    33340.843      131.167  -430397.630    54408.917       26.132       25.905        2.662        2.458        2.718        2.571        2.684        2.580        2.683        2.553        2.668        2.579        2.696        2.535        3.068        3.039        2.702        2.592        0.511        1.000        1.000        0.000        1.000        1.000        0.000        1.000        1.000        0.000        0.000        0.000        0.000        0.000        0.000        0.000        0.000        0.000        0.000        0.000        0.000        0.000        0.000        0.000        0.000        2.000        1.000        0.000        5.000        1.000        0.000        1.000        0.000        0.000        4.494        0.000       95.506        0.000        0.000        2.630        2.699        3.194
     430.000  -296093.096    29417.448    17195.961    33525.951      120.558  -429909.669    53556.655       25.888       25.797        2.609        2.423        2.701        2.645        2.647        2.595        2.670        2.586        2.668        2.586        2.641        2.507        2.998        3.070        2.690        2.550        0.491        1.000        1.000        0.000        1.000        1.000        0.000        1.000        1.000        0.000        0.000        0.000        0.000        0.000        0.000        0.000        0.000        0.000        0.000        0.000        0.000        0.000        0.000        0.000        0.000        3.000        3.000        1.000        3.000        1.000        0.000        1.000        5.000        0.000        8.989        0.000       91.011        0.000        0.000        2.819        2.887        3.402
     440.000  -296522.911    28229.662    16640.045    33540.422      100.939  -428937.606    53903.627       25.874       25.720        2.622        2.471        2.671        2.630        2.642        2.582        2.696        2.541        2.722        2.667        2.641        2.479        3.091        2.972        2.684        2.571        0.485        2.000        1.000        0.000        1.000        1.000        0.000        1.000        1.000        0.000        0.000        0.000        0.000        0.000        0.000        0.000        1.000        0.000        0.000        0.000        0.000        0.000        0.000        0.000        0.000        2.000        1.000        0.000        4.000        1.000        0.000        0.000        3.000        0.000        4.494        0.000       95.506        0.000        0.000        2.436        2.489        2.983
     450.000  -296762.754    29253.133    16646.592    33725.884       94.730  -430795.484    54312.390       25.695       25.800        2.667        2.507        2.654        2.614        2.676        2.592        2.661        2.539        2.699        2.659        2.598        2.540        3.073        3.037        2.691        2.544        0.475        0.000        0.000        0.000        2.000        1.000        0.000        0.000        0.000        1.000        0.000        0.000        0.000        0.000        0.000        0.000        0.000        0.000        0.000        0.000        0.000        0.000        0.000        0.000        0.000        1.000        1.000        2.000        3.000        1.000        0.000        1.000        1.000        0.000        4.494        0.000       95.506        0.000        0.000        2.057        2.118        2.974
     460.000  -297032.324    28244.831    16598.974    33646.474      127.718  -430533.955    54883.634       25.634       25.617        2.658        2.484        2.695        2.610        2.654        2.622        2.688        2.591        2.678        2.661        2.644        2.478        3.084        3.032        2.708        2.552        0.471        1.000        1.000        0.000        1.000        1.000        0.000        0.000        1.000        0.000        2.000        0.000        0.000        0.000        0.000        0.000        1.000        0.000        0.000        0.000        0.000        0.000        0.000        0.000        0.000        1.000        2.000        0.000        3.000        0.000        0.000        1.000        2.000        0.000        4.494        0.000       95.506        0.000        0.000        1.806        1.892        2.930
     470.000  -296816.417    29512.523    16492.821    33403.821      104.008  -430236.698    53907.107       25.769       25.799        2.679        2.411        2.688        2.641        2.650        2.580        2.721        2.549        2.668        2.655        2.652        2.554        3.091        3.012        2.684        2.601        0.470        1.000        1.000        0.000        1.000        1.000        0.000        0.000        0.000        0.000        0.000        0.000        1.000        0.000        0.000        0.000        2.000        0.000        0.000        0.000        0.000        0.000        0.000        0.000        0.000        2.000        5.000        1.000        4.000        0.000        0.000        0.000        1.000        0.000        4.494        0.000       95.506        0.000        0.000        1.751        1.799        2.766
     480.000  -295488.970    28260.118    16839.571    33536.107      135.583  -429886.362    55626.013       25.701       25.524        2.680        2.460        2.682        2.688        2.684        2.526        2.703        2.585        2.699        2.628        2.646        2.530        3.118        3.076        2.622        2.584        0.469        0.000        1.000        0.000        1.000        1.000        0.000        1.000        0.000        0.000        0.000        0.000        0.000        0.000        0.000        0.000        0.000        0.000        0.000        0.000        0.000        0.000        0.000        0.000        0.000        1.000        2.000        1.000        1.000        1.000        0.000        0.000        4.000        0.000        4.494        0.000       95.506        0.000        0.000        1.502        1.564        2.608
     490.000  -296013.793    28510.898    16682.195    33466.730      140.228  -429875.198    55061.353       26.086       25.835        2.645        2.487        2.684        2.621        2.671        2.573        2.673        2.605        2.655        2.647        2.638        2.540        3.120        3.006        2.719        2.497        0.482        1.000        1.000        0.000        1.000        1.000        0.000        0.000        1.000        0.000        0.000        0.000        1.000        0.000        0.000        0.000        0.000        0.000        0.000        0.000        0.000        0.000        0.000        0.000        0.000        2.000        3.000        1.000        2.000        0.000        0.000        0.000        2.000        0.000        4.494        0.000       95.506        0.000        0.000        1.515        1.567        2.842
     500.000  -296516.712    29097.303    16755.393    33612.611      127.643  -429564.479    53454.817       26.170       25.989        2.560        2.503        2.721        2.633        2.679        2.589        2.681        2.594        2.704        2.633        2.664        2.537        3.074        3.003        2.681        2.502        0.486        1.000        1.000        0.000        2.000        0.000        0.000        0.000        0.000        0.000        0.000        0.000        1.000        0.000        0.000        0.000        1.000        0.000        0.000        0.000        0.000        0.000        0.000        0.000        0.000        1.000        1.000        1.000        3.000        1.000        0.000        0.000        3.000        0.000        4.494        0.000       95.506        0.000        0.000        1.712        1.766        3.117
     510.000  -295934.693    28910.331    16046.193    33428.337      149.151  -428005.214    53536.508       25.864       25.748        2.643        2.492        2.757        2.631        2.706        2.604        2.677        2.545        2.667        2.688        2.625        2.517        3.008        2.995        2.686        2.537        0.499        1.000        1.000        0.000        1.000        1.000        0.000        1.000        1.000        0.000        0.000        0.000        0.000        0.000        0.000        0.000        0.000        0.000        0.000        0.000        0.000        0.000        0.000        0.000        0.000        2.000        1.000        1.000        3.000        1.000        0.000        1.000        1.000        0.000        4.494        0.000       95.506        0.000        0.000        1.511        1.593        3.128
     520.000  -296516.665    28710.464    16533.643    33632.285      148.899  -430440.414    54898.458       25.778       25.701        2.632        2.439        2.726        2.645        2.673        2.578        2.711        2.587        2.688        2.688        2.641        2.523        3.124        2.979        2.672        2.488        0.490        1.000        1.000        0.000        1.000        1.000        0.000        1.000        0.000        0.000        0.000        0.000        0.000        0.000        0.000        0.000        0.000        0.000        0.000        0.000        0.000        0.000        0.000        0.000        0.000        0.000        1.000        0.000        2.000        0.000        0.000        0.000        2.000        0.000        4.494        0.000       95.506        0.000        0.000        1.540        1.584        3.247
     530.000  -296157.644    29120.620    16712.162    33363.829      124.877  -428503.595    53024.463       26.541       26.290        2.615        2.499        2.654        2.658        2.711        2.507        2.724        2.578        2.672        2.692        2.668        2.492        3.145        2.985        2.699        2.563        0.487        1.000        1.000        0.000        1.000        1.000        0.000        1.000        1.000        0.000        1.000        0.000        0.000        0.000        0.000        0.000        0.000        0.000        0.000        0.000        0.000        0.000        0.000        0.000        0.000        3.000        1.000        0.000        2.000        0.000        0.000        1.000        2.000        0.000        0.000        0.000      100.000        0.000        0.000        2.054        2.109        3.253
     540.000  -296670.627    29052.908    16617.848    33517.980      131.969  -429611.548    53620.217       26.119       25.763        2.652        2.513        2.714        2.641        2.706        2.549        2.702        2.564        2.712        2.644        2.603        2.557        3.086        2.990        2.676        2.602        0.498        1.000        1.000        0.000        1.000        1.000        0.000        1.000        0.000        0.000        1.000        0.000        1.000        0.000        0.000        0.000        0.000        0.000        0.000        0.000        0.000        0.000        0.000        0.000        0.000        1.000        3.000        0.000        1.000        0.000        0.000        0.000        4.000        0.000        4.494        0.000       95.506        0.000        0.000        1.771        1.826        3.313
     550.000  -296469.665    28149.990    16760.939    33551.655      140.850  -430020.508    54947.410       26.013       25.737        2.628        2.479        2.694        2.670        2.723        2.530        2.714        2.559        2.701        2.662        2.662        2.531        3.063        3.011        2.717        2.576        0.472        0.000        1.000        0.000        2.000        1.000        0.000        1.000        0.000        0.000        0.000        0.000        0.000        0.000        0.000        0.000        0.000        0.000        0.000        0.000        0.000        0.000        0.000        0.000        0.000        1.000        1.000        0.000        3.000        1.000        0.000        0.000        1.000        0.000        4.494        0.000       95.506        0.000        0.000        2.025        2.081        3.519
     560.000  -295736.187    28314.274    16741.066    33624.276      123.342  -429971.371    55432.226       25.729       25.562        2.590        2.539        2.704        2.651        2.687        2.511        2.710        2.554        2.655        2.635        2.641        2.489        3.147        3.013        2.689        2.498        0.486        1.000        1.000        0.000        0.000        1.000        0.000        0.000        1.000        0.000        1.000        0.000        0.000        0.000        0.000        0.000        0.000        0.000        0.000        0.000        0.000        0.000        0.000        0.000        0.000        1.000        1.000        1.000        3.000        1.000        0.000        0.000        3.000        0.000        0.000        0.000      100.000        0.000        0.000        2.044        2.104        3.647
     570.000  -295959.960    28312.470    16623.460    33725.909      143.612  -428581.032    53815.621       26.204       25.765        2.640        2.457        2.654        2.644        2.637        2.513        2.749        2.601        2.695        2.656        2.624        2.508        3.091        3.067        2.715        2.593        0.498        1.000        1.000        0.000        1.000        1.000        0.000        1.000        1.000        0.000        0.000        0.000        0.000        0.000        0.000        0.000        0.000        0.000        0.000        0.000        0.000        0.000        0.000        0.000        0.000        1.000        1.000        0.000        2.000        1.000        0.000        0.000        1.000        0.000        8.989        0.000       91.011        0.000        0.000        2.242        2.289        3.631
     580.000  -296044.029    28445.958    16748.633    33730.452      105.188  -430156.089    55081.829       26.241       25.730        2.584        2.466        2.686        2.663        2.677        2.604        2.724        2.571        2.665        2.655        2.608        2.499        3.041        3.022        2.693        2.521        0.500        1.000        1.000        0.000        1.000        1.000        0.000        0.000        1.000        0.000        0.000        0.000        0.000        0.000        0.000        0.000        0.000        0.000        0.000        0.000        0.000        0.000        0.000        0.000        0.000        1.000        0.000        0.000        2.000        0.000        0.000        0.000        1.000        0.000        4.494        0.000       95.506        0.000        0.000        2.236        2.283        3.525
     590.000  -296421.665    29338.738    16562.762    33681.197      140.002  -429970.077    53825.712       25.828       25.718        2.672        2.388        2.714        2.662        2.703        2.537        2.686        2.599        2.681        2.636        2.643        2.563        3.074        3.036        2.680        2.522        0.484        1.000        1.000        0.000        1.000        1.000        0.000        0.000        0.000        0.000        0.000        0.000        1.000        0.000        0.000        0.000        0.000        0.000        0.000        0.000        0.000        0.000        0.000        0.000        0.000        1.000        0.000        0.000        3.000        2.000        0.000        1.000        1.000        0.000        4.494        0.000       95.506        0.000        0.000        1.805        1.845        3.344
     600.000  -295294.681    27814.253    16593.162    33628.790      106.167  -427644.181    54207.129       26.177       25.986        2.617        2.487        2.680        2.656        2.619        2.499        2.690        2.609        2.708        2.598        2.621        2.536        3.080        3.030        2.679        2.485        0.492        1.000        1.000        0.000        2.000        1.000        0.000        0.000        0.000        0.000        0.000        0.000        1.000        0.000        0.000        0.000        0.000        0.000        0.000        0.000        0.000        0.000        0.000        0.000        0.000        2.000        1.000        0.000        2.000        0.000        0.000        0.000        3.000        0.000        4.494        0.000       95.506        0.000        0.000        1.689        1.720        3.712
     610.000  -295894.094    28418.879    17140.519    33655.625      115.585  -430473.851    55249.149       25.963       25.983        2.624        2.531        2.688        2.617        2.653        2.582        2.706        2.570        2.693        2.668        2.658        2.496        3.108        3.023        2.723        2.438        0.491        1.000        1.000        0.000        1.000        1.000        0.000        0.000        1.000        0.000        0.000        0.000        1.000        0.000        0.000        0.000        1.000        0.000        0.000        0.000        0.000        0.000        0.000        0.000        0.000        1.000        0.000        1.000        2.000        0.000        0.000        0.000        5.000        0.000        4.494        0.000       95.506        0.000        0.000        1.711        1.758        3.675
     620.000  -295566.698    28477.021    16465.678    33761.128      117.749  -427783.383    53395.108       26.103       26.253        2.645        2.452        2.650        2.628        2.646        2.534        2.685        2.576        2.701        2.641        2.613        2.502        3.103        3.037        2.703        2.462        0.490        0.000        1.000        0.000        1.000        1.000        0.000        1.000        1.000        0.000        0.000        0.000        1.000        0.000        0.000        0.000        0.000        0.000        0.000        0.000        0.000        0.000        0.000        0.000        0.000        2.000        0.000        1.000        1.000        0.000        0.000        0.000        2.000        0.000        4.494        0.000       95.506        0.000        0.000        1.733        1.781        3.618
     630.000  -295417.156    28283.879    16744.083    33623.973      131.212  -428562.038    54361.736       25.739       26.071        2.594        2.437        2.691        2.649        2.567        2.570        2.721        2.542        2.706        2.645        2.630        2.509        3.076        3.044        2.708        2.488        0.499        2.000        1.000        0.000        1.000        1.000        0.000        0.000        1.000        0.000        0.000        0.000        1.000        0.000        0.000        0.000        0.000        0.000        0.000        0.000        0.000        0.000        0.000        0.000        0.000        2.000        1.000        0.000        1.000        1.000        0.000        0.000        2.000        0.000        4.494        0.000       95.506        0.000        0.000        1.738        1.766        3.664
     640.000  -295731.015    29470.261    16928.997    33650.176      103.835  -429355.602    53471.319       25.894       25.777        2.687        2.428        2.674        2.658        2.613        2.619        2.720        2.537        2.679        2.586        2.621        2.488        3.107        3.028        2.705        2.461        0.480        0.000        1.000        0.000        1.000        1.000        0.000        1.000        1.000        0.000        0.000        0.000        0.000        0.000        0.000        0.000        0.000        0.000        0.000        0.000        0.000        0.000        0.000        0.000        0.000        2.000        4.000        0.000        3.000        0.000        0.000        1.000        2.000        0.000        4.494        0.000       95.506        0.000        0.000        1.893        1.926        3.889
     650.000  -296527.088    29074.987    17131.826    33567.483      132.546  -429703.869    53269.938       26.097       25.847        2.665        2.414        2.680        2.639        2.600        2.581        2.679        2.617        2.705        2.696        2.683        2.505        3.133        3.002        2.698        2.572        0.479        1.000        2.000        0.000        1.000        1.000        0.000        1.000        1.000        0.000        0.000        0.000        0.000        0.000        0.000        0.000        0.000        0.000        0.000        0.000        0.000        0.000        0.000        0.000        0.000        1.000        1.000        0.000        2.000        1.000        0.000        0.000        1.000        0.000        0.000        0.000      100.000        0.000        0.000        2.023        2.060        3.859
     660.000  -296189.548    28455.459    16809.994    33619.378      138.558  -430740.638    55527.702       25.658       25.631        2.720        2.453        2.680        2.658        2.643        2.575        2.718        2.595        2.716        2.712        2.641        2.489        3.056        2.969        2.745        2.542        0.506        1.000        1.000        0.000        1.000        1.000        0.000        0.000        1.000        0.000        0.000        0.000        0.000        0.000        0.000        0.000        0.000        0.000        0.000        0.000        0.000        0.000        0.000        0.000        0.000        2.000        1.000        0.000        1.000        0.000        0.000        0.000        1.000        0.000        0.000        0.000      100.000        0.000        0.000        1.629        1.666        3.602
     670.000  -296173.672    27706.687    17017.201    33661.222      137.347  -430262.730    55566.601       25.724       25.843        2.704        2.458        2.656        2.676        2.619        2.641        2.734        2.581        2.702        2.690        2.663        2.519        3.023        3.022        2.684        2.558        0.494        0.000        2.000        0.000        1.000        1.000        0.000        1.000        1.000        0.000        1.000        0.000        0.000        0.000        0.000        0.000        1.000        0.000        0.000        0.000        0.000        0.000        0.000        0.000        0.000        1.000        2.000        0.000        2.000        1.000        0.000        0.000        2.000        0.000        4.494        0.000       95.506        0.000        0.000        1.549        1.591        3.527
     680.000  -296366.457    29499.304    16665.660    33536.373      139.847  -430830.876    54623.235       25.742       25.924        2.698        2.492        2.692        2.647        2.531        2.608        2.684        2.575        2.666        2.683        2.664        2.515        3.043        3.052        2.666        2.531        0.499        0.000        2.000        0.000        1.000        1.000        0.000        0.000        1.000        0.000        0.000        0.000        0.000        0.000        0.000        0.000        0.000        0.000        0.000        0.000        0.000        0.000        0.000        0.000        0.000        2.000        2.000        0.000        2.000        0.000        0.000        1.000        3.000        0.000        0.000        0.000      100.000        0.000        0.000        1.529        1.594        3.583
     690.000  -296850.540    27991.765    16707.372    33774.382      124.204  -430460.512    55012.249       25.424       25.748        2.609        2.442        2.664        2.651        2.542        2.575        2.723        2.614        2.699        2.699        2.679        2.466        3.071        2.973        2.693        2.521        0.490        0.000        2.000        0.000        1.000        2.000        0.000        0.000        0.000        0.000        1.000        0.000        1.000        0.000        0.000        1.000        1.000        0.000        0.000        0.000        0.000        0.000        0.000        0.000        0.000        1.000        3.000        0.000        2.000        0.000        0.000        1.000        1.000        0.000        0.000        0.000      100.000        0.000        0.000        1.232        1.271        3.766
     700.000  -296349.068    29428.017    16636.076    33391.335      119.218  -427692.773    51769.060       25.440       25.873        2.633        2.469        2.639        2.651        2.542        2.555        2.727        2.573        2.696        2.691        2.712        2.480        3.082        3.011        2.720        2.536        0.489        1.000        2.000        0.000        1.000        1.000        0.000        0.000        1.000        0.000        0.000        0.000        1.000        0.000        0.000        0.000        0.000        0.000        0.000        0.000        0.000        0.000        0.000        0.000        0.000        1.000        1.000        0.000        1.000        0.000        0.000        0.000        0.000        0.000        0.000        0.000      100.000        0.000        0.000        1.422        1.483        3.699
     710.000  -296488.010    29069.808    16868.305    33473.058      113.844  -428484.356    52471.331       25.572       25.718        2.648        2.478        2.654        2.622        2.573        2.608        2.724        2.564        2.701        2.659        2.655        2.457        3.082        2.994        2.712        2.561        0.470        1.000        2.000        0.000        1.000        1.000        0.000        1.000        1.000        0.000        0.000        0.000        0.000        0.000        0.000        0.000        1.000        0.000        0.000        0.000        0.000        0.000        0.000        0.000        0.000        1.000        0.000        0.000        1.000        0.000        0.000        0.000        4.000        0.000        4.494        0.000       95.506        0.000        0.000        1.753        1.782        3.904
     720.000  -296738.510    29296.098    17118.254    33551.963      125.994  -430440.169    53609.351       25.726       25.914        2.630        2.505        2.693        2.618        2.508        2.631        2.682        2.587        2.685        2.693        2.689        2.561        3.155        3.055        2.703        2.512        0.503        0.000        1.000        0.000        1.000        1.000        0.000        0.000        1.000        0.000        2.000        0.000        0.000        0.000        0.000        0.000        1.000        0.000        0.000        0.000        0.000        0.000        0.000        0.000        0.000        2.000        3.000        0.000        3.000        0.000        0.000        0.000        1.000        0.000        0.000        0.000      100.000        0.000        0.000        1.691        1.725        3.775
     730.000  -296828.618    29403.958    17257.117    33448.942      124.299  -430314.505    53251.571       25.889       25.752        2.612        2.437        2.673        2.669        2.513        2.644        2.734        2.572        2.667        2.605        2.697        2.530        3.091        3.018        2.694        2.568        0.511        1.000        1.000        0.000        1.000        1.000        0.000        1.000        1.000        0.000        1.000        0.000        1.000        0.000        0.000        0.000        0.000        0.000        0.000        0.000        0.000        0.000        0.000        0.000        0.000        3.000        1.000        0.000        1.000        0.000        0.000        2.000        0.000        0.000        4.494        0.000       95.506        0.000        0.000        1.664        1.720        3.856
     740.000  -295914.050    28598.314    16902.635    33724.040      112.513  -428737.323    53485.772       25.685       25.594        2.624        2.543        2.635        2.657        2.515        2.592        2.729        2.588        2.709        2.694        2.691        2.525        3.091        3.023        2.685        2.509        0.509        1.000        1.000        0.000        1.000        0.000        0.000        0.000        1.000        0.000        0.000        0.000        1.000        0.000        0.000        0.000        0.000        0.000        0.000        0.000        0.000        0.000        0.000        0.000        0.000        2.000        3.000        1.000        1.000        1.000        0.000        0.000        1.000        0.000        0.000        0.000      100.000        0.000        0.000        1.594        1.649        3.786
     750.000  -296436.762    27581.899    16469.584    33567.425      135.691  -429538.990    55347.629       25.883       25.669        2.615        2.480        2.709        2.655        2.561        2.618        2.692        2.619        2.682        2.661        2.669        2.534        3.059        3.022        2.727        2.498        0.481        1.000        1.000        0.000        1.000        1.000        0.000        0.000        1.000        0.000        0.000        0.000        0.000        0.000        0.000        0.000        0.000        0.000        0.000        0.000        0.000        0.000        0.000        0.000        0.000        2.000        2.000        0.000        3.000        0.000        0.000        0.000        1.000        0.000        0.000        0.000      100.000        0.000        0.000        1.580        1.657        3.546
     760.000  -296479.831    29147.880    17342.446    33464.607      120.584  -430321.569    53766.221       26.154       25.945        2.650        2.536        2.656        2.638        2.511        2.544        2.702        2.615        2.669        2.658        2.708        2.491        3.057        3.070        2.683        2.519        0.477        0.000        1.000        0.000        1.000        1.000        0.000        0.000        1.000        0.000        0.000        0.000        1.000        0.000        0.000        0.000        0.000        0.000        0.000        0.000        0.000        0.000        0.000        0.000        0.000        1.000        1.000        0.000        1.000        1.000        0.000        0.000        2.000        0.000        0.000        0.000      100.000        0.000        0.000        1.756        1.781        3.529
     770.000  -295863.414    27940.629    16772.086    33547.202      131.092  -429092.911    54838.488       25.819       25.516        2.621        2.522        2.638        2.657        2.479        2.598        2.676        2.590        2.689        2.622        2.672        2.541        3.080        3.044        2.681        2.523        0.483        1.000        1.000        0.000        1.000        1.000        0.000        0.000        1.000        0.000        0.000        0.000        1.000        0.000        0.000        0.000        0.000        0.000        0.000        0.000        0.000        0.000        0.000        0.000        0.000        1.000        4.000        0.000        1.000        0.000        0.000        0.000        2.000        0.000        0.000        0.000      100.000        0.000        0.000        1.625        1.665        3.581
     780.000  -296381.638    28093.246    16967.973    33718.547      122.669  -429428.773    54144.700       25.557       25.611        2.655        2.527        2.646        2.663        2.462        2.582        2.672        2.558        2.687        2.612        2.713        2.453        3.040        3.066        2.714        2.494        0.501        1.000        1.000        0.000        1.000        1.000        0.000        0.000        1.000        0.000        2.000        0.000        1.000        0.000        0.000        0.000        0.000        0.000        0.000        0.000        0.000        0.000        0.000        0.000        0.000        1.000        1.000        0.000        1.000        0.000        0.000        0.000        2.000        0.000        0.000        0.000      100.000        0.000        0.000        1.417        1.472        3.827
     790.000  -296297.443    29444.765    17238.593    33429.226      106.126  -429028.873    52512.720       25.475       25.828        2.669        2.507        2.695        2.674        2.514        2.564        2.684        2.583        2.677        2.649        2.660        2.494        3.090        3.025        2.696        2.497        0.493        0.000        1.000        0.000        1.000        0.000        0.000        0.000        1.000        0.000        0.000        0.000        0.000        0.000        0.000        0.000        0.000        0.000        0.000        0.000        0.000        0.000        0.000        0.000        0.000        0.000        2.000        0.000        3.000        0.000        0.000        0.000        2.000        0.000        0.000        0.000      100.000        0.000        0.000        1.736        1.763        3.944
     800.000  -295709.059    28242.736    16600.808    33828.187      154.889  -428247.566    53711.887       25.486       25.945        2.626        2.452        2.635        2.691        2.465        2.597        2.687        2.646        2.727        2.639        2.706        2.497        3.146        3.032        2.699        2.518        0.492        1.000        1.000        0.000        1.000        1.000        0.000        1.000        1.000        0.000        1.000        0.000        0.000        0.000        0.000        0.000        0.000        0.000        0.000        0.000        0.000        0.000        0.000        0.000        0.000        0.000        0.000        0.000        2.000        2.000        0.000        0.000        3.000        0.000        0.000        0.000      100.000        0.000        0.000        1.349        1.364        3.841
     810.000  -295678.945    28017.989    16801.880    33701.405      131.516  -430137.150    55805.415       25.513       26.019        2.611        2.511        2.689        2.691        2.455        2.560        2.718        2.547        2.693        2.677        2.678        2.478        3.021        3.043        2.703        2.597        0.480        1.000        1.000        0.000        1.000        1.000        0.000        1.000        0.000        0.000        1.000        0.000        1.000        0.000        0.000        0.000        0.000        0.000        0.000        0.000        0.000        0.000        0.000        0.000        0.000        1.000        2.000        0.000        0.000        0.000        0.000        0.000        1.000        0.000        0.000        0.000      100.000        0.000        0.000        1.561        1.554        3.758
     820.000  -295963.270    28134.734    17101.429    33440.233      113.519  -428758.142    54004.957       25.672       25.928        2.650        2.457        2.679        2.665        2.486        2.563        2.642        2.568        2.683        2.628        2.641        2.513        2.985        3.013        2.696        2.553        0.487        0.000        1.000        0.000        1.000        1.000        0.000        0.000        2.000        0.000        0.000        0.000        0.000        0.000        0.000        0.000        0.000        0.000        0.000        0.000        0.000        0.000        0.000        0.000        0.000        1.000        2.000        1.000        2.000        0.000        0.000        0.000        1.000        0.000        0.000        0.000      100.000        0.000        0.000        1.888        1.911        3.879
     830.000  -295819.977    28376.601    16685.012    33464.322      132.938  -430285.493    55806.643       25.743       25.967        2.633        2.450        2.646        2.640        2.528        2.542        2.714        2.562        2.705        2.722        2.715        2.546        3.106        3.005        2.692        2.530        0.483        1.000        1.000        0.000        1.000        0.000        0.000        1.000        2.000        0.000        1.000        0.000        1.000        0.000        0.000        0.000        0.000        0.000        0.000        0.000        0.000        0.000        0.000        0.000        0.000        0.000        2.000        1.000        2.000        1.000        0.000        1.000        3.000        0.000        0.000        0.000      100.000        0.000        0.000        1.616        1.626        3.764
     840.000  -295695.034    28794.308    17120.027    33507.529      146.304  -429036.810    53773.608       25.374       25.946        2.670        2.501        2.633        2.673        2.493        2.547        2.693        2.583        2.704        2.650        2.682        2.506        3.074        3.056        2.697        2.497        0.485        0.000        1.000        0.000        1.000        2.000        0.000        0.000        2.000        0.000        0.000        0.000        0.000        0.000        0.000        0.000        0.000        0.000        0.000        0.000        0.000        0.000        0.000        0.000        0.000        1.000        2.000        1.000        1.000        0.000        0.000        0.000        5.000        0.000        0.000        0.000      100.000        0.000        0.000        1.772        1.790        3.830
     850.000  -296123.464    29412.670    16251.963    33597.697      144.170  -429198.672    53668.707       25.360       26.018        2.709        2.492        2.651        2.645        2.489        2.513        2.666        2.560        2.699        2.664        2.684        2.441        3.078        3.008        2.703        2.581        0.501        1.000        1.000        0.000        1.000        1.000        0.000        1.000        2.000        0.000        0.000        0.000        1.000        0.000        0.000        0.000        0.000        0.000        0.000        0.000        0.000        0.000        0.000        0.000        0.000        1.000        5.000        0.000        3.000        0.000        0.000        1.000        3.000        0.000        8.989        0.000       91.011        0.000        0.000        1.594        1.674        3.650
     860.000  -295556.505    28146.168    16883.001    33654.212      138.695  -428755.670    54377.088       25.254       25.845        2.644        2.415        2.665        2.650        2.484        2.584        2.687        2.602        2.716        2.680        2.686        2.491        3.082        3.041        2.709        2.570        0.481        1.000        1.000        0.000        1.000        1.000        0.000        1.000        2.000        0.000        0.000        0.000        0.000        0.000        0.000        0.000        0.000        0.000        0.000        0.000        0.000        0.000        0.000        0.000        0.000        0.000        1.000        0.000        2.000        0.000        0.000        0.000        2.000        0.000        0.000        0.000      100.000        0.000        0.000        1.552        1.584        3.725
     870.000  -295596.730    27476.659    16818.473    34027.154      131.115  -428627.077    54576.945       25.155       25.537        2.667        2.479        2.630        2.596        2.503        2.610        2.672        2.553        2.700        2.685        2.667        2.533        3.016        3.045        2.694        2.570        0.500        0.000        1.000        0.000        1.000        1.000        0.000        0.000        1.000        0.000        0.000        0.000        1.000        0.000        0.000        0.000        0.000        0.000        0.000        0.000        0.000        0.000        0.000        0.000        0.000        0.000        1.000        0.000        0.000        1.000        0.000        1.000        1.000        0.000        4.494        0.000       95.506        0.000        0.000        1.392        1.419        3.991
     880.000  -295770.746    28422.952    16557.245    33754.363      137.183  -427758.390    53115.901       25.440       25.583        2.614        2.493        2.603        2.694        2.512        2.566        2.676        2.575        2.703        2.659        2.669        2.497        3.083        2.978        2.702        2.579        0.474        1.000        1.000        0.000        1.000        1.000        0.000        0.000        1.000        0.000        0.000        0.000        1.000        0.000        0.000        0.000        1.000        0.000        0.000        0.000        0.000        0.000        0.000        0.000        0.000        0.000        1.000        0.000        1.000        1.000        0.000        0.000        5.000        0.000        0.000        0.000      100.000        0.000        0.000        1.564        1.629        3.840
     890.000  -294916.175    27503.241    16498.212    33625.429      127.090  -428452.239    55782.092       25.442       25.868        2.635        2.430        2.642        2.632        2.517        2.590        2.642        2.585        2.695        2.593        2.671        2.500        3.114        3.027        2.696        2.612        0.498        1.000        1.000        0.000        1.000        2.000        0.000        1.000        1.000        0.000        0.000        0.000        0.000        0.000        0.000        0.000        0.000        0.000        0.000        0.000        0.000        0.000        0.000        0.000        0.000        1.000        0.000        0.000        1.000        1.000        0.000        1.000        6.000        0.000        4.494        0.000       95.506        0.000        0.000        1.783        1.829        3.969
     900.000  -296149.043    28443.627    16915.515    33780.450      154.513  -430823.409    55380.261       25.543       25.684        2.609        2.422        2.619        2.663        2.478        2.525        2.694        2.561        2.718        2.619        2.679        2.479        3.097        3.041        2.663        2.599        0.475        0.000        1.000        0.000        1.000        1.000        0.000        0.000        1.000        0.000        0.000        0.000        0.000        0.000        0.000        0.000        0.000        0.000        0.000        0.000        0.000        0.000        0.000        0.000        0.000        1.000        1.000        0.000        3.000        0.000        0.000        0.000        0.000        0.000        0.000        0.000      100.000        0.000        0.000        1.461        1.523        3.703
     910.000  -295365.368    28490.282    16737.347    33590.991      111.970  -429242.772    54946.814       25.614       25.916        2.612        2.476        2.688        2.735        2.484        2.590        2.723        2.635        2.675        2.658        2.713        2.531        3.160        3.067        2.679        2.645        0.477        1.000        1.000        0.000        1.000        1.000        0.000        0.000        0.000        1.000        0.000        0.000        0.000        0.000        0.000        0.000        0.000        0.000        0.000        0.000        0.000        0.000        0.000        0.000        0.000        0.000        1.000        0.000        1.000        0.000        0.000        0.000        2.000        0.000        0.000        0.000      100.000        0.000        0.000        1.520        1.569        3.731
     920.000  -295543.523    29200.570    16803.396    33448.614      128.211  -427295.934    52171.621       25.874       26.067        2.643        2.502        2.644        2.700        2.458        2.597        2.681        2.582        2.679        2.702        2.684        2.510        3.089        3.091        2.710        2.586        0.492        0.000        1.000        0.000        1.000        1.000        0.000        0.000        1.000        0.000        0.000        0.000        0.000        0.000        0.000        0.000        0.000        0.000        0.000        0.000        0.000        0.000        0.000        0.000        0.000        2.000        2.000        0.000        1.000        1.000        0.000        0.000        1.000        0.000        4.494        0.000       95.506        0.000        0.000        1.749        1.799        3.751
     930.000  -296264.547    28807.167    16366.916    33430.383      153.276  -429121.075    54098.785       25.554       25.800        2.652        2.501        2.653        2.693        2.515        2.603        2.673        2.594        2.687        2.649        2.717        2.500        3.124        3.108        2.687        2.632        0.482        1.000        1.000        0.000        1.000        1.000        0.000        1.000        1.000        0.000        0.000        0.000        1.000        0.000        0.000        0.000        0.000        0.000        0.000        0.000        0.000        0.000        0.000        0.000        0.000        2.000        0.000        1.000        2.000        0.000        0.000        0.000        0.000        0.000        4.494        0.000       95.506        0.000        0.000        1.715        1.766        3.643
     940.000  -295382.203    27766.816    16902.251    33503.583      148.774  -429277.689    55574.061       25.849       25.927        2.615        2.491        2.666        2.668        2.506        2.557        2.695        2.566        2.698        2.659        2.714        2.512        3.149        3.094        2.683        2.591        0.462        1.000        1.000        0.000        1.000        1.000        0.000        0.000        1.000        0.000        1.000        0.000        1.000        0.000        0.000        0.000        0.000        0.000        0.000        0.000        0.000        0.000        0.000        0.000        0.000        1.000        1.000        0.000        2.000        0.000        0.000        0.000        2.000        0.000        0.000        0.000      100.000        0.000        0.000        1.735        1.771        3.443
     950.000  -295088.342    28829.327    17008.107    33505.211      125.180  -426796.667    52240.500       26.002       26.185        2.632        2.478        2.681        2.697        2.462        2.549        2.689        2.593        2.735        2.621        2.696        2.544        3.087        3.042        2.700        2.606        0.492        0.000        1.000        0.000        1.000        1.000        0.000        0.000        1.000        0.000        0.000        0.000        0.000        0.000        0.000        1.000        0.000        0.000        0.000        0.000        0.000        0.000        0.000        0.000        0.000        2.000        1.000        0.000        2.000        0.000        0.000        0.000        0.000        0.000        0.000        0.000      100.000        0.000        0.000        1.895        1.964        4.045
     960.000  -295220.292    28491.760    16714.046    33604.655      147.890  -427321.332    53142.689       25.431       25.932        2.600        2.486        2.595        2.730        2.491        2.543        2.690        2.551        2.642        2.610        2.670        2.526        3.125        3.102        2.709        2.616        0.473        0.000        1.000        0.000        1.000        1.000        0.000        1.000        1.000        0.000        0.000        0.000        1.000        0.000        0.000        0.000        0.000        0.000        0.000        0.000        0.000        0.000        0.000        0.000        0.000        2.000        1.000        0.000        5.000        0.000        0.000        0.000        1.000        0.000        4.494        0.000       95.506        0.000        0.000        1.968        2.004        3.969
     970.000  -295906.848    28218.654    16356.787    33623.320      117.749  -427370.045    53146.687       25.476       25.725        2.611        2.459        2.664        2.686        2.502        2.521        2.707        2.604        2.651        2.630        2.766        2.549        3.148        2.992        2.684        2.596        0.467        0.000        1.000        0.000        1.000        0.000        0.000        0.000        1.000        0.000        1.000        0.000        0.000        0.000        0.000        0.000        0.000        0.000        0.000        0.000        0.000        0.000        0.000        0.000        0.000        1.000        4.000        0.000        3.000        0.000        0.000        0.000        3.000        0.000        4.494        0.000       95.506        0.000        0.000        1.792        1.823        3.881
     980.000  -295637.229    29536.470    16817.387    33460.257      132.238  -428415.526    52831.946       25.507       25.701        2.621        2.489        2.665        2.717        2.487        2.575        2.733        2.588        2.738        2.656        2.715        2.475        3.130        3.054        2.687        2.599        0.469        0.000        1.000        0.000        1.000        1.000        0.000        0.000        1.000        0.000        1.000        0.000        0.000        0.000        0.000        0.000        0.000        0.000        0.000        0.000        0.000        0.000        0.000        0.000        0.000        0.000        2.000        0.000        4.000        1.000        0.000        0.000        2.000        0.000        0.000        0.000      100.000        0.000        0.000        1.755        1.778        3.828
     990.000  -295761.171    28176.261    16996.279    33518.892      141.633  -429014.750    54420.514       25.611       25.809        2.625        2.460        2.645        2.657        2.433        2.565        2.711        2.550        2.679        2.608        2.689        2.529        3.059        3.066        2.712        2.650        0.483        0.000        1.000        0.000        1.000        1.000        0.000        0.000        1.000        0.000        0.000        0.000        1.000        0.000        0.000        0.000        0.000        0.000        0.000        0.000        0.000        0.000        0.000        0.000        0.000        0.000        4.000        0.000        1.000        0.000        0.000        1.000        1.000        0.000        0.000        0.000      100.000        0.000        0.000        2.334        2.378        4.250
    1000.000  -295932.963    28864.110    17353.523    33342.844      115.624  -429118.508    53509.444       25.463       25.977        2.670        2.458        2.651        2.721        2.472        2.569        2.699        2.543        2.686        2.632        2.722        2.562        3.178        3.004        2.678        2.634        0.495        0.000        1.000        0.000        1.000        1.000        0.000        0.000        1.000        0.000        0.000        0.000        0.000        0.000        0.000        0.000        0.000        0.000        0.000        0.000        0.000        0.000        0.000        0.000        0.000        0.000        5.000        0.000        4.000        0.000        0.000        0.000        1.000        0.000        0.000        0.000      100.000        0.000        0.000        2.318        2.361        4.410
     Average  -298200.147    29157.557    16899.634    33578.391      124.765  -433048.101    55087.608       25.789       25.799        2.630        2.493        2.681        2.650        2.603        2.570        2.702        2.579        2.675        2.644        2.645        2.515        3.092        3.027        2.672        2.562        0.490        0.861        0.941        0.000        1.020        0.990        0.000        0.436        1.168        0.020        0.455        0.000        0.347        0.000        0.000        0.059        0.248        0.000        0.000        0.000        0.000        0.000        0.000        0.000        0.000        1.356        2.505        0.386        2.455        0.762        0.000        0.396        2.218        0.000        2.080        0.000       97.920        0.000        0.000        1.783        1.823        3.145

