____Time[ps] Energy[ kJ/mol ]_____Bond _______Angle ____Dihedral ___Planarity _____Coulomb _________VdW _Your result _Your result _Your result _Your result _Your result _Your result _Your result _Your result _Your result _Your result _Your result _Your result _Your result _Your result _Your result _Your result _Your result _Your result _Your result _Your result _Your result _Your result _Your result _Your result _Your result _Your result _Your result _Your result _Your result _Your result _Your result _Your result _Your result _Your result _Your result _Your result _Your result _Your result _Your result _Your result _Your result _Your result _Your result _Your result _Your result _Your result _Your result _Your result _Your result _Your result _Your result _Your result _Your result _Your result _Your result _Your result _Your result _RMSDs[A]:CA ____Backbone __HeavyAtoms
       0.000  -290129.906     6599.503     4491.324    33066.618       21.893  -390700.154    56390.909       25.102       25.192        3.052        2.980        3.161        3.216        3.209        3.031        2.725        2.590        2.686        2.643        2.589        2.664        3.058        2.904        3.126        3.023        0.490        1.000        1.000        0.000        0.000        2.000        0.000        0.000        1.000        0.000        0.000        0.000        0.000        0.000        0.000        0.000       10.000        0.000        0.000        0.000        0.000        0.000        0.000        0.000        0.000        0.000        3.000        0.000        2.000        1.000        0.000        1.000        0.000        0.000        4.494        0.000       95.506        0.000        0.000        0.464        0.484        0.606
      10.000  -218111.740    26375.530    13470.753    32782.776      123.800  -330817.306    39952.707       25.919       25.915        3.016        3.007        3.143        3.266        3.226        3.082        2.684        2.570        2.710        2.636        2.672        2.682        3.122        2.938        3.229        2.967        0.490        0.000        1.000        0.000        0.000        2.000        0.000        0.000        1.000        0.000        1.000        0.000        0.000        0.000        0.000        0.000        1.000        0.000        0.000        0.000        0.000        0.000        0.000        0.000        0.000        0.000        2.000        0.000        0.000        0.000        0.000        0.000        6.000        0.000        0.000        0.000      100.000        0.000        0.000        1.888        1.912        2.021
      20.000  -218314.273    25390.367    13824.768    32755.237      121.238  -329774.094    39368.210       25.761       25.467        2.981        3.176        3.213        3.235        3.251        3.052        2.723        2.558        2.701        2.612        2.663        2.659        3.104        2.924        3.282        3.043        0.486        1.000        0.000        0.000        0.000        4.000        0.000        0.000        1.000        0.000        1.000        0.000        0.000        0.000        0.000        0.000        3.000        0.000        0.000        0.000        0.000        0.000        0.000        0.000        0.000        0.000        0.000        0.000        1.000        0.000        0.000        0.000        2.000        0.000        0.000        0.000      100.000        0.000        0.000        1.610        1.637        1.795
      30.000  -217558.200    23920.127    13897.945    32555.193      143.986  -327823.853    39748.401       25.800       25.507        2.957        2.984        3.095        3.258        3.212        2.999        2.723        2.578        2.703        2.641        2.632        2.674        3.039        2.902        3.252        2.945        0.491        1.000        0.000        0.000        0.000        3.000        0.000        0.000        2.000        0.000        0.000        0.000        0.000        0.000        0.000        0.000        3.000        0.000        0.000        0.000        0.000        0.000        0.000        0.000        0.000        0.000        1.000        0.000        0.000        0.000        0.000        0.000        3.000        0.000        4.494        0.000       95.506        0.000        0.000        1.857        1.890        2.048
      40.000  -217352.065    25098.655    13467.543    32905.176      114.268  -329297.386    40359.678       26.069       25.773        2.868        3.078        3.119        3.273        3.270        2.930        2.737        2.572        2.719        2.616        2.603        2.702        3.119        2.940        3.196        2.967        0.489        1.000        0.000        0.000        0.000        2.000        0.000        0.000        2.000        0.000        0.000        0.000        0.000        0.000        0.000        1.000        2.000        0.000        0.000        0.000        0.000        0.000        0.000        0.000        0.000        0.000        1.000        0.000        0.000        1.000        0.000        0.000        1.000        0.000        0.000        0.000      100.000        0.000        0.000        1.847        1.881        2.088
      50.000  -216804.998    24012.834    13976.512    32871.406      124.668  -327947.489    40157.071       26.114       25.860        2.947        3.084        3.163        3.251        3.206        2.957        2.753        2.567        2.717        2.679        2.657        2.623        3.070        2.937        3.234        3.053        0.496        1.000        0.000        0.000        0.000        3.000        0.000        0.000        2.000        0.000        0.000        0.000        0.000        0.000        0.000        0.000        0.000        0.000        0.000        0.000        0.000        0.000        0.000        0.000        0.000        0.000        1.000        0.000        2.000        2.000        0.000        0.000        3.000        0.000        0.000        0.000      100.000        0.000        0.000        1.920        1.930        2.112
      60.000  -216368.749    24464.769    14070.602    32679.354      127.778  -327314.156    39602.905       26.240       26.022        2.960        2.985        3.165        3.225        3.203        2.932        2.721        2.603        2.663        2.574        2.595        2.685        3.093        3.009        3.245        2.957        0.505        1.000        0.000        0.000        0.000        1.000        0.000        0.000        2.000        0.000        0.000        0.000        0.000        0.000        0.000        0.000        1.000        0.000        0.000        0.000        0.000        0.000        0.000        0.000        0.000        0.000        1.000        0.000        0.000        2.000        0.000        0.000        3.000        0.000        0.000        0.000      100.000        0.000        0.000        1.482        1.489        1.818
      70.000  -216040.450    23626.073    13512.945    32763.049      106.538  -325922.210    39873.156       25.753       25.632        3.034        2.924        3.099        3.227        3.224        3.024        2.706        2.534        2.708        2.654        2.699        2.678        3.101        2.941        3.210        2.982        0.484        0.000        0.000        0.000        0.000        1.000        0.000        0.000        2.000        1.000        0.000        0.000        0.000        0.000        0.000        0.000        1.000        0.000        0.000        0.000        0.000        0.000        0.000        0.000        0.000        0.000        1.000        0.000        1.000        1.000        0.000        1.000        7.000        0.000        0.000        0.000      100.000        0.000        0.000        1.186        1.201        1.607
      80.000  -216240.654    22960.924    14197.840    32679.750      113.469  -325275.134    39082.497       25.788       25.926        3.003        2.990        3.238        3.189        3.224        2.964        2.706        2.571        2.703        2.663        2.669        2.504        3.046        2.948        3.261        3.004        0.486        0.000        0.000        0.000        0.000        2.000        0.000        0.000        1.000        0.000        0.000        0.000        0.000        0.000        0.000        0.000        1.000        0.000        0.000        0.000        0.000        0.000        0.000        0.000        0.000        0.000        2.000        0.000        0.000        1.000        0.000        0.000        4.000        0.000        0.000        0.000      100.000        0.000        0.000        1.317        1.326        1.759
      90.000  -216389.126    24193.306    13997.345    32790.362      122.453  -326945.926    39453.335       26.158       26.187        3.024        3.057        3.192        3.245        3.237        2.990        2.731        2.558        2.699        2.684        2.683        2.559        3.058        2.943        3.239        2.981        0.487        1.000        0.000        0.000        0.000        2.000        0.000        0.000        1.000        1.000        1.000        0.000        0.000        0.000        0.000        0.000        0.000        0.000        0.000        0.000        0.000        0.000        0.000        0.000        0.000        0.000        2.000        0.000        0.000        1.000        0.000        0.000        4.000        0.000        4.494        0.000       95.506        0.000        0.000        1.541        1.543        1.900
     100.000  -215618.322    23618.760    14094.053    32772.721      132.403  -325303.939    39067.681       26.120       26.043        3.024        3.054        3.207        3.241        3.202        3.040        2.728        2.608        2.678        2.669        2.671        2.585        3.092        2.925        3.257        2.975        0.497        1.000        1.000        0.000        0.000        2.000        0.000        0.000        1.000        1.000        0.000        0.000        0.000        0.000        0.000        0.000        2.000        0.000        0.000        0.000        0.000        0.000        0.000        0.000        0.000        0.000        2.000        0.000        0.000        1.000        0.000        0.000        7.000        0.000        0.000        0.000      100.000        0.000        0.000        1.561        1.561        1.951
     110.000  -215771.465    23158.450    13872.956    32758.791      116.675  -324700.189    39021.853       26.206       26.043        2.916        3.069        3.210        3.257        3.263        2.881        2.669        2.559        2.679        2.683        2.696        2.524        3.108        2.989        3.253        2.916        0.511        0.000        1.000        0.000        0.000        1.000        0.000        0.000        2.000        0.000        0.000        0.000        1.000        1.000        0.000        0.000        2.000        0.000        0.000        0.000        0.000        0.000        0.000        0.000        0.000        1.000        0.000        0.000        0.000        2.000        0.000        1.000        3.000        0.000        0.000        0.000      100.000        0.000        0.000        1.430        1.445        1.836
     120.000  -216191.138    23025.715    13928.130    32707.799      126.198  -326431.374    40452.395       26.193       26.187        2.863        2.993        3.169        3.173        3.229        2.964        2.669        2.565        2.710        2.658        2.715        2.546        3.043        2.985        3.293        2.965        0.477        1.000        1.000        0.000        0.000        2.000        0.000        0.000        2.000        0.000        0.000        0.000        0.000        1.000        0.000        0.000        2.000        0.000        0.000        0.000        0.000        0.000        0.000        0.000        0.000        0.000        3.000        0.000        0.000        1.000        0.000        0.000        5.000        0.000        0.000        0.000      100.000        0.000        0.000        1.494        1.509        1.805
     130.000  -215666.822    22706.104    13759.452    32719.126      130.976  -325132.336    40149.856       26.251       26.194        2.817        3.078        3.142        3.210        3.211        2.941        2.650        2.569        2.701        2.663        2.658        2.599        3.104        2.991        3.267        3.003        0.478        1.000        0.000        0.000        0.000        1.000        0.000        0.000        2.000        0.000        0.000        0.000        0.000        0.000        0.000        0.000        1.000        0.000        0.000        0.000        0.000        0.000        0.000        0.000        0.000        0.000        1.000        0.000        0.000        0.000        0.000        0.000        6.000        0.000        0.000        0.000      100.000        0.000        0.000        1.655        1.667        2.015
     140.000  -215015.323    23586.607    13589.213    32775.835      141.672  -323246.459    38137.809       25.798       26.047        2.813        3.089        3.126        3.226        3.236        3.013        2.651        2.593        2.676        2.706        2.686        2.525        3.067        3.010        3.264        2.937        0.485        0.000        0.000        0.000        0.000        1.000        0.000        0.000        2.000        0.000        1.000        0.000        0.000        0.000        0.000        0.000        0.000        0.000        0.000        0.000        0.000        0.000        0.000        0.000        0.000        0.000        1.000        0.000        1.000        1.000        0.000        0.000        8.000        0.000        4.494        0.000       95.506        0.000        0.000        1.286        1.301        1.854
     150.000  -215057.523    23589.003    13703.944    32718.738      124.816  -324541.196    39347.172       26.045       25.919        2.760        3.037        3.088        3.280        3.213        3.055        2.656        2.577        2.692        2.674        2.705        2.541        3.036        3.012        3.244        2.973        0.482        0.000        0.000        0.000        0.000        2.000        0.000        0.000        1.000        0.000        0.000        0.000        2.000        0.000        0.000        0.000        0.000        0.000        0.000        0.000        0.000        0.000        0.000        0.000        0.000        0.000        0.000        0.000        1.000        0.000        0.000        0.000        3.000        0.000        0.000        0.000      100.000        0.000        0.000        1.427        1.416        1.941
     160.000  -214498.521    22118.520    13692.050    33002.026      119.788  -322958.197    39527.293       25.940       26.033        2.989        3.017        3.247        3.279        3.204        2.986        2.645        2.570        2.663        2.629        2.634        2.527        3.095        3.015        3.237        3.002        0.494        1.000        0.000        0.000        0.000        1.000        0.000        0.000        2.000        1.000        1.000        0.000        1.000        0.000        0.000        0.000        2.000        0.000        0.000        0.000        0.000        0.000        0.000        0.000        0.000        1.000        1.000        0.000        0.000        1.000        0.000        0.000        2.000        0.000        4.494        0.000       95.506        0.000        0.000        1.461        1.474        1.880
     170.000  -215667.083    22221.921    13417.648    33024.153      133.283  -324124.798    39660.710       25.922       25.834        3.105        2.994        3.118        3.258        3.238        2.968        2.688        2.559        2.725        2.667        2.669        2.514        3.036        2.907        3.285        2.962        0.495        1.000        0.000        0.000        0.000        2.000        0.000        0.000        2.000        0.000        0.000        0.000        1.000        0.000        0.000        0.000        2.000        0.000        0.000        0.000        0.000        0.000        0.000        0.000        0.000        0.000        1.000        0.000        1.000        0.000        0.000        0.000        2.000        0.000        4.494        0.000       95.506        0.000        0.000        1.521        1.531        1.998
     180.000  -214934.243    22443.326    13724.442    32971.623      153.379  -324595.380    40368.367       25.782       25.590        3.038        3.127        3.200        3.262        3.230        2.993        2.722        2.598        2.709        2.637        2.675        2.505        3.093        3.029        3.263        2.944        0.499        1.000        0.000        0.000        0.000        2.000        0.000        0.000        1.000        1.000        0.000        0.000        0.000        0.000        0.000        0.000        1.000        0.000        0.000        0.000        0.000        0.000        0.000        0.000        0.000        0.000        2.000        0.000        0.000        0.000        0.000        0.000        4.000        0.000        4.494        0.000       95.506        0.000        0.000        1.541        1.547        1.980
     190.000  -214705.050    22224.728    13515.079    33011.173      129.319  -323228.030    39642.681       25.990       25.826        2.972        3.035        3.149        3.284        3.283        3.038        2.668        2.583        2.701        2.666        2.683        2.535        3.040        3.012        3.249        2.942        0.513        1.000        0.000        0.000        0.000        1.000        0.000        0.000        2.000        0.000        0.000        0.000        0.000        0.000        0.000        0.000        1.000        0.000        0.000        0.000        0.000        0.000        0.000        0.000        0.000        1.000        2.000        0.000        0.000        1.000        0.000        0.000        3.000        0.000        4.494        0.000       95.506        0.000        0.000        1.519        1.521        1.962
     200.000  -215721.441    23000.083    13379.882    32884.312      161.209  -324106.815    38959.888       26.142       25.846        3.084        3.037        3.153        3.288        3.220        2.855        2.663        2.572        2.702        2.669        2.622        2.507        3.069        3.032        3.274        2.922        0.488        0.000        0.000        0.000        0.000        1.000        0.000        0.000        2.000        0.000        0.000        0.000        0.000        0.000        0.000        0.000        1.000        0.000        0.000        0.000        0.000        0.000        0.000        0.000        0.000        0.000        3.000        0.000        0.000        0.000        0.000        0.000        2.000        0.000        0.000        0.000      100.000        0.000        0.000        1.288        1.311        1.765
     210.000  -215007.467    22875.017    13814.124    32895.803      138.156  -322744.289    38013.722       26.167       26.172        3.065        3.048        3.219        3.295        3.197        2.971        2.672        2.573        2.697        2.627        2.674        2.514        3.113        3.045        3.316        2.978        0.493        1.000        0.000        0.000        0.000        1.000        0.000        0.000        2.000        0.000        2.000        0.000        1.000        0.000        0.000        0.000        2.000        0.000        0.000        0.000        0.000        0.000        0.000        0.000        0.000        0.000        1.000        0.000        0.000        0.000        0.000        0.000        3.000        0.000        4.494        0.000       95.506        0.000        0.000        1.643        1.648        2.070
     220.000  -214161.412    22996.021    13210.109    32934.312      126.203  -320958.407    37530.349       25.860       25.889        3.024        3.115        3.174        3.299        3.224        3.082        2.656        2.601        2.712        2.693        2.701        2.523        3.148        3.037        3.221        2.935        0.488        0.000        0.000        0.000        0.000        1.000        0.000        0.000        1.000        0.000        0.000        0.000        1.000        0.000        0.000        0.000        0.000        0.000        0.000        0.000        0.000        0.000        0.000        0.000        0.000        1.000        1.000        0.000        0.000        0.000        0.000        0.000        4.000        0.000        4.494        0.000       95.506        0.000        0.000        1.469        1.466        1.937
     230.000  -214197.354    22852.287    13626.082    32886.647      136.338  -321906.502    38207.794       26.194       25.948        3.081        3.009        3.087        3.240        3.222        3.032        2.716        2.634        2.675        2.640        2.593        2.551        3.087        2.995        3.287        2.970        0.499        0.000        0.000        0.000        0.000        2.000        0.000        0.000        2.000        0.000        0.000        0.000        1.000        0.000        0.000        0.000        1.000        0.000        0.000        0.000        0.000        0.000        0.000        0.000        0.000        2.000        0.000        0.000        1.000        1.000        0.000        0.000        1.000        0.000        4.494        0.000       95.506        0.000        0.000        1.751        1.758        2.094
     240.000  -214509.541    22170.706    13303.439    32698.644      138.807  -322198.233    39377.096       25.988       25.774        3.099        3.079        3.176        3.202        3.238        2.991        2.704        2.558        2.692        2.680        2.685        2.504        3.143        3.063        3.238        2.988        0.479        0.000        0.000        0.000        0.000        2.000        0.000        0.000        2.000        0.000        0.000        0.000        0.000        0.000        0.000        0.000        1.000        0.000        0.000        0.000        0.000        0.000        0.000        0.000        0.000        1.000        0.000        0.000        0.000        0.000        0.000        0.000        1.000        0.000        7.865        0.000       92.135        0.000        0.000        1.743        1.743        2.182
     250.000  -214020.830    22317.788    13530.822    32926.098      121.591  -321601.918    38684.789       26.041       25.788        3.003        3.151        3.139        3.240        3.202        2.933        2.664        2.590        2.711        2.676        2.730        2.568        3.143        3.019        3.287        2.942        0.495        0.000        0.000        0.000        0.000        1.000        0.000        0.000        1.000        1.000        0.000        0.000        0.000        1.000        0.000        0.000        2.000        0.000        0.000        0.000        0.000        0.000        0.000        0.000        0.000        0.000        0.000        0.000        0.000        0.000        0.000        0.000        5.000        0.000        0.000        0.000      100.000        0.000        0.000        1.686        1.670        2.130
     260.000  -213524.764    22103.992    13688.257    32903.624      132.560  -320839.457    38486.261       26.180       25.898        3.131        3.091        3.106        3.206        3.215        2.970        2.725        2.615        2.685        2.652        2.706        2.534        3.107        3.042        3.241        2.929        0.490        1.000        0.000        1.000        0.000        2.000        0.000        0.000        1.000        0.000        0.000        0.000        0.000        0.000        0.000        0.000        2.000        0.000        0.000        0.000        0.000        0.000        0.000        0.000        0.000        0.000        1.000        0.000        0.000        1.000        0.000        3.000        5.000        0.000        4.494        0.000       95.506        0.000        0.000        1.755        1.750        2.112
     270.000  -214310.740    22180.346    13482.510    32641.851      124.827  -321654.367    38914.092       25.915       25.776        3.050        3.094        3.170        3.202        3.262        2.965        2.709        2.552        2.680        2.682        2.705        2.550        3.066        3.039        3.228        2.963        0.490        1.000        0.000        1.000        0.000        2.000        0.000        0.000        2.000        0.000        0.000        0.000        0.000        0.000        0.000        0.000        2.000        0.000        0.000        0.000        0.000        0.000        0.000        0.000        0.000        0.000        2.000        0.000        0.000        0.000        0.000        2.000        5.000        0.000        7.865        0.000       92.135        0.000        0.000        1.934        1.915        2.208
     280.000  -213607.611    22546.543    13320.691    32831.742      139.229  -321029.256    38583.440       25.762       25.462        2.992        3.069        3.183        3.272        3.232        3.042        2.688        2.594        2.725        2.666        2.687        2.516        3.052        3.016        3.255        2.977        0.487        1.000        0.000        1.000        0.000        2.000        0.000        0.000        2.000        0.000        2.000        0.000        0.000        0.000        0.000        0.000        1.000        0.000        0.000        0.000        0.000        0.000        0.000        0.000        0.000        0.000        1.000        0.000        0.000        0.000        0.000        2.000        1.000        0.000        7.865        0.000       92.135        0.000        0.000        1.879        1.870        2.100
     290.000  -214470.421    20787.594    13281.148    32916.786      118.548  -321558.553    39984.056       25.936       25.822        2.978        3.117        3.184        3.221        3.176        3.032        2.752        2.605        2.740        2.683        2.720        2.524        3.111        3.040        3.231        2.940        0.486        1.000        0.000        1.000        0.000        2.000        0.000        0.000        2.000        0.000        2.000        0.000        0.000        1.000        0.000        1.000        0.000        0.000        0.000        0.000        0.000        0.000        0.000        0.000        0.000        1.000        0.000        0.000        0.000        0.000        0.000        0.000        5.000        0.000        4.494        0.000       95.506        0.000        0.000        1.608        1.625        1.991
     300.000  -213474.705    21765.489    13485.722    32870.732      109.730  -319906.837    38200.459       26.204       26.189        3.104        3.066        3.173        3.228        3.191        3.090        2.697        2.572        2.679        2.644        2.703        2.534        3.066        3.067        3.205        3.009        0.471        1.000        0.000        1.000        0.000        1.000        0.000        0.000        2.000        0.000        0.000        0.000        0.000        0.000        0.000        0.000        2.000        0.000        0.000        0.000        0.000        0.000        0.000        0.000        0.000        0.000        1.000        0.000        0.000        0.000        0.000        3.000        5.000        0.000        0.000        0.000      100.000        0.000        0.000        1.618        1.648        2.035
     310.000  -213201.373    22711.487    13424.144    32655.474      136.447  -319266.940    37138.015       26.219       26.200        2.977        3.062        3.191        3.302        3.248        3.008        2.675        2.563        2.645        2.653        2.702        2.522        3.071        3.033        3.275        3.048        0.502        1.000        0.000        0.000        0.000        1.000        0.000        0.000        2.000        0.000        0.000        0.000        0.000        0.000        0.000        0.000        2.000        0.000        0.000        0.000        0.000        0.000        0.000        0.000        0.000        0.000        0.000        0.000        0.000        0.000        0.000        0.000        4.000        0.000        4.494        0.000       95.506        0.000        0.000        1.665        1.708        1.995
     320.000  -213532.453    22023.550    13108.007    32955.173      123.335  -320008.853    38266.334       25.937       26.044        2.984        3.003        3.170        3.264        3.221        3.007        2.733        2.583        2.680        2.657        2.719        2.518        3.019        3.046        3.257        3.035        0.496        1.000        0.000        0.000        0.000        2.000        0.000        0.000        2.000        0.000        0.000        0.000        0.000        0.000        0.000        0.000        2.000        0.000        0.000        0.000        0.000        0.000        0.000        0.000        0.000        1.000        3.000        0.000        0.000        0.000        0.000        0.000        2.000        0.000        7.865        0.000       92.135        0.000        0.000        1.587        1.614        2.084
     330.000  -214188.052    21028.855    13213.148    33071.581      120.998  -320487.429    38864.795       25.972       25.993        2.902        3.073        3.152        3.233        3.143        2.939        2.713        2.590        2.694        2.671        2.724        2.565        3.071        3.038        3.294        2.988        0.484        0.000        0.000        0.000        0.000        2.000        0.000        0.000        2.000        0.000        1.000        0.000        0.000        0.000        0.000        0.000        1.000        0.000        0.000        0.000        0.000        0.000        0.000        0.000        0.000        0.000        0.000        0.000        1.000        0.000        0.000        0.000        3.000        0.000        4.494        0.000       95.506        0.000        0.000        1.509        1.522        1.944
     340.000  -213524.050    22257.368    13849.783    32892.005      142.429  -321409.378    38743.742       25.962       25.853        2.953        3.113        3.145        3.253        3.250        3.103        2.697        2.615        2.703        2.608        2.695        2.514        3.062        3.031        3.245        2.980        0.488        1.000        0.000        0.000        0.000        1.000        0.000        0.000        2.000        0.000        0.000        0.000        0.000        0.000        0.000        0.000        1.000        0.000        0.000        0.000        0.000        0.000        0.000        0.000        0.000        0.000        1.000        0.000        0.000        0.000        0.000        0.000        3.000        0.000        0.000        0.000      100.000        0.000        0.000        1.345        1.398        1.863
     350.000  -213814.244    22548.709    13458.366    32942.212      150.367  -321550.144    38636.246       26.166       26.226        2.861        3.093        3.190        3.212        3.191        3.054        2.751        2.581        2.709        2.587        2.735        2.521        3.072        3.085        3.257        3.025        0.486        0.000        0.000        0.000        0.000        2.000        0.000        0.000        2.000        0.000        0.000        0.000        0.000        0.000        0.000        0.000        1.000        0.000        0.000        0.000        0.000        0.000        0.000        0.000        0.000        1.000        3.000        0.000        0.000        2.000        0.000        1.000        4.000        0.000        4.494        0.000       95.506        0.000        0.000        1.751        1.782        2.118
     360.000  -212719.198    21175.915    13777.624    32759.374      128.340  -319765.304    39204.853       26.257       26.248        3.032        3.127        3.212        3.285        3.200        3.022        2.795        2.618        2.684        2.644        2.684        2.527        3.004        2.991        3.240        2.962        0.479        0.000        0.000        0.000        0.000        2.000        0.000        0.000        2.000        0.000        0.000        0.000        0.000        0.000        0.000        0.000        0.000        0.000        0.000        0.000        0.000        0.000        0.000        0.000        0.000        0.000        3.000        0.000        0.000        0.000        0.000        0.000        1.000        0.000        4.494        0.000       95.506        0.000        0.000        1.977        2.004        2.362
     370.000  -213358.733    22471.522    13455.869    32851.095      137.199  -319208.368    36933.951       25.915       26.221        3.078        3.021        3.164        3.261        3.198        2.972        2.698        2.621        2.611        2.634        2.729        2.561        3.071        3.011        3.261        2.974        0.472        0.000        0.000        0.000        0.000        1.000        0.000        0.000        1.000        0.000        0.000        0.000        0.000        0.000        0.000        0.000        0.000        0.000        0.000        0.000        0.000        0.000        0.000        0.000        0.000        2.000        1.000        0.000        0.000        1.000        0.000        0.000        2.000        0.000        4.494        0.000       95.506        0.000        0.000        1.927        1.948        2.290
     380.000  -213587.620    22882.887    13460.963    32687.201      121.301  -320339.881    37599.909       25.956       26.040        3.093        3.131        3.093        3.284        3.235        3.023        2.705        2.608        2.707        2.699        2.647        2.541        2.995        3.044        3.191        2.966        0.482        0.000        0.000        0.000        0.000        2.000        0.000        0.000        0.000        0.000        2.000        0.000        1.000        0.000        0.000        0.000        1.000        0.000        0.000        0.000        0.000        0.000        0.000        0.000        0.000        2.000        1.000        1.000        0.000        2.000        0.000        0.000        3.000        0.000        4.494        0.000       95.506        0.000        0.000        2.157        2.203        2.613
     390.000  -213467.550    21851.495    13395.395    32974.440      125.264  -319699.199    37885.056       25.912       26.094        3.138        3.089        3.200        3.287        3.210        3.144        2.697        2.582        2.647        2.676        2.702        2.579        3.110        3.038        3.243        3.004        0.486        0.000        0.000        0.000        0.000        2.000        0.000        0.000        2.000        0.000        0.000        0.000        1.000        0.000        0.000        0.000        2.000        0.000        0.000        0.000        0.000        0.000        0.000        0.000        0.000        2.000        5.000        0.000        2.000        1.000        0.000        0.000        1.000        0.000        0.000        0.000      100.000        0.000        0.000        2.271        2.283        2.605
     400.000  -213989.294    22199.705    12906.097    33078.067      176.516  -319790.630    37440.951       26.098       25.985        3.155        3.032        3.159        3.199        3.205        2.958        2.717        2.563        2.707        2.606        2.695        2.486        3.091        3.028        3.257        2.977        0.499        0.000        0.000        0.000        0.000        1.000        0.000        0.000        2.000        0.000        0.000        0.000        1.000        0.000        0.000        0.000        1.000        0.000        0.000        0.000        0.000        0.000        0.000        0.000        0.000        1.000        1.000        0.000        0.000        1.000        0.000        1.000        4.000        0.000        4.494        0.000       95.506        0.000        0.000        1.936        1.949        2.325
     410.000  -212871.136    21615.298    13562.194    33008.908      154.164  -318861.401    37649.701       26.146       26.275        3.034        3.037        3.195        3.197        3.226        2.976        2.701        2.585        2.651        2.647        2.688        2.532        3.088        3.040        3.248        3.012        0.482        0.000        0.000        0.000        0.000        2.000        0.000        0.000        2.000        0.000        0.000        0.000        0.000        1.000        0.000        0.000        2.000        0.000        0.000        0.000        0.000        0.000        0.000        0.000        0.000        1.000        3.000        1.000        0.000        0.000        0.000        0.000        6.000        0.000        0.000        0.000      100.000        0.000        0.000        1.906        1.944        2.445
     420.000  -213249.821    21170.933    13557.576    32982.888      144.213  -320099.657    38994.227       26.209       26.314        3.077        2.983        3.146        3.227        3.168        3.023        2.736        2.563        2.690        2.657        2.699        2.525        3.048        3.068        3.223        3.054        0.490        0.000        0.000        0.000        0.000        2.000        0.000        0.000        1.000        0.000        1.000        0.000        0.000        0.000        0.000        0.000        0.000        0.000        0.000        0.000        0.000        0.000        0.000        0.000        0.000        1.000        3.000        0.000        0.000        1.000        0.000        0.000        5.000        0.000        4.494        0.000       95.506        0.000        0.000        1.826        1.850        2.347
     430.000  -213263.858    21928.886    13346.481    32684.746      159.427  -319816.227    38432.828       26.258       26.200        3.046        3.034        3.201        3.236        3.279        3.018        2.708        2.567        2.673        2.655        2.704        2.523        3.099        3.007        3.256        3.002        0.459        0.000        0.000        0.000        0.000        2.000        0.000        0.000        2.000        0.000        0.000        0.000        0.000        0.000        0.000        0.000        1.000        0.000        0.000        0.000        0.000        0.000        0.000        0.000        0.000        0.000        0.000        0.000        1.000        1.000        0.000        0.000        6.000        0.000        4.494        0.000       95.506        0.000        0.000        1.669        1.682        2.264
     440.000  -212997.316    21459.298    13219.809    33041.684      127.693  -319617.427    38771.627       26.013       25.660        3.124        3.091        3.195        3.224        3.213        2.995        2.703        2.577        2.693        2.671        2.712        2.523        3.083        3.086        3.202        2.957        0.485        0.000        0.000        0.000        0.000        1.000        0.000        0.000        1.000        0.000        0.000        0.000        0.000        0.000        0.000        0.000        0.000        0.000        0.000        0.000        0.000        0.000        0.000        0.000        0.000        0.000        3.000        0.000        0.000        0.000        0.000        0.000        3.000        0.000        0.000        0.000      100.000        0.000        0.000        1.568        1.568        2.189
     450.000  -212245.355    21294.168    13301.333    32989.527      123.326  -318314.439    38360.731       25.825       25.700        3.042        2.998        3.227        3.240        3.254        3.025        2.693        2.582        2.663        2.666        2.665        2.555        3.135        3.035        3.265        2.977        0.472        0.000        0.000        0.000        0.000        2.000        0.000        0.000        2.000        0.000        1.000        0.000        0.000        0.000        0.000        0.000        1.000        0.000        0.000        0.000        0.000        0.000        0.000        0.000        0.000        0.000        0.000        0.000        0.000        2.000        0.000        0.000        4.000        0.000        0.000        0.000      100.000        0.000        0.000        1.767        1.768        2.367
     460.000  -213645.574    20630.606    13242.618    33283.270      143.448  -320345.440    39399.925       25.969       25.671        3.063        3.128        3.219        3.251        3.225        3.018        2.699        2.622        2.642        2.661        2.675        2.512        3.090        3.025        3.264        2.962        0.508        0.000        0.000        0.000        0.000        2.000        0.000        0.000        2.000        0.000        2.000        0.000        0.000        0.000        0.000        0.000        1.000        0.000        0.000        0.000        0.000        0.000        0.000        0.000        0.000        0.000        1.000        0.000        0.000        1.000        0.000        0.000        4.000        0.000        0.000        0.000      100.000        0.000        0.000        1.576        1.564        2.501
     470.000  -213531.298    21599.693    13039.091    32786.929      139.947  -318894.586    37797.629       26.016       26.138        3.009        3.041        3.178        3.187        3.167        2.997        2.724        2.607        2.635        2.656        2.714        2.573        3.119        3.049        3.265        2.987        0.480        0.000        0.000        0.000        0.000        2.000        0.000        0.000        2.000        0.000        0.000        0.000        0.000        0.000        0.000        0.000        0.000        0.000        0.000        0.000        0.000        0.000        0.000        0.000        0.000        1.000        1.000        0.000        1.000        1.000        0.000        0.000        2.000        0.000        0.000        0.000      100.000        0.000        0.000        1.643        1.635        2.465
     480.000  -212157.847    21174.438    13582.534    32784.898      127.973  -318813.569    38985.879       26.002       25.999        3.028        3.064        3.200        3.207        3.181        2.996        2.742        2.609        2.697        2.651        2.722        2.503        3.103        3.035        3.266        3.004        0.487        0.000        0.000        0.000        0.000        2.000        0.000        0.000        1.000        0.000        0.000        0.000        1.000        0.000        0.000        0.000        1.000        0.000        0.000        0.000        0.000        0.000        0.000        0.000        0.000        4.000        1.000        0.000        0.000        1.000        0.000        1.000        2.000        0.000        0.000        0.000      100.000        0.000        0.000        1.582        1.596        2.335
     490.000  -212966.724    21155.917    13141.322    33093.147      141.095  -319028.741    38530.537       25.924       25.686        3.051        2.958        3.141        3.188        3.225        2.968        2.697        2.541        2.711        2.681        2.723        2.559        3.156        2.992        3.232        2.984        0.485        0.000        0.000        0.000        0.000        2.000        0.000        0.000        1.000        0.000        0.000        0.000        0.000        0.000        0.000        0.000        1.000        0.000        0.000        0.000        0.000        0.000        0.000        0.000        0.000        2.000        2.000        0.000        1.000        0.000        0.000        0.000        3.000        0.000        0.000        0.000      100.000        0.000        0.000        1.312        1.335        2.184
     500.000  -212909.700    21985.584    13710.760    32949.181      132.800  -318533.496    36845.470       26.224       25.900        3.017        3.048        3.144        3.181        3.247        3.021        2.749        2.569        2.657        2.617        2.671        2.500        3.094        3.013        3.317        2.996        0.487        0.000        0.000        0.000        0.000        2.000        0.000        0.000        1.000        0.000        1.000        0.000        1.000        0.000        0.000        0.000        2.000        0.000        0.000        0.000        0.000        0.000        0.000        0.000        0.000        1.000        1.000        0.000        0.000        0.000        0.000        0.000        0.000        0.000        0.000        0.000      100.000        0.000        0.000        1.475        1.513        2.395
     510.000  -213069.890    22456.654    13377.758    32932.373      158.833  -319572.897    37577.389       25.919       25.840        3.076        3.012        3.139        3.213        3.246        2.997        2.745        2.576        2.651        2.682        2.692        2.556        3.118        3.070        3.245        2.989        0.483        0.000        0.000        0.000        0.000        2.000        0.000        0.000        2.000        0.000        1.000        0.000        0.000        0.000        0.000        0.000        0.000        0.000        0.000        0.000        0.000        0.000        0.000        0.000        0.000        3.000        1.000        0.000        0.000        1.000        0.000        0.000       11.000        0.000        0.000        0.000      100.000        0.000        0.000        1.318        1.346        2.139
     520.000  -213722.014    21702.461    13216.759    32863.922      123.559  -319453.612    37824.898       26.353       26.075        3.069        3.140        3.082        3.247        3.207        2.946        2.686        2.597        2.696        2.647        2.640        2.527        3.074        3.079        3.261        2.997        0.477        0.000        0.000        0.000        0.000        2.000        0.000        0.000        2.000        0.000        0.000        0.000        0.000        0.000        0.000        0.000        2.000        0.000        0.000        0.000        0.000        0.000        0.000        0.000        0.000        3.000        2.000        0.000        0.000        2.000        0.000        0.000        2.000        0.000        4.494        0.000       95.506        0.000        0.000        1.649        1.638        2.298
     530.000  -213724.641    21786.359    13029.830    32962.745      138.404  -319099.847    37457.868       26.144       26.066        3.016        2.976        3.183        3.152        3.266        2.996        2.719        2.563        2.664        2.646        2.690        2.542        3.052        3.099        3.267        2.994        0.481        0.000        0.000        0.000        0.000        2.000        0.000        0.000        2.000        0.000        1.000        0.000        0.000        0.000        0.000        0.000        1.000        0.000        0.000        0.000        0.000        0.000        0.000        0.000        0.000        2.000        2.000        0.000        0.000        0.000        0.000        0.000        1.000        0.000        4.494        0.000       95.506        0.000        0.000        1.491        1.522        2.202
     540.000  -212682.649    21654.649    13521.620    33023.920      142.507  -319078.543    38053.198       26.145       26.155        3.041        3.030        3.213        3.212        3.180        2.998        2.728        2.600        2.574        2.649        2.717        2.535        3.141        3.077        3.223        3.006        0.498        0.000        0.000        0.000        0.000        1.000        0.000        0.000        1.000        0.000        0.000        0.000        0.000        0.000        0.000        1.000        0.000        0.000        0.000        0.000        0.000        0.000        0.000        0.000        0.000        0.000        0.000        0.000        0.000        0.000        0.000        0.000        4.000        0.000        0.000        0.000      100.000        0.000        0.000        1.474        1.505        2.186
     550.000  -213159.550    21502.822    13253.692    32924.352      140.192  -319127.519    38146.912       26.415       26.424        3.019        3.059        3.182        3.260        3.182        3.088        2.709        2.578        2.688        2.605        2.729        2.501        3.124        3.087        3.272        3.026        0.483        0.000        0.000        0.000        0.000        1.000        0.000        0.000        1.000        0.000        0.000        0.000        0.000        0.000        0.000        0.000        0.000        0.000        0.000        0.000        0.000        0.000        0.000        0.000        0.000        1.000        0.000        0.000        0.000        0.000        0.000        0.000        5.000        0.000        0.000        0.000      100.000        0.000        0.000        1.808        1.854        2.599
     560.000  -212941.984    21279.364    13396.657    32943.802      138.478  -318264.877    37564.591       26.355       26.253        2.958        3.123        3.163        3.235        3.251        3.024        2.741        2.576        2.679        2.653        2.648        2.518        3.050        3.016        3.240        3.004        0.489        0.000        0.000        0.000        0.000        2.000        0.000        0.000        1.000        0.000        0.000        0.000        0.000        0.000        0.000        0.000        1.000        0.000        0.000        0.000        0.000        0.000        0.000        0.000        0.000        2.000        0.000        0.000        0.000        0.000        0.000        0.000        2.000        0.000        0.000        0.000      100.000        0.000        0.000        1.613        1.662        2.387
     570.000  -212690.901    22160.558    13321.038    32898.579      156.950  -319640.680    38412.655       25.957       25.792        3.088        3.136        3.152        3.280        3.252        3.044        2.711        2.563        2.725        2.649        2.599        2.546        3.012        3.043        3.216        2.999        0.482        0.000        0.000        0.000        0.000        2.000        0.000        0.000        1.000        0.000        0.000        0.000        0.000        0.000        0.000        0.000        0.000        0.000        0.000        0.000        0.000        0.000        0.000        0.000        0.000        0.000        0.000        0.000        0.000        0.000        0.000        1.000        2.000        0.000        4.494        0.000       95.506        0.000        0.000        1.522        1.574        2.354
     580.000  -213663.704    20708.176    13309.326    33085.303      154.558  -319438.628    38517.562       26.056       25.824        2.997        3.116        3.108        3.233        3.260        3.036        2.727        2.603        2.627        2.642        2.654        2.480        3.019        2.994        3.235        3.016        0.474        0.000        0.000        0.000        0.000        1.000        0.000        0.000        1.000        0.000        0.000        0.000        0.000        0.000        0.000        0.000        0.000        0.000        0.000        0.000        0.000        0.000        0.000        0.000        0.000        2.000        0.000        0.000        0.000        1.000        0.000        0.000        2.000        0.000        0.000        0.000      100.000        0.000        0.000        1.548        1.610        2.259
     590.000  -213482.410    22459.834    12958.801    32872.977      124.721  -319370.314    37471.570       26.283       25.955        2.993        3.103        3.083        3.263        3.283        3.069        2.702        2.615        2.724        2.688        2.726        2.577        3.115        3.003        3.257        3.025        0.475        0.000        0.000        0.000        0.000        2.000        0.000        0.000        1.000        0.000        0.000        0.000        0.000        0.000        0.000        0.000        3.000        0.000        0.000        0.000        0.000        0.000        0.000        0.000        0.000        3.000        0.000        0.000        0.000        1.000        0.000        0.000        3.000        0.000        4.494        0.000       95.506        0.000        0.000        2.106        2.143        2.722
     600.000  -213423.892    21569.625    13433.965    32946.091      139.567  -320297.807    38784.667       25.934       25.760        3.129        3.080        3.184        3.170        3.208        3.086        2.690        2.621        2.716        2.670        2.708        2.552        3.138        3.089        3.274        3.066        0.487        0.000        0.000        0.000        0.000        2.000        0.000        0.000        1.000        0.000        0.000        0.000        0.000        0.000        0.000        0.000        2.000        0.000        0.000        0.000        0.000        0.000        0.000        0.000        0.000        0.000        2.000        0.000        0.000        1.000        0.000        0.000        1.000        0.000        0.000        0.000      100.000        0.000        0.000        1.873        1.902        2.605
     610.000  -213086.584    21730.581    13364.531    33025.119      116.426  -319343.603    38020.361       26.219       25.971        2.939        2.997        3.141        3.187        3.255        3.019        2.714        2.567        2.710        2.679        2.742        2.466        3.086        3.076        3.291        2.974        0.504        0.000        1.000        0.000        0.000        1.000        0.000        0.000        2.000        0.000        0.000        0.000        0.000        0.000        0.000        0.000        1.000        0.000        0.000        0.000        0.000        0.000        0.000        0.000        0.000        1.000        0.000        0.000        0.000        1.000        0.000        0.000        4.000        0.000        0.000        0.000      100.000        0.000        0.000        2.191        2.218        2.846
     620.000  -214067.788    21652.419    13431.052    33026.025      129.808  -319936.447    37629.355       26.137       25.765        2.998        3.048        3.098        3.268        3.251        3.035        2.706        2.606        2.707        2.637        2.688        2.514        3.084        3.088        3.292        3.010        0.482        0.000        0.000        0.000        0.000        1.000        0.000        0.000        2.000        0.000        0.000        0.000        0.000        0.000        0.000        0.000        0.000        0.000        0.000        0.000        0.000        0.000        0.000        0.000        0.000        1.000        1.000        0.000        0.000        0.000        0.000        0.000        4.000        0.000        0.000        0.000      100.000        0.000        0.000        2.272        2.308        2.864
     630.000  -213036.098    20810.001    13538.917    32968.115      133.713  -319442.971    38956.128       26.018       25.688        2.846        3.087        3.193        3.165        3.287        3.034        2.701        2.548        2.702        2.666        2.695        2.533        3.079        3.055        3.273        2.971        0.486        0.000        0.000        0.000        0.000        1.000        0.000        0.000        2.000        0.000        0.000        0.000        0.000        0.000        0.000        0.000        3.000        0.000        0.000        0.000        0.000        0.000        0.000        0.000        0.000        0.000        0.000        0.000        0.000        1.000        0.000        0.000        5.000        0.000        4.494        0.000       95.506        0.000        0.000        2.478        2.509        3.104
     640.000  -213205.203    21457.992    13135.791    33049.908      174.462  -319440.414    38417.059       25.833       25.655        2.946        3.175        3.168        3.203        3.254        2.957        2.727        2.543        2.711        2.701        2.711        2.487        3.007        3.040        3.275        3.012        0.493        0.000        0.000        0.000        0.000        2.000        0.000        0.000        2.000        0.000        0.000        0.000        0.000        0.000        0.000        0.000        1.000        0.000        0.000        0.000        0.000        0.000        0.000        0.000        0.000        0.000        0.000        0.000        0.000        0.000        0.000        0.000        4.000        0.000        4.494        0.000       95.506        0.000        0.000        1.954        1.993        2.770
     650.000  -212875.569    21443.662    13341.818    33047.338      128.094  -319147.491    38311.010       25.927       25.702        3.020        3.172        3.151        3.248        3.278        3.006        2.706        2.593        2.649        2.643        2.720        2.502        3.049        3.040        3.250        3.022        0.493        0.000        0.000        0.000        0.000        1.000        0.000        0.000        1.000        0.000        0.000        0.000        0.000        0.000        0.000        0.000        0.000        0.000        0.000        0.000        0.000        0.000        0.000        0.000        0.000        0.000        2.000        0.000        0.000        0.000        0.000        0.000        3.000        0.000        0.000        0.000      100.000        0.000        0.000        1.956        1.998        2.812
     660.000  -213870.759    22039.711    13146.107    32977.169      139.431  -320293.468    38120.290       25.823       25.594        3.092        3.127        3.168        3.249        3.248        3.079        2.738        2.607        2.648        2.631        2.708        2.515        3.088        3.028        3.213        2.994        0.494        0.000        0.000        0.000        0.000        1.000        0.000        0.000        1.000        0.000        0.000        0.000        0.000        0.000        0.000        0.000        2.000        0.000        0.000        0.000        0.000        0.000        0.000        0.000        0.000        3.000        0.000        0.000        0.000        1.000        0.000        0.000        7.000        0.000        0.000        0.000      100.000        0.000        0.000        1.555        1.549        2.357
     670.000  -213584.207    22125.515    13264.677    32874.727      144.744  -318665.949    36672.079       26.039       25.764        3.093        3.180        3.169        3.146        3.257        3.011        2.734        2.612        2.689        2.710        2.714        2.542        3.115        3.048        3.270        2.996        0.491        0.000        0.000        0.000        0.000        1.000        0.000        0.000        1.000        0.000        0.000        0.000        0.000        0.000        0.000        0.000        2.000        0.000        0.000        0.000        0.000        0.000        0.000        0.000        0.000        1.000        2.000        0.000        0.000        1.000        0.000        0.000        4.000        0.000        4.494        0.000       95.506        0.000        0.000        1.776        1.774        2.618
     680.000  -213343.351    22009.688    13401.416    32747.921      158.081  -319348.556    37688.099       26.084       25.874        3.033        3.115        3.146        3.244        3.241        3.006        2.706        2.635        2.722        2.641        2.693        2.547        3.053        3.054        3.251        3.022        0.484        0.000        0.000        0.000        0.000        1.000        0.000        0.000        2.000        0.000        0.000        0.000        0.000        0.000        0.000        0.000        1.000        0.000        0.000        0.000        0.000        0.000        0.000        0.000        0.000        0.000        1.000        0.000        0.000        0.000        0.000        0.000        2.000        0.000        0.000        0.000      100.000        0.000        0.000        1.591        1.592        2.781
     690.000  -213082.531    20737.286    13081.952    33280.108      129.548  -319167.572    38856.146       26.366       26.142        3.072        3.227        3.157        3.184        3.182        2.953        2.685        2.608        2.690        2.645        2.651        2.533        3.103        2.991        3.284        3.011        0.482        0.000        0.000        0.000        0.000        1.000        0.000        0.000        1.000        0.000        0.000        0.000        0.000        0.000        0.000        0.000        2.000        0.000        0.000        0.000        0.000        0.000        0.000        0.000        0.000        0.000        1.000        0.000        0.000        1.000        0.000        0.000        3.000        0.000        0.000        0.000      100.000        0.000        0.000        1.674        1.695        2.715
     700.000  -212998.578    21644.779    13385.417    32860.019      143.891  -318740.358    37707.673       26.306       26.002        3.050        3.169        3.190        3.210        3.199        2.931        2.720        2.621        2.661        2.669        2.706        2.592        3.045        3.030        3.214        2.972        0.474        0.000        0.000        0.000        0.000        1.000        0.000        0.000        2.000        0.000        0.000        0.000        0.000        0.000        0.000        0.000        3.000        0.000        0.000        0.000        0.000        0.000        0.000        0.000        0.000        0.000        2.000        0.000        0.000        2.000        0.000        0.000        2.000        0.000        0.000        0.000      100.000        0.000        0.000        1.598        1.626        2.472
     710.000  -213279.029    21788.256    13568.358    32820.846      127.222  -318990.582    37406.871       26.298       26.190        3.043        3.132        3.156        3.235        3.220        2.994        2.733        2.589        2.684        2.644        2.760        2.567        3.104        3.030        3.277        2.964        0.479        0.000        0.000        0.000        0.000        1.000        0.000        0.000        1.000        0.000        0.000        0.000        0.000        0.000        0.000        0.000        0.000        0.000        0.000        0.000        0.000        0.000        0.000        0.000        0.000        0.000        0.000        0.000        0.000        0.000        0.000        0.000        4.000        0.000        0.000        0.000      100.000        0.000        0.000        1.589        1.599        2.609
     720.000  -212847.846    20741.280    13494.894    33042.099      120.200  -319129.566    38883.248       26.204       25.866        3.049        3.219        3.083        3.125        3.215        2.983        2.709        2.599        2.623        2.670        2.700        2.564        3.023        3.086        3.250        2.995        0.462        0.000        0.000        0.000        0.000        1.000        0.000        0.000        1.000        0.000        0.000        0.000        0.000        0.000        0.000        0.000        1.000        0.000        0.000        0.000        0.000        0.000        0.000        0.000        0.000        0.000        0.000        0.000        0.000        0.000        0.000        0.000        1.000        0.000        4.494        0.000       95.506        0.000        0.000        1.454        1.479        2.679
     730.000  -212834.113    21310.581    13292.129    32752.442      138.716  -318476.566    38148.585       26.353       26.190        2.989        3.206        3.165        3.218        3.221        2.937        2.682        2.595        2.746        2.697        2.691        2.559        3.091        3.045        3.249        2.957        0.490        0.000        0.000        0.000        0.000        1.000        0.000        0.000        2.000        0.000        0.000        0.000        0.000        0.000        0.000        0.000        1.000        0.000        0.000        0.000        0.000        0.000        0.000        0.000        0.000        2.000        0.000        0.000        0.000        1.000        0.000        0.000        6.000        0.000        0.000        0.000      100.000        0.000        0.000        1.686        1.702        2.645
     740.000  -212788.385    20869.125    13091.910    32944.661      140.246  -319545.568    39711.240       25.967       25.918        3.007        3.169        3.134        3.190        3.268        2.998        2.720        2.619        2.672        2.656        2.723        2.461        3.141        3.046        3.236        3.026        0.476        0.000        0.000        0.000        0.000        1.000        0.000        0.000        1.000        0.000        0.000        0.000        0.000        0.000        0.000        0.000        2.000        0.000        0.000        0.000        0.000        0.000        0.000        0.000        0.000        0.000        0.000        0.000        0.000        1.000        0.000        0.000        3.000        0.000        0.000        0.000      100.000        0.000        0.000        1.428        1.459        2.713
     750.000  -213092.334    20614.311    12859.627    32826.641      144.846  -318714.320    39176.560       26.119       26.006        3.062        3.178        3.137        3.225        3.220        2.966        2.702        2.629        2.710        2.640        2.639        2.576        3.092        3.025        3.228        2.937        0.487        0.000        0.000        0.000        0.000        1.000        0.000        0.000        1.000        0.000        0.000        0.000        0.000        0.000        0.000        0.000        1.000        0.000        0.000        0.000        0.000        0.000        0.000        0.000        0.000        0.000        0.000        0.000        0.000        0.000        0.000        0.000        4.000        0.000        0.000        0.000      100.000        0.000        0.000        1.493        1.506        2.772
     760.000  -212784.549    21627.592    13119.037    32912.356      117.002  -318309.589    37749.053       26.306       26.037        2.977        3.212        3.142        3.233        3.246        3.031        2.711        2.632        2.712        2.703        2.707        2.552        3.133        3.002        3.230        2.986        0.481        0.000        0.000        0.000        0.000        1.000        0.000        0.000        1.000        0.000        0.000        0.000        0.000        0.000        0.000        0.000        0.000        0.000        0.000        0.000        0.000        0.000        0.000        0.000        0.000        3.000        1.000        0.000        0.000        0.000        0.000        0.000        2.000        0.000        0.000        0.000      100.000        0.000        0.000        1.552        1.585        2.867
     770.000  -213322.042    22547.689    13193.984    32933.345      135.078  -319723.561    37591.422       25.973       25.652        3.092        3.123        3.087        3.191        3.242        2.967        2.734        2.585        2.671        2.644        2.706        2.556        3.073        3.029        3.227        3.075        0.495        0.000        0.000        0.000        0.000        1.000        0.000        0.000        1.000        0.000        0.000        0.000        0.000        0.000        0.000        0.000        0.000        0.000        0.000        0.000        0.000        0.000        0.000        0.000        0.000        0.000        0.000        0.000        0.000        0.000        0.000        0.000        2.000        0.000        0.000        0.000      100.000        0.000        0.000        1.632        1.671        3.154
     780.000  -212886.615    20999.163    12982.793    33186.783      125.137  -318571.866    38391.375       25.923       25.506        2.906        3.192        3.121        3.260        3.228        3.011        2.665        2.614        2.697        2.661        2.695        2.526        3.100        3.059        3.270        2.992        0.490        0.000        0.000        0.000        0.000        1.000        0.000        0.000        1.000        0.000        0.000        0.000        0.000        0.000        0.000        0.000        1.000        0.000        0.000        0.000        0.000        0.000        0.000        0.000        0.000        0.000        0.000        0.000        0.000        1.000        0.000        0.000        6.000        0.000        0.000        0.000      100.000        0.000        0.000        1.549        1.580        3.325
     790.000  -213039.709    21441.821    13234.323    32942.609      123.515  -319365.408    38583.431       26.150       25.810        2.990        3.199        3.135        3.314        3.261        3.042        2.728        2.593        2.702        2.634        2.692        2.514        3.046        2.964        3.264        3.008        0.472        0.000        0.000        0.000        0.000        1.000        0.000        0.000        1.000        0.000        0.000        0.000        0.000        0.000        0.000        0.000        0.000        0.000        0.000        0.000        0.000        0.000        0.000        0.000        0.000        0.000        0.000        0.000        0.000        0.000        0.000        0.000        4.000        0.000        0.000        0.000      100.000        0.000        0.000        1.999        2.003        3.653
     800.000  -213023.228    20721.456    13169.282    33036.020      163.642  -319750.362    39636.733       26.286       25.841        2.876        3.158        3.128        3.232        3.231        3.011        2.728        2.598        2.688        2.688        2.705        2.473        3.011        2.976        3.214        2.997        0.486        0.000        0.000        0.000        0.000        1.000        0.000        0.000        1.000        0.000        0.000        0.000        0.000        0.000        0.000        0.000        1.000        0.000        0.000        0.000        0.000        0.000        0.000        0.000        0.000        1.000        0.000        0.000        0.000        0.000        0.000        0.000        3.000        0.000        0.000        0.000      100.000        0.000        0.000        2.032        2.036        3.474
     810.000  -213194.323    20716.220    13359.519    32988.480      152.755  -319321.622    38910.325       25.862       25.749        2.846        3.177        3.082        3.270        3.240        3.057        2.696        2.662        2.704        2.664        2.634        2.544        3.020        3.058        3.234        3.028        0.491        0.000        0.000        0.000        0.000        1.000        0.000        0.000        2.000        1.000        0.000        0.000        0.000        0.000        0.000        0.000        0.000        0.000        0.000        0.000        0.000        0.000        0.000        0.000        0.000        0.000        0.000        0.000        0.000        0.000        0.000        0.000        4.000        0.000        0.000        0.000      100.000        0.000        0.000        1.611        1.668        2.949
     820.000  -212978.416    21661.373    13162.034    32804.590      164.958  -317808.213    37036.842       26.217       26.111        3.069        3.138        3.121        3.242        3.228        2.992        2.692        2.610        2.678        2.642        2.696        2.502        3.057        2.992        3.273        3.006        0.481        0.000        0.000        0.000        0.000        1.000        0.000        0.000        2.000        1.000        0.000        0.000        0.000        0.000        0.000        0.000        2.000        0.000        0.000        0.000        0.000        0.000        0.000        0.000        0.000        0.000        0.000        0.000        0.000        0.000        0.000        0.000        3.000        0.000        0.000        0.000      100.000        0.000        0.000        1.904        1.970        3.392
     830.000  -213444.942    21650.875    13022.267    32998.270      128.201  -318137.118    36892.562       26.197       25.987        2.869        3.152        3.186        3.257        3.268        3.045        2.740        2.558        2.696        2.651        2.672        2.517        3.119        3.067        3.242        3.015        0.477        0.000        0.000        0.000        0.000        1.000        0.000        0.000        2.000        0.000        0.000        0.000        0.000        0.000        0.000        0.000        1.000        0.000        0.000        0.000        0.000        0.000        0.000        0.000        0.000        2.000        0.000        0.000        0.000        0.000        0.000        0.000        8.000        0.000        0.000        0.000      100.000        0.000        0.000        1.433        1.508        3.183
     840.000  -213509.384    22199.817    13207.233    33040.978      130.656  -320026.565    37938.498       25.760       25.905        2.973        3.193        3.125        3.226        3.197        3.069        2.716        2.650        2.684        2.692        2.658        2.529        3.030        2.998        3.267        3.021        0.475        0.000        0.000        0.000        0.000        1.000        0.000        0.000        2.000        0.000        0.000        0.000        0.000        0.000        0.000        0.000        0.000        0.000        0.000        0.000        0.000        0.000        0.000        0.000        0.000        0.000        1.000        0.000        0.000        0.000        0.000        0.000        5.000        0.000        4.494        0.000       95.506        0.000        0.000        1.362        1.421        3.219
     850.000  -212303.450    20961.083    13437.751    33028.357      114.370  -319113.940    39268.929       25.797       25.651        2.974        3.131        3.176        3.218        3.256        2.975        2.743        2.558        2.698        2.627        2.692        2.549        3.066        2.971        3.214        2.984        0.473        0.000        0.000        0.000        0.000        1.000        0.000        0.000        2.000        0.000        0.000        0.000        0.000        0.000        0.000        0.000        1.000        0.000        0.000        0.000        0.000        0.000        0.000        0.000        0.000        2.000        0.000        0.000        0.000        0.000        0.000        0.000        1.000        0.000        4.494        0.000       95.506        0.000        0.000        1.371        1.450        3.191
     860.000  -213217.374    22377.091    12895.134    32951.162      143.067  -318407.272    36823.445       26.134       25.757        3.005        3.249        3.165        3.157        3.242        3.017        2.711        2.534        2.624        2.646        2.679        2.495        3.067        2.979        3.270        2.940        0.493        0.000        0.000        0.000        0.000        1.000        0.000        0.000        2.000        0.000        0.000        0.000        0.000        0.000        0.000        0.000        2.000        0.000        0.000        0.000        0.000        0.000        0.000        0.000        0.000        2.000        2.000        0.000        0.000        0.000        0.000        0.000        2.000        0.000        0.000        0.000      100.000        0.000        0.000        1.448        1.515        3.007
     870.000  -212677.890    21654.838    13251.779    32948.046      135.891  -318993.493    38325.049       25.902       25.901        3.093        3.197        3.101        3.255        3.199        3.023        2.739        2.643        2.616        2.582        2.681        2.530        3.029        3.017        3.269        3.004        0.493        0.000        0.000        0.000        0.000        1.000        0.000        0.000        1.000        0.000        0.000        0.000        0.000        0.000        0.000        1.000        0.000        0.000        0.000        0.000        0.000        0.000        0.000        0.000        0.000        1.000        0.000        0.000        0.000        0.000        0.000        0.000        3.000        0.000        0.000        0.000      100.000        0.000        0.000        1.568        1.632        2.907
     880.000  -213368.330    21833.623    13098.967    32971.391      139.300  -319514.451    38102.841       25.843       25.908        3.104        3.146        3.220        3.243        3.177        3.019        2.725        2.577        2.648        2.639        2.737        2.525        2.997        3.027        3.214        2.961        0.476        0.000        0.000        0.000        0.000        1.000        0.000        0.000        2.000        0.000        1.000        0.000        0.000        0.000        0.000        2.000        1.000        0.000        0.000        0.000        0.000        0.000        0.000        0.000        0.000        5.000        1.000        0.000        0.000        0.000        0.000        0.000        4.000        0.000        0.000        0.000      100.000        0.000        0.000        1.614        1.694        2.902
     890.000  -213135.800    22529.204    13191.505    32848.280      142.685  -319654.025    37806.551       25.817       25.835        2.946        3.203        3.113        3.217        3.198        3.088        2.718        2.664        2.682        2.655        2.696        2.556        2.990        3.035        3.244        3.015        0.495        0.000        0.000        0.000        0.000        1.000        0.000        0.000        1.000        0.000        0.000        0.000        0.000        0.000        0.000        0.000        1.000        0.000        0.000        0.000        0.000        0.000        0.000        0.000        0.000        4.000        2.000        0.000        0.000        0.000        0.000        0.000        1.000        0.000        4.494        0.000       95.506        0.000        0.000        1.802        1.862        2.924
     900.000  -213322.070    21880.688    13054.879    33038.202      138.218  -320208.315    38774.256       25.947       25.702        3.105        3.087        3.169        3.232        3.240        2.980        2.694        2.581        2.653        2.652        2.695        2.502        3.028        3.017        3.198        3.030        0.478        0.000        0.000        0.000        0.000        1.000        0.000        0.000        2.000        0.000        1.000        0.000        0.000        0.000        0.000        1.000        1.000        0.000        0.000        0.000        0.000        0.000        0.000        0.000        0.000        2.000        0.000        0.000        0.000        0.000        0.000        0.000        1.000        0.000        0.000        0.000      100.000        0.000        0.000        1.860        1.905        3.252
     910.000  -213163.504    20938.866    13089.362    32914.980      131.020  -319400.599    39162.866       26.101       26.163        2.992        3.126        3.188        3.196        3.197        3.000        2.688        2.632        2.679        2.635        2.696        2.482        3.037        3.039        3.221        2.994        0.490        0.000        0.000        0.000        0.000        1.000        0.000        0.000        1.000        1.000        0.000        0.000        0.000        0.000        0.000        1.000        0.000        0.000        0.000        0.000        0.000        0.000        0.000        0.000        0.000        2.000        0.000        0.000        0.000        0.000        0.000        1.000        3.000        0.000        0.000        0.000      100.000        0.000        0.000        1.769        1.853        3.155
     920.000  -213863.113    22161.744    12862.041    33036.202      156.848  -318959.426    36879.478       26.102       25.940        3.071        3.163        3.174        3.126        3.242        2.985        2.721        2.619        2.715        2.657        2.715        2.532        3.020        3.034        3.238        2.932        0.474        0.000        0.000        0.000        0.000        1.000        0.000        0.000        1.000        0.000        0.000        0.000        0.000        0.000        0.000        0.000        0.000        0.000        0.000        0.000        0.000        0.000        0.000        0.000        0.000        0.000        0.000        0.000        0.000        0.000        0.000        0.000        4.000        0.000        0.000        0.000      100.000        0.000        0.000        1.956        2.014        3.359
     930.000  -213272.293    21314.945    12800.172    33104.920      149.712  -319227.488    38585.447       26.032       25.806        3.068        3.154        3.134        3.269        3.229        2.947        2.671        2.576        2.675        2.647        2.745        2.576        3.087        3.024        3.240        2.977        0.488        0.000        0.000        0.000        0.000        1.000        0.000        0.000        2.000        0.000        0.000        0.000        0.000        0.000        0.000        0.000        2.000        0.000        0.000        0.000        0.000        0.000        0.000        0.000        0.000        0.000        0.000        0.000        0.000        0.000        0.000        0.000        5.000        0.000        0.000        0.000      100.000        0.000        0.000        1.950        2.033        3.145
     940.000  -213166.061    22314.646    13284.722    32991.285      122.144  -320152.167    38273.309       26.215       25.763        3.011        3.095        3.128        3.199        3.212        2.946        2.710        2.626        2.623        2.681        2.732        2.477        3.040        3.027        3.278        3.036        0.480        0.000        0.000        0.000        0.000        1.000        0.000        0.000        1.000        0.000        0.000        0.000        0.000        0.000        0.000        1.000        1.000        0.000        0.000        0.000        0.000        0.000        0.000        0.000        0.000        0.000        0.000        0.000        0.000        0.000        0.000        0.000        4.000        0.000        0.000        0.000      100.000        0.000        0.000        2.068        2.146        3.111
     950.000  -213697.207    20983.541    12974.678    32881.894      115.632  -319377.238    38724.286       26.174       26.049        3.085        3.149        3.114        3.262        3.187        3.006        2.718        2.589        2.656        2.666        2.690        2.512        3.048        3.046        3.223        3.012        0.510        0.000        0.000        0.000        0.000        1.000        0.000        0.000        1.000        0.000        0.000        0.000        0.000        0.000        0.000        0.000        0.000        0.000        0.000        0.000        0.000        0.000        0.000        0.000        0.000        1.000        0.000        0.000        0.000        0.000        0.000        2.000        3.000        0.000        0.000        0.000      100.000        0.000        0.000        2.249        2.317        3.316
     960.000  -213113.870    20970.200    13089.041    32983.025      150.699  -318935.016    38628.180       26.082       26.024        2.869        3.170        3.107        3.217        3.211        3.001        2.719        2.604        2.672        2.641        2.734        2.406        3.094        3.039        3.297        3.061        0.484        0.000        0.000        0.000        0.000        1.000        0.000        0.000        2.000        0.000        0.000        0.000        0.000        0.000        0.000        0.000        2.000        0.000        0.000        0.000        0.000        0.000        0.000        0.000        0.000        3.000        0.000        0.000        0.000        0.000        0.000        0.000        2.000        0.000        0.000        0.000      100.000        0.000        0.000        2.212        2.286        3.172
     970.000  -212331.036    20975.882    13024.673    32966.570      150.078  -318402.277    38954.039       26.085       25.899        3.014        3.134        3.157        3.212        3.239        3.052        2.658        2.608        2.642        2.687        2.730        2.575        3.078        2.993        3.213        3.010        0.496        0.000        0.000        0.000        0.000        1.000        0.000        0.000        1.000        0.000        0.000        0.000        0.000        0.000        0.000        0.000        1.000        0.000        0.000        0.000        0.000        0.000        0.000        0.000        0.000        0.000        0.000        0.000        0.000        0.000        0.000        0.000        4.000        0.000        0.000        0.000      100.000        0.000        0.000        1.789        1.860        2.980
     980.000  -213001.063    21185.930    13385.244    32914.228      144.405  -318096.642    37465.773       25.995       25.641        2.993        3.176        3.157        3.175        3.232        3.021        2.730        2.609        2.704        2.612        2.711        2.510        3.065        3.012        3.263        3.038        0.489        0.000        0.000        0.000        0.000        1.000        0.000        0.000        2.000        0.000        1.000        0.000        0.000        0.000        0.000        1.000        3.000        0.000        0.000        0.000        0.000        0.000        0.000        0.000        0.000        0.000        1.000        0.000        2.000        2.000        0.000        0.000        2.000        0.000        0.000        0.000      100.000        0.000        0.000        1.854        1.893        2.890
     990.000  -212748.514    21895.723    13289.424    32857.777      128.226  -318736.724    37817.060       26.102       25.746        3.153        3.232        3.170        3.185        3.222        2.989        2.709        2.604        2.710        2.692        2.702        2.480        3.038        3.003        3.276        2.962        0.492        0.000        0.000        0.000        0.000        1.000        0.000        0.000        0.000        0.000        1.000        0.000        0.000        0.000        0.000        0.000        2.000        0.000        0.000        0.000        0.000        0.000        0.000        0.000        0.000        3.000        1.000        0.000        0.000        0.000        0.000        0.000        4.000        0.000        0.000        0.000      100.000        0.000        0.000        1.543        1.632        2.791
    1000.000  -212981.304    20996.236    13148.016    32620.777      122.751  -318138.121    38269.036       26.582       26.356        3.093        3.143        3.064        3.285        3.275        2.989        2.684        2.600        2.706        2.661        2.678        2.538        3.082        3.045        3.271        3.000        0.481        0.000        0.000        0.000        0.000        1.000        0.000        0.000        1.000        0.000        0.000        0.000        0.000        0.000        0.000        0.000        0.000        0.000        0.000        0.000        0.000        0.000        0.000        0.000        0.000        1.000        2.000        0.000        1.000        0.000        0.000        1.000        2.000        0.000        0.000        0.000      100.000        0.000        0.000        1.708        1.752        2.790
     Average  -214621.418    21909.835    13293.330    32908.624      134.112  -321549.455    38682.137       26.051       25.915        3.012        3.097        3.156        3.231        3.226        3.005        2.708        2.591        2.685        2.655        2.689        2.540        3.075        3.020        3.250        2.991        0.487        0.228        0.059        0.050        0.000        1.455        0.000        0.000        1.515        0.089        0.248        0.000        0.129        0.050        0.000        0.099        1.188        0.000        0.000        0.000        0.000        0.000        0.000        0.000        0.000        0.822        0.960        0.020        0.188        0.495        0.000        0.208        3.426        0.000        1.780        0.000       98.220        0.000        0.000        1.681        1.709        2.454

