____Time[ps] Energy[ kJ/mol ]_____Bond _______Angle ____Dihedral ___Planarity _____Coulomb _________VdW _Your result _Your result _Your result _Your result _Your result _Your result _Your result _Your result _Your result _Your result _Your result _Your result _Your result _Your result _Your result _Your result _Your result _Your result _Your result _Your result _Your result _Your result _Your result _Your result _Your result _Your result _Your result _Your result _Your result _Your result _Your result _Your result _Your result _Your result _Your result _Your result _Your result _Your result _Your result _Your result _Your result _Your result _Your result _Your result _Your result _Your result _Your result _Your result _Your result _Your result _Your result _Your result _Your result _Your result _Your result _Your result _Your result _RMSDs[A]:CA ____Backbone __HeavyAtoms
       0.000  -340379.091     7232.187     5099.237    33783.012       18.687  -454106.789    67594.574       25.248       25.300        2.597        2.633        2.515        2.629        2.526        2.964        2.610        2.562        3.175        2.643        2.637        2.700        3.034        2.889        2.593        2.592        0.491        0.000        1.000        0.000        0.000        3.000        0.000        0.000        2.000        0.000        0.000        0.000        0.000        0.000        0.000        0.000        6.000        0.000        0.000        0.000        0.000        0.000        0.000        0.000        0.000        0.000        0.000        0.000        0.000        0.000        0.000        0.000       10.000        0.000        0.000        0.000      100.000        0.000        0.000        0.514        0.550        0.639
      10.000  -257558.469    30666.977    15142.051    33425.924      135.959  -384615.364    47685.984       25.981       25.688        2.659        2.579        2.569        2.647        2.546        3.007        2.601        2.534        3.127        2.687        2.668        2.664        3.073        2.933        2.667        2.632        0.472        0.000        1.000        0.000        0.000        2.000        0.000        0.000        3.000        0.000        0.000        0.000        0.000        0.000        0.000        0.000        2.000        0.000        0.000        0.000        0.000        0.000        0.000        0.000        0.000        1.000        3.000        0.000        0.000        0.000        0.000        0.000        5.000        0.000        0.000        0.000      100.000        0.000        0.000        1.160        1.170        1.369
      20.000  -256051.810    28845.647    15231.248    33430.027      103.035  -382847.108    49185.340       25.846       25.629        2.635        2.559        2.527        2.662        2.545        3.101        2.606        2.509        3.158        2.658        2.728        2.649        3.038        2.959        2.615        2.615        0.487        0.000        1.000        0.000        0.000        1.000        0.000        0.000        3.000        0.000        0.000        0.000        0.000        0.000        0.000        0.000        3.000        0.000        0.000        0.000        0.000        0.000        0.000        0.000        0.000        0.000        3.000        0.000        0.000        0.000        0.000        0.000        4.000        0.000        0.000        0.000      100.000        0.000        0.000        1.157        1.168        1.542
      30.000  -256227.055    27999.865    15198.529    33373.649      119.187  -382404.777    49486.491       25.971       25.898        2.632        2.588        2.553        2.588        2.486        3.083        2.684        2.503        3.181        2.694        2.668        2.604        3.043        2.894        2.692        2.671        0.496        0.000        1.000        0.000        0.000        3.000        0.000        0.000        3.000        0.000        0.000        0.000        0.000        0.000        0.000        0.000        6.000        0.000        0.000        0.000        0.000        0.000        0.000        0.000        0.000        0.000        3.000        0.000        0.000        1.000        0.000        0.000        4.000        0.000        0.000        0.000      100.000        0.000        0.000        1.280        1.314        1.703
      40.000  -255629.370    28295.284    15535.419    33357.110      130.032  -380376.089    47428.874       26.227       25.867        2.625        2.562        2.495        2.616        2.595        3.016        2.718        2.490        3.194        2.707        2.677        2.626        3.063        2.919        2.701        2.600        0.499        0.000        1.000        0.000        0.000        3.000        0.000        0.000        2.000        0.000        0.000        0.000        0.000        0.000        0.000        0.000        3.000        0.000        0.000        0.000        0.000        0.000        0.000        0.000        0.000        0.000        2.000        0.000        0.000        0.000        0.000        0.000        2.000        0.000        0.000        0.000      100.000        0.000        0.000        1.630        1.686        1.955
      50.000  -255597.767    28754.281    15401.685    33372.102      127.717  -380622.721    47369.169       26.171       25.853        2.628        2.617        2.545        2.585        2.523        3.006        2.715        2.527        3.206        2.712        2.648        2.660        3.052        2.964        2.652        2.598        0.491        0.000        1.000        0.000        0.000        2.000        0.000        0.000        2.000        0.000        0.000        0.000        0.000        0.000        0.000        0.000        4.000        0.000        0.000        0.000        0.000        0.000        0.000        0.000        0.000        0.000        0.000        0.000        0.000        0.000        0.000        0.000        3.000        0.000        4.494        0.000       95.506        0.000        0.000        1.566        1.599        1.992
      60.000  -255114.856    27024.130    15504.611    33373.330      116.023  -379264.221    48131.270       26.211       25.736        2.660        2.586        2.544        2.663        2.505        3.008        2.687        2.511        3.248        2.648        2.650        2.678        3.072        2.882        2.662        2.611        0.492        0.000        1.000        0.000        0.000        2.000        0.000        0.000        2.000        0.000        0.000        0.000        0.000        0.000        0.000        0.000        1.000        0.000        0.000        0.000        0.000        0.000        0.000        0.000        0.000        0.000        0.000        0.000        0.000        0.000        0.000        0.000        5.000        0.000        7.865        0.000       92.135        0.000        0.000        1.445        1.474        1.848
      70.000  -254794.408    27858.586    15585.954    33336.971      107.127  -379322.085    47639.039       25.892       25.674        2.586        2.553        2.478        2.662        2.516        3.009        2.696        2.514        3.178        2.678        2.629        2.663        3.084        2.919        2.697        2.606        0.482        0.000        1.000        0.000        0.000        2.000        0.000        0.000        2.000        0.000        0.000        0.000        0.000        0.000        0.000        0.000        5.000        0.000        0.000        0.000        0.000        0.000        0.000        0.000        0.000        0.000        0.000        0.000        0.000        1.000        0.000        0.000        7.000        0.000        0.000        0.000      100.000        0.000        0.000        1.688        1.735        2.013
      80.000  -254227.461    26357.674    15933.859    33336.910      137.687  -379350.333    49356.742       25.813       25.579        2.640        2.589        2.565        2.654        2.531        3.024        2.679        2.473        3.207        2.653        2.701        2.611        3.068        2.851        2.671        2.641        0.489        0.000        1.000        0.000        0.000        2.000        0.000        0.000        1.000        0.000        0.000        0.000        0.000        0.000        0.000        0.000        1.000        0.000        0.000        0.000        0.000        0.000        0.000        0.000        0.000        0.000        1.000        0.000        0.000        1.000        0.000        0.000        3.000        0.000        0.000        0.000      100.000        0.000        0.000        1.624        1.649        2.020
      90.000  -254489.168    27792.291    15715.128    33451.777      132.125  -378514.028    46933.539       25.896       25.676        2.581        2.567        2.485        2.663        2.531        3.027        2.686        2.553        3.213        2.696        2.652        2.669        3.106        2.879        2.704        2.605        0.465        0.000        1.000        0.000        0.000        2.000        0.000        0.000        2.000        0.000        0.000        0.000        0.000        0.000        0.000        0.000        4.000        0.000        0.000        0.000        0.000        0.000        0.000        0.000        0.000        0.000        0.000        0.000        0.000        0.000        0.000        0.000        5.000        0.000        0.000        0.000      100.000        0.000        0.000        1.703        1.754        2.221
     100.000  -253939.166    26005.279    15434.019    33350.298      154.315  -377572.699    48689.622       25.753       25.696        2.692        2.560        2.523        2.606        2.537        3.020        2.706        2.551        3.244        2.689        2.704        2.594        3.081        2.945        2.689        2.581        0.500        0.000        1.000        0.000        0.000        1.000        0.000        0.000        1.000        0.000        0.000        0.000        0.000        0.000        0.000        0.000        4.000        0.000        0.000        0.000        0.000        0.000        0.000        0.000        0.000        0.000        1.000        0.000        0.000        0.000        0.000        0.000        5.000        0.000        4.494        0.000       95.506        0.000        0.000        1.621        1.645        2.167
     110.000  -253424.116    26211.370    15317.012    33430.083      126.579  -375723.918    47214.757       25.800       25.512        2.654        2.577        2.484        2.571        2.508        3.053        2.687        2.526        3.226        2.709        2.632        2.649        3.070        2.928        2.618        2.576        0.514        0.000        1.000        0.000        0.000        2.000        0.000        0.000        2.000        0.000        0.000        0.000        0.000        0.000        0.000        0.000        2.000        0.000        0.000        0.000        0.000        0.000        0.000        0.000        0.000        0.000        2.000        0.000        0.000        0.000        0.000        0.000        6.000        0.000        0.000        0.000      100.000        0.000        0.000        1.677        1.710        2.149
     120.000  -253488.728    27653.199    15022.805    33467.999      107.153  -375572.366    45832.482       25.751       25.707        2.677        2.592        2.515        2.606        2.534        3.064        2.725        2.540        3.155        2.721        2.629        2.660        3.132        2.930        2.681        2.579        0.485        0.000        1.000        0.000        0.000        2.000        0.000        0.000        2.000        0.000        0.000        0.000        0.000        0.000        0.000        0.000        6.000        0.000        0.000        0.000        0.000        0.000        0.000        0.000        0.000        0.000        2.000        0.000        0.000        0.000        0.000        0.000        5.000        0.000        0.000        0.000      100.000        0.000        0.000        1.461        1.500        1.969
     130.000  -253336.970    27647.556    15395.529    33440.668      101.435  -375041.561    45119.402       26.042       25.841        2.639        2.608        2.548        2.594        2.496        2.965        2.653        2.546        3.187        2.661        2.651        2.617        3.090        2.914        2.691        2.638        0.494        0.000        1.000        0.000        0.000        2.000        0.000        0.000        2.000        0.000        0.000        0.000        0.000        0.000        0.000        0.000        5.000        0.000        0.000        0.000        0.000        0.000        0.000        0.000        0.000        0.000        1.000        0.000        0.000        0.000        0.000        0.000        4.000        0.000        4.494        0.000       95.506        0.000        0.000        1.749        1.796        2.197
     140.000  -253000.564    26905.076    15224.439    33467.738      128.863  -375144.539    46417.859       25.919       25.831        2.638        2.622        2.540        2.628        2.517        2.977        2.702        2.529        3.199        2.698        2.681        2.591        3.044        2.981        2.641        2.630        0.489        0.000        1.000        0.000        0.000        2.000        0.000        0.000        3.000        0.000        0.000        0.000        0.000        0.000        0.000        0.000        2.000        0.000        0.000        0.000        0.000        0.000        0.000        0.000        0.000        0.000        0.000        0.000        0.000        0.000        0.000        0.000        4.000        0.000        4.494        0.000       95.506        0.000        0.000        1.751        1.786        2.312
     150.000  -253265.665    26249.279    15009.968    33564.002      135.439  -375598.051    47373.699       25.976       25.841        2.666        2.608        2.528        2.643        2.549        3.020        2.672        2.578        3.215        2.640        2.661        2.637        3.027        2.971        2.667        2.568        0.480        0.000        1.000        0.000        0.000        2.000        0.000        0.000        1.000        0.000        0.000        0.000        0.000        0.000        0.000        0.000        4.000        0.000        0.000        0.000        0.000        0.000        0.000        0.000        0.000        1.000        2.000        0.000        0.000        1.000        0.000        0.000        9.000        0.000        4.494        0.000       95.506        0.000        0.000        1.598        1.625        2.197
     160.000  -253304.521    26635.201    14969.568    33353.925      123.198  -375268.925    46882.513       25.997       25.870        2.655        2.617        2.514        2.596        2.488        3.042        2.722        2.541        3.203        2.627        2.651        2.679        3.058        2.943        2.684        2.610        0.493        0.000        1.000        0.000        0.000        2.000        0.000        0.000        2.000        0.000        0.000        0.000        0.000        0.000        0.000        0.000        7.000        0.000        0.000        0.000        0.000        0.000        0.000        0.000        0.000        1.000        1.000        0.000        0.000        0.000        0.000        0.000        2.000        0.000        4.494        0.000       95.506        0.000        0.000        1.508        1.534        2.129
     170.000  -252837.186    26482.745    15616.964    33341.803      126.334  -374315.092    45910.060       25.951       25.844        2.664        2.601        2.533        2.586        2.575        2.908        2.708        2.564        3.248        2.626        2.636        2.624        3.110        2.979        2.657        2.562        0.502        0.000        1.000        0.000        0.000        2.000        0.000        0.000        2.000        0.000        0.000        0.000        0.000        0.000        0.000        0.000        1.000        0.000        0.000        0.000        0.000        0.000        0.000        0.000        0.000        0.000        0.000        0.000        0.000        0.000        0.000        0.000        6.000        0.000        4.494        0.000       95.506        0.000        0.000        1.666        1.703        2.135
     180.000  -253221.406    25782.727    15019.497    33551.495      131.144  -375662.455    47956.187       25.972       25.864        2.651        2.603        2.492        2.600        2.556        3.015        2.678        2.584        3.190        2.680        2.649        2.625        3.082        2.960        2.680        2.579        0.488        0.000        1.000        0.000        0.000        2.000        0.000        0.000        2.000        0.000        0.000        0.000        0.000        0.000        0.000        0.000        7.000        0.000        0.000        0.000        0.000        0.000        0.000        0.000        0.000        0.000        0.000        0.000        0.000        0.000        0.000        0.000        6.000        0.000        4.494        0.000       95.506        0.000        0.000        1.477        1.505        2.006
     190.000  -252946.430    26405.103    15349.423    33386.334      113.946  -374370.233    46168.996       25.789       25.646        2.658        2.598        2.484        2.581        2.562        3.006        2.697        2.594        3.204        2.706        2.674        2.658        3.119        2.950        2.685        2.618        0.481        0.000        1.000        0.000        0.000        2.000        0.000        0.000        1.000        0.000        0.000        0.000        0.000        0.000        0.000        0.000        3.000        0.000        0.000        0.000        0.000        0.000        0.000        0.000        0.000        1.000        1.000        0.000        0.000        0.000        0.000        0.000        3.000        0.000        0.000        0.000      100.000        0.000        0.000        1.429        1.442        1.972
     200.000  -252415.067    26200.590    15360.657    33245.890      157.491  -373210.663    45830.967       25.840       25.925        2.693        2.584        2.484        2.621        2.513        3.062        2.718        2.558        3.212        2.713        2.685        2.638        3.067        2.920        2.723        2.628        0.467        0.000        1.000        0.000        0.000        2.000        0.000        0.000        1.000        0.000        0.000        0.000        0.000        0.000        0.000        0.000        3.000        0.000        0.000        0.000        0.000        0.000        0.000        0.000        0.000        0.000        1.000        0.000        0.000        1.000        0.000        0.000        4.000        0.000        0.000        0.000      100.000        0.000        0.000        1.531        1.559        1.994
     210.000  -252935.755    26398.346    15150.366    33305.792      118.926  -372923.511    45014.326       25.863       25.969        2.706        2.589        2.507        2.621        2.561        3.013        2.689        2.634        3.147        2.708        2.671        2.633        3.045        2.947        2.687        2.573        0.498        0.000        1.000        0.000        0.000        2.000        0.000        0.000        1.000        0.000        0.000        0.000        0.000        0.000        0.000        0.000        2.000        0.000        0.000        0.000        0.000        0.000        0.000        0.000        0.000        0.000        1.000        0.000        0.000        0.000        0.000        0.000        8.000        0.000        0.000        0.000      100.000        0.000        0.000        1.491        1.500        1.959
     220.000  -252216.247    25049.247    15357.372    33500.736      133.353  -373457.176    47200.221       25.850       25.883        2.714        2.604        2.538        2.606        2.553        2.998        2.709        2.542        3.132        2.589        2.694        2.645        3.040        2.932        2.654        2.588        0.500        0.000        1.000        0.000        0.000        2.000        0.000        0.000        2.000        0.000        0.000        0.000        0.000        0.000        0.000        0.000        5.000        0.000        0.000        0.000        0.000        0.000        0.000        0.000        0.000        0.000        3.000        0.000        0.000        0.000        0.000        0.000        5.000        0.000        4.494        0.000       95.506        0.000        0.000        1.441        1.455        2.055
     230.000  -252632.114    26005.626    15601.467    33511.400      120.070  -373127.006    45256.329       25.939       25.571        2.691        2.591        2.528        2.657        2.557        3.076        2.722        2.614        3.185        2.646        2.709        2.649        3.018        3.039        2.644        2.600        0.478        0.000        1.000        0.000        0.000        2.000        0.000        0.000        2.000        0.000        0.000        0.000        0.000        0.000        0.000        0.000        2.000        0.000        0.000        0.000        0.000        0.000        0.000        0.000        0.000        1.000        2.000        0.000        0.000        0.000        0.000        0.000        5.000        0.000        4.494        0.000       95.506        0.000        0.000        1.413        1.419        1.956
     240.000  -252471.785    26270.904    15140.430    33472.979      120.825  -373115.483    45638.560       25.578       25.586        2.651        2.552        2.543        2.593        2.557        2.950        2.702        2.585        3.134        2.628        2.637        2.645        3.060        2.917        2.680        2.571        0.492        0.000        1.000        0.000        0.000        2.000        0.000        0.000        1.000        0.000        0.000        0.000        0.000        0.000        0.000        0.000        2.000        0.000        0.000        0.000        0.000        0.000        0.000        0.000        0.000        1.000        3.000        0.000        0.000        0.000        0.000        0.000        5.000        0.000        4.494        0.000       95.506        0.000        0.000        1.458        1.498        1.922
     250.000  -252469.299    26077.188    15451.365    33503.811      118.536  -372929.994    45309.795       25.887       25.775        2.671        2.592        2.493        2.583        2.587        3.034        2.714        2.577        3.240        2.661        2.691        2.626        3.134        2.975        2.713        2.591        0.491        0.000        1.000        0.000        0.000        2.000        0.000        0.000        0.000        0.000        0.000        0.000        0.000        1.000        0.000        0.000        3.000        0.000        0.000        0.000        0.000        0.000        0.000        0.000        0.000        0.000        7.000        0.000        0.000        0.000        0.000        0.000        9.000        0.000        0.000        0.000      100.000        0.000        0.000        1.452        1.477        1.985
     260.000  -252038.594    25021.915    15327.449    33501.238      130.525  -372715.132    46695.412       25.677       25.503        2.633        2.560        2.498        2.579        2.499        3.002        2.729        2.552        3.144        2.647        2.693        2.680        3.054        2.978        2.709        2.540        0.488        0.000        1.000        0.000        0.000        1.000        0.000        0.000        1.000        0.000        0.000        0.000        0.000        0.000        0.000        0.000        4.000        0.000        0.000        0.000        0.000        0.000        0.000        0.000        0.000        1.000        0.000        0.000        0.000        0.000        0.000        0.000        3.000        0.000        4.494        0.000       95.506        0.000        0.000        1.377        1.401        1.894
     270.000  -251887.044    26537.953    15163.674    33396.654      123.946  -371710.069    44600.799       26.302       26.334        2.623        2.587        2.540        2.621        2.527        2.994        2.753        2.582        3.219        2.697        2.703        2.619        3.082        2.970        2.697        2.603        0.486        0.000        1.000        0.000        0.000        2.000        0.000        0.000        0.000        0.000        0.000        0.000        0.000        0.000        0.000        0.000        5.000        0.000        0.000        0.000        0.000        0.000        0.000        0.000        0.000        2.000        1.000        0.000        0.000        0.000        0.000        0.000        2.000        0.000        0.000        0.000      100.000        0.000        0.000        1.605        1.628        2.090
     280.000  -252501.067    25852.339    15339.886    33237.383      121.150  -373538.271    46486.446       25.883       26.016        2.651        2.578        2.562        2.577        2.507        2.941        2.723        2.556        3.224        2.692        2.698        2.650        3.104        2.943        2.653        2.587        0.497        0.000        1.000        0.000        0.000        1.000        0.000        0.000        0.000        0.000        0.000        0.000        0.000        0.000        0.000        0.000        4.000        0.000        0.000        0.000        0.000        0.000        0.000        0.000        0.000        1.000        1.000        0.000        0.000        0.000        0.000        0.000        3.000        0.000        4.494        0.000       95.506        0.000        0.000        1.705        1.738        2.251
     290.000  -251333.719    25070.292    15235.192    33618.579      137.148  -371011.155    45616.224       25.706       25.732        2.643        2.568        2.532        2.581        2.548        2.981        2.721        2.550        3.213        2.689        2.686        2.642        3.086        3.014        2.632        2.580        0.507        0.000        1.000        0.000        0.000        2.000        0.000        0.000        0.000        0.000        0.000        0.000        0.000        0.000        0.000        0.000        3.000        0.000        0.000        0.000        0.000        0.000        0.000        0.000        0.000        1.000        2.000        0.000        0.000        2.000        0.000        0.000        2.000        0.000        4.494        0.000       95.506        0.000        0.000        1.225        1.275        1.864
     300.000  -251366.440    26555.844    15040.146    33409.926      132.338  -371916.671    45411.976       25.928       25.936        2.674        2.571        2.517        2.610        2.574        3.089        2.686        2.614        3.186        2.658        2.680        2.635        3.013        3.021        2.617        2.625        0.488        0.000        1.000        0.000        0.000        2.000        0.000        0.000        0.000        0.000        0.000        0.000        0.000        0.000        0.000        0.000        3.000        0.000        0.000        0.000        0.000        0.000        0.000        0.000        0.000        1.000        2.000        0.000        0.000        1.000        0.000        0.000        1.000        0.000        0.000        0.000      100.000        0.000        0.000        1.666        1.706        2.401
     310.000  -251402.316    26148.233    15253.611    33451.655      120.766  -372757.263    46380.683       25.795       25.971        2.660        2.615        2.522        2.602        2.546        3.048        2.711        2.607        3.211        2.706        2.690        2.674        3.124        2.991        2.700        2.616        0.498        0.000        1.000        0.000        0.000        2.000        0.000        0.000        0.000        0.000        0.000        0.000        0.000        0.000        0.000        0.000        0.000        0.000        0.000        0.000        0.000        0.000        0.000        0.000        0.000        0.000        0.000        0.000        0.000        1.000        0.000        0.000        2.000        0.000        0.000        0.000      100.000        0.000        0.000        1.724        1.760        2.425
     320.000  -251776.929    24400.475    14833.576    33594.484      142.990  -370828.008    46079.553       25.697       25.739        2.670        2.613        2.515        2.602        2.538        2.969        2.693        2.514        3.192        2.707        2.672        2.697        3.056        3.003        2.707        2.599        0.482        0.000        1.000        0.000        0.000        2.000        0.000        0.000        0.000        0.000        0.000        0.000        0.000        0.000        0.000        0.000        2.000        0.000        0.000        0.000        0.000        0.000        0.000        0.000        0.000        1.000        0.000        0.000        0.000        3.000        0.000        0.000        6.000        0.000        0.000        0.000      100.000        0.000        0.000        1.852        1.900        2.624
     330.000  -251687.730    25262.708    15024.927    33637.289      144.666  -372263.725    46506.404       26.141       26.070        2.643        2.579        2.520        2.651        2.500        3.012        2.715        2.585        3.087        2.636        2.705        2.636        3.067        2.944        2.701        2.637        0.478        0.000        1.000        0.000        0.000        1.000        0.000        0.000        0.000        0.000        0.000        0.000        0.000        0.000        0.000        0.000        2.000        0.000        0.000        0.000        0.000        0.000        0.000        0.000        0.000        0.000        0.000        0.000        0.000        1.000        0.000        0.000        6.000        0.000        0.000        0.000      100.000        0.000        0.000        1.824        1.876        2.618
     340.000  -251149.951    24720.958    15363.700    33473.709      120.148  -372084.858    47256.392       26.148       26.088        2.672        2.535        2.512        2.624        2.492        3.017        2.687        2.571        3.202        2.650        2.680        2.612        3.110        2.913        2.639        2.586        0.499        0.000        1.000        0.000        0.000        1.000        0.000        0.000        0.000        0.000        0.000        0.000        0.000        0.000        0.000        0.000        1.000        0.000        0.000        0.000        0.000        0.000        0.000        0.000        0.000        0.000        0.000        0.000        0.000        1.000        0.000        0.000        4.000        0.000        4.494        0.000       95.506        0.000        0.000        1.797        1.836        2.539
     350.000  -252012.779    25572.330    15028.964    33343.414      145.944  -371556.937    45453.505       26.049       26.108        2.668        2.563        2.494        2.675        2.504        2.925        2.697        2.535        3.196        2.651        2.680        2.641        3.119        2.946        2.690        2.607        0.460        0.000        1.000        0.000        0.000        2.000        0.000        0.000        0.000        0.000        0.000        0.000        0.000        0.000        0.000        0.000        3.000        0.000        0.000        0.000        0.000        0.000        0.000        0.000        0.000        2.000        2.000        0.000        0.000        1.000        0.000        0.000        1.000        0.000        0.000        0.000      100.000        0.000        0.000        1.854        1.893        2.568
     360.000  -251612.637    25317.780    14914.671    33578.326      136.851  -370287.061    44726.796       26.066       25.711        2.640        2.563        2.502        2.679        2.544        2.919        2.673        2.540        3.249        2.700        2.695        2.616        3.144        2.954        2.681        2.565        0.491        0.000        1.000        0.000        0.000        2.000        0.000        0.000        0.000        0.000        0.000        0.000        0.000        0.000        0.000        0.000        3.000        0.000        0.000        0.000        0.000        0.000        0.000        0.000        0.000        1.000        1.000        0.000        0.000        3.000        0.000        0.000        6.000        0.000        4.494        0.000       95.506        0.000        0.000        1.934        1.962        2.757
     370.000  -252005.247    24206.230    14942.605    33695.505      135.500  -372035.979    47050.892       25.958       25.724        2.636        2.508        2.532        2.667        2.486        3.049        2.706        2.586        3.180        2.667        2.672        2.608        3.101        2.977        2.712        2.612        0.489        0.000        1.000        0.000        0.000        1.000        0.000        0.000        0.000        0.000        0.000        0.000        0.000        0.000        0.000        0.000        1.000        0.000        0.000        0.000        0.000        0.000        0.000        0.000        0.000        1.000        3.000        0.000        0.000        2.000        0.000        0.000        3.000        0.000        4.494        0.000       95.506        0.000        0.000        1.942        1.932        2.862
     380.000  -251374.270    25738.671    15165.797    33425.939      116.247  -371361.803    45540.879       26.036       26.084        2.629        2.565        2.524        2.636        2.506        2.995        2.729        2.544        3.158        2.686        2.662        2.668        3.112        3.039        2.682        2.557        0.511        0.000        0.000        0.000        0.000        1.000        0.000        0.000        0.000        0.000        0.000        0.000        0.000        0.000        0.000        0.000        3.000        0.000        0.000        0.000        0.000        0.000        0.000        0.000        0.000        0.000        3.000        0.000        0.000        2.000        0.000        0.000        6.000        0.000        4.494        0.000       95.506        0.000        0.000        1.795        1.805        2.952
     390.000  -251055.315    25010.045    15237.387    33548.718      112.575  -370970.435    46006.395       25.978       25.621        2.607        2.556        2.490        2.613        2.463        3.029        2.685        2.545        3.189        2.709        2.695        2.620        3.108        2.978        2.664        2.630        0.488        0.000        0.000        0.000        0.000        1.000        0.000        0.000        1.000        0.000        0.000        0.000        0.000        0.000        0.000        0.000        4.000        0.000        0.000        0.000        0.000        0.000        0.000        0.000        0.000        1.000        0.000        0.000        0.000        0.000        0.000        0.000        7.000        0.000        4.494        0.000       95.506        0.000        0.000        1.868        1.835        3.238
     400.000  -251697.244    24770.117    15058.773    33405.500      113.210  -372513.482    47468.638       25.952       25.899        2.630        2.571        2.501        2.680        2.471        3.019        2.710        2.557        3.233        2.643        2.711        2.626        3.121        2.925        2.613        2.533        0.489        0.000        1.000        0.000        0.000        2.000        0.000        0.000        1.000        0.000        0.000        0.000        0.000        0.000        0.000        0.000        3.000        0.000        0.000        0.000        0.000        0.000        0.000        0.000        0.000        1.000        0.000        0.000        0.000        2.000        0.000        0.000        1.000        0.000        0.000        0.000      100.000        0.000        0.000        2.002        1.960        3.480
     410.000  -252316.930    25742.458    14789.626    33624.402      134.288  -371628.973    45021.268       25.958       25.955        2.636        2.598        2.501        2.658        2.479        3.030        2.646        2.552        3.154        2.673        2.704        2.609        3.069        3.001        2.651        2.563        0.486        0.000        0.000        0.000        0.000        1.000        0.000        0.000        0.000        0.000        0.000        0.000        0.000        0.000        0.000        0.000        4.000        0.000        0.000        0.000        0.000        0.000        0.000        0.000        0.000        0.000        5.000        0.000        0.000        0.000        0.000        0.000        2.000        0.000        4.494        0.000       95.506        0.000        0.000        1.898        1.837        3.643
     420.000  -251289.633    26041.518    14650.193    33452.467      137.909  -371002.834    45431.113       26.294       26.170        2.650        2.605        2.519        2.643        2.464        3.023        2.653        2.537        3.158        2.713        2.689        2.657        3.146        3.020        2.646        2.593        0.500        0.000        1.000        0.000        0.000        2.000        0.000        0.000        0.000        0.000        0.000        0.000        0.000        0.000        0.000        0.000        2.000        0.000        0.000        0.000        0.000        0.000        0.000        0.000        0.000        1.000        2.000        0.000        0.000        0.000        0.000        0.000        2.000        0.000        0.000        0.000      100.000        0.000        0.000        2.098        2.057        3.588
     430.000  -251475.036    24744.349    15046.792    33588.300      126.417  -370439.128    45458.234       25.745       25.919        2.640        2.581        2.524        2.658        2.545        3.064        2.698        2.551        3.193        2.633        2.682        2.665        3.107        3.024        2.673        2.526        0.485        0.000        1.000        0.000        0.000        1.000        0.000        0.000        0.000        0.000        0.000        0.000        0.000        0.000        0.000        0.000        2.000        0.000        0.000        0.000        0.000        0.000        0.000        0.000        0.000        3.000        1.000        0.000        0.000        2.000        0.000        0.000        7.000        0.000        4.494        0.000       95.506        0.000        0.000        1.931        1.913        3.487
     440.000  -251609.757    26007.164    14493.741    33714.220      131.349  -370935.846    44979.615       25.905       25.853        2.621        2.574        2.515        2.663        2.485        2.968        2.716        2.587        3.207        2.701        2.676        2.657        3.149        3.039        2.647        2.575        0.473        0.000        0.000        0.000        0.000        1.000        0.000        0.000        0.000        0.000        0.000        0.000        0.000        0.000        0.000        0.000        7.000        0.000        0.000        0.000        0.000        0.000        0.000        0.000        0.000        1.000        1.000        0.000        0.000        3.000        0.000        0.000        4.000        0.000        0.000        0.000      100.000        0.000        0.000        1.791        1.787        3.401
     450.000  -250963.807    26240.148    14532.719    33396.445      124.568  -369221.783    43964.096       26.167       25.958        2.662        2.569        2.638        2.670        2.512        2.987        2.710        2.587        3.258        2.677        2.688        2.664        3.122        3.032        2.643        2.496        0.485        0.000        1.000        0.000        0.000        2.000        0.000        0.000        0.000        0.000        0.000        0.000        0.000        0.000        0.000        0.000        3.000        0.000        0.000        0.000        0.000        0.000        0.000        0.000        0.000        0.000        1.000        0.000        0.000        1.000        0.000        0.000        2.000        0.000        0.000        0.000      100.000        0.000        0.000        1.979        1.973        3.537
     460.000  -250666.042    25280.167    14836.213    33450.510      148.617  -369036.180    44654.631       26.036       25.949        2.648        2.579        2.617        2.656        2.486        2.999        2.713        2.589        3.196        2.631        2.639        2.642        3.118        3.015        2.581        2.586        0.477        0.000        1.000        0.000        0.000        1.000        0.000        0.000        0.000        0.000        0.000        0.000        0.000        0.000        0.000        0.000        5.000        0.000        0.000        0.000        0.000        0.000        0.000        0.000        0.000        0.000        0.000        0.000        0.000        2.000        0.000        0.000        5.000        0.000        4.494        0.000       95.506        0.000        0.000        2.202        2.213        3.772
     470.000  -250950.979    26274.777    14802.764    33341.008      125.358  -370308.389    44813.503       25.818       25.784        2.682        2.607        2.606        2.674        2.536        3.063        2.695        2.574        3.130        2.614        2.655        2.653        3.176        3.028        2.700        2.584        0.484        0.000        1.000        0.000        0.000        2.000        0.000        0.000        0.000        0.000        0.000        0.000        0.000        0.000        0.000        0.000        4.000        0.000        0.000        0.000        0.000        0.000        0.000        0.000        0.000        0.000        0.000        0.000        0.000        3.000        0.000        0.000        6.000        0.000        0.000        0.000      100.000        0.000        0.000        2.411        2.468        3.837
     480.000  -251057.479    24630.225    15037.599    33446.447      148.201  -371061.738    46741.786       25.701       25.681        2.660        2.628        2.590        2.683        2.584        3.011        2.704        2.595        3.194        2.696        2.694        2.635        3.035        3.024        2.606        2.562        0.483        0.000        1.000        0.000        0.000        2.000        0.000        0.000        0.000        0.000        0.000        0.000        0.000        0.000        0.000        0.000        2.000        0.000        0.000        0.000        0.000        0.000        0.000        0.000        0.000        0.000        1.000        0.000        0.000        0.000        0.000        0.000        2.000        0.000        0.000        0.000      100.000        0.000        0.000        2.738        2.825        4.071
     490.000  -251329.647    24980.438    15088.244    33266.924      127.709  -370741.174    45948.211       26.183       26.095        2.524        2.564        2.627        2.638        2.545        3.069        2.734        2.565        3.169        2.649        2.671        2.609        3.116        3.010        2.652        2.537        0.493        0.000        1.000        0.000        0.000        2.000        0.000        0.000        0.000        0.000        0.000        0.000        0.000        0.000        0.000        0.000        4.000        0.000        0.000        0.000        0.000        0.000        0.000        0.000        0.000        0.000        2.000        0.000        0.000        0.000        0.000        0.000        3.000        0.000        4.494        0.000       95.506        0.000        0.000        2.557        2.577        3.865
     500.000  -250535.098    23989.101    15070.126    33663.930      128.517  -369276.057    45889.285       25.829       25.884        2.641        2.608        2.594        2.644        2.537        2.929        2.681        2.552        3.168        2.657        2.678        2.613        3.095        2.986        2.625        2.570        0.489        0.000        1.000        0.000        0.000        2.000        0.000        0.000        0.000        0.000        0.000        0.000        0.000        0.000        0.000        0.000        3.000        0.000        0.000        0.000        0.000        0.000        0.000        0.000        0.000        0.000        2.000        0.000        0.000        1.000        0.000        0.000        1.000        0.000        4.494        0.000       95.506        0.000        0.000        2.614        2.634        3.814
     510.000  -250957.681    24831.794    15147.928    33548.813      106.276  -369433.366    44840.872       26.231       26.266        2.626        2.578        2.652        2.667        2.486        2.957        2.696        2.584        3.206        2.649        2.657        2.651        3.109        2.989        2.620        2.575        0.487        0.000        1.000        0.000        0.000        1.000        0.000        0.000        0.000        0.000        0.000        0.000        0.000        0.000        0.000        0.000        5.000        0.000        0.000        0.000        0.000        0.000        0.000        0.000        0.000        0.000        3.000        0.000        0.000        0.000        0.000        0.000        7.000        0.000        0.000        0.000      100.000        0.000        0.000        2.800        2.797        3.906
     520.000  -250900.335    25483.142    14914.460    33403.593      124.450  -369050.760    44224.781       25.958       26.114        2.627        2.637        2.615        2.699        2.566        2.959        2.684        2.581        3.243        2.639        2.660        2.660        3.082        2.989        2.612        2.534        0.479        0.000        1.000        0.000        0.000        1.000        0.000        0.000        0.000        0.000        0.000        0.000        0.000        0.000        0.000        0.000        5.000        0.000        0.000        0.000        0.000        0.000        0.000        0.000        0.000        0.000        0.000        0.000        0.000        2.000        0.000        0.000        2.000        0.000        0.000        0.000      100.000        0.000        0.000        2.545        2.556        3.797
     530.000  -251447.079    25031.535    14874.920    33424.358      122.420  -370291.559    45391.248       25.868       25.942        2.637        2.558        2.610        2.658        2.510        3.058        2.717        2.584        3.210        2.701        2.688        2.651        3.109        3.001        2.674        2.501        0.490        0.000        1.000        0.000        0.000        2.000        0.000        0.000        0.000        0.000        0.000        0.000        0.000        0.000        0.000        0.000        2.000        0.000        0.000        0.000        0.000        0.000        0.000        0.000        0.000        0.000        1.000        0.000        0.000        1.000        0.000        0.000        4.000        0.000        4.494        0.000       95.506        0.000        0.000        2.667        2.696        3.785
     540.000  -251273.788    25867.357    14833.766    33416.197      136.304  -369836.655    44309.243       25.983       25.858        2.649        2.595        2.620        2.639        2.511        3.043        2.720        2.620        3.182        2.662        2.702        2.650        3.150        3.002        2.661        2.504        0.489        0.000        1.000        0.000        0.000        2.000        0.000        0.000        0.000        0.000        0.000        0.000        0.000        0.000        0.000        0.000        5.000        0.000        0.000        0.000        0.000        0.000        0.000        0.000        0.000        2.000        1.000        0.000        0.000        0.000        0.000        0.000        6.000        0.000        0.000        0.000      100.000        0.000        0.000        2.613        2.653        3.919
     550.000  -250845.747    24175.219    15073.998    33526.647      125.049  -368634.469    44887.810       26.002       25.933        2.563        2.583        2.668        2.623        2.537        3.021        2.699        2.545        3.218        2.692        2.688        2.624        3.152        3.002        2.719        2.506        0.490        0.000        1.000        0.000        0.000        2.000        0.000        0.000        0.000        0.000        0.000        0.000        0.000        0.000        0.000        0.000        0.000        0.000        0.000        0.000        0.000        0.000        0.000        0.000        0.000        1.000        2.000        0.000        0.000        1.000        0.000        0.000        2.000        0.000        0.000        0.000      100.000        0.000        0.000        2.394        2.407        4.001
     560.000  -251009.027    24891.544    15097.298    33450.426      121.504  -369863.241    45293.442       26.074       26.198        2.584        2.590        2.657        2.686        2.605        3.103        2.711        2.558        3.124        2.636        2.664        2.618        3.167        2.986        2.707        2.531        0.485        0.000        1.000        0.000        0.000        2.000        0.000        0.000        0.000        0.000        0.000        0.000        0.000        0.000        0.000        0.000        4.000        0.000        0.000        0.000        0.000        0.000        0.000        0.000        0.000        0.000        2.000        0.000        0.000        1.000        0.000        0.000        3.000        0.000        0.000        0.000      100.000        0.000        0.000        2.224        2.214        4.011
     570.000  -250919.010    23755.371    14891.632    33395.184      114.077  -369500.822    46425.549       26.397       26.094        2.611        2.553        2.645        2.682        2.564        2.932        2.708        2.583        3.186        2.639        2.700        2.537        3.113        3.027        2.664        2.537        0.496        0.000        1.000        0.000        0.000        2.000        0.000        0.000        0.000        0.000        0.000        0.000        0.000        0.000        0.000        0.000        1.000        0.000        0.000        0.000        0.000        0.000        0.000        0.000        0.000        0.000        1.000        0.000        0.000        1.000        0.000        0.000        4.000        0.000        0.000        0.000      100.000        0.000        0.000        2.367        2.360        3.964
     580.000  -250695.804    25170.158    14618.678    33502.976      103.680  -368686.011    44594.715       26.206       26.088        2.555        2.619        2.653        2.680        2.584        3.013        2.681        2.587        3.242        2.689        2.693        2.596        3.125        3.059        2.693        2.520        0.466        0.000        1.000        0.000        0.000        2.000        0.000        0.000        0.000        0.000        0.000        0.000        0.000        0.000        0.000        0.000        2.000        0.000        0.000        0.000        0.000        0.000        0.000        0.000        0.000        1.000        3.000        0.000        0.000        0.000        0.000        0.000        6.000        0.000        0.000        0.000      100.000        0.000        0.000        2.173        2.180        3.902
     590.000  -251060.248    23702.086    15025.598    33764.226      113.484  -369571.064    45905.422       25.873       25.880        2.575        2.528        2.611        2.656        2.567        3.005        2.702        2.630        3.311        2.689        2.697        2.574        3.115        3.008        2.687        2.556        0.480        0.000        1.000        0.000        0.000        2.000        0.000        0.000        0.000        0.000        0.000        0.000        0.000        0.000        0.000        0.000        5.000        0.000        0.000        0.000        0.000        0.000        0.000        0.000        0.000        0.000        0.000        0.000        0.000        1.000        0.000        0.000        2.000        0.000        4.494        0.000       95.506        0.000        0.000        2.088        2.086        3.755
     600.000  -250166.476    23732.091    15186.373    33359.754      123.130  -369017.781    46449.957       25.926       26.331        2.547        2.579        2.676        2.637        2.579        2.951        2.706        2.549        3.271        2.631        2.689        2.633        3.180        2.997        2.667        2.539        0.486        0.000        0.000        0.000        0.000        2.000        0.000        0.000        0.000        0.000        0.000        0.000        0.000        0.000        0.000        0.000        1.000        0.000        0.000        0.000        0.000        0.000        0.000        0.000        0.000        0.000        0.000        0.000        0.000        0.000        0.000        0.000        2.000        0.000        0.000        0.000      100.000        0.000        0.000        2.450        2.405        3.843
     610.000  -250197.360    25076.466    15088.795    33492.312      109.214  -367729.082    43764.934       26.193       26.127        2.631        2.598        2.636        2.586        2.612        2.970        2.705        2.619        3.231        2.607        2.680        2.570        3.057        3.020        2.679        2.529        0.493        0.000        0.000        0.000        0.000        2.000        0.000        0.000        0.000        0.000        0.000        0.000        0.000        0.000        0.000        0.000        4.000        0.000        0.000        0.000        0.000        0.000        0.000        0.000        0.000        1.000        1.000        0.000        0.000        1.000        0.000        0.000        4.000        0.000        0.000        0.000      100.000        0.000        0.000        2.240        2.217        3.900
     620.000  -250503.328    23886.016    14906.753    33639.124      129.168  -368914.886    45850.497       26.049       26.156        2.504        2.568        2.686        2.631        2.529        3.054        2.679        2.605        3.231        2.601        2.690        2.617        3.130        2.964        2.624        2.594        0.495        0.000        1.000        0.000        0.000        1.000        0.000        0.000        0.000        0.000        0.000        0.000        0.000        0.000        0.000        0.000        1.000        0.000        0.000        0.000        0.000        0.000        0.000        0.000        0.000        0.000        0.000        0.000        0.000        3.000        0.000        0.000        2.000        0.000        0.000        0.000      100.000        0.000        0.000        2.113        2.065        3.866
     630.000  -250641.282    25843.611    15197.508    33520.926      140.203  -368969.744    43626.215       25.867       26.155        2.567        2.590        2.666        2.633        2.475        3.026        2.642        2.587        3.178        2.648        2.679        2.545        3.137        2.983        2.620        2.578        0.499        0.000        1.000        0.000        0.000        1.000        0.000        0.000        0.000        0.000        0.000        0.000        0.000        0.000        0.000        0.000        1.000        0.000        0.000        0.000        0.000        0.000        0.000        0.000        0.000        0.000        1.000        0.000        0.000        1.000        0.000        0.000        3.000        0.000        0.000        0.000      100.000        0.000        0.000        2.134        2.089        3.864
     640.000  -250913.991    24683.620    14737.950    33492.783      111.616  -370384.114    46444.154       26.031       26.279        2.578        2.561        2.679        2.553        2.509        3.031        2.699        2.555        3.272        2.619        2.705        2.590        3.154        2.993        2.622        2.563        0.486        0.000        1.000        0.000        0.000        1.000        0.000        0.000        0.000        0.000        0.000        0.000        0.000        0.000        0.000        0.000        7.000        0.000        0.000        0.000        0.000        0.000        0.000        0.000        0.000        0.000        1.000        0.000        0.000        2.000        0.000        0.000        4.000        0.000        0.000        0.000      100.000        0.000        0.000        2.154        2.128        3.576
     650.000  -251417.879    25049.967    14639.889    33383.860      136.885  -370394.217    45765.737       26.109       26.310        2.575        2.567        2.682        2.603        2.474        3.024        2.651        2.503        3.218        2.683        2.713        2.546        3.096        3.039        2.642        2.590        0.527        0.000        1.000        0.000        0.000        1.000        0.000        0.000        0.000        0.000        0.000        0.000        0.000        0.000        0.000        0.000        3.000        0.000        0.000        0.000        0.000        0.000        0.000        0.000        0.000        0.000        1.000        0.000        0.000        0.000        0.000        0.000        3.000        0.000        0.000        0.000      100.000        0.000        0.000        2.334        2.338        3.788
     660.000  -251646.689    24166.291    14619.294    33634.088      115.404  -370333.327    46151.561       25.808       25.943        2.629        2.603        2.694        2.630        2.522        3.015        2.620        2.596        3.205        2.663        2.698        2.540        3.132        2.984        2.636        2.576        0.497        0.000        1.000        0.000        0.000        1.000        0.000        0.000        0.000        0.000        0.000        0.000        0.000        0.000        0.000        0.000        1.000        0.000        0.000        0.000        0.000        0.000        0.000        0.000        0.000        0.000        5.000        0.000        0.000        0.000        0.000        0.000        3.000        0.000        0.000        0.000      100.000        0.000        0.000        2.030        2.041        3.768
     670.000  -251135.715    25436.141    14932.669    33407.653      122.999  -370294.970    45259.794       26.082       26.053        2.695        2.568        2.615        2.607        2.578        2.983        2.638        2.561        3.254        2.591        2.681        2.597        3.094        3.046        2.641        2.473        0.496        0.000        1.000        0.000        0.000        1.000        0.000        0.000        0.000        0.000        0.000        0.000        0.000        0.000        0.000        0.000        2.000        0.000        0.000        0.000        0.000        0.000        0.000        0.000        0.000        0.000        1.000        0.000        0.000        0.000        0.000        0.000        3.000        0.000        4.494        0.000       95.506        0.000        0.000        2.125        2.171        3.946
     680.000  -251146.337    25382.027    14828.952    33511.356      146.291  -369698.682    44683.719       25.878       25.977        2.698        2.605        2.704        2.693        2.492        3.034        2.641        2.516        3.227        2.645        2.693        2.612        3.114        3.002        2.630        2.585        0.482        0.000        1.000        0.000        0.000        1.000        0.000        0.000        0.000        0.000        0.000        0.000        0.000        0.000        0.000        0.000        3.000        0.000        0.000        0.000        0.000        0.000        0.000        0.000        0.000        0.000        1.000        0.000        0.000        1.000        0.000        0.000        6.000        0.000        0.000        0.000      100.000        0.000        0.000        2.156        2.175        3.869
     690.000  -250697.754    24783.400    14945.624    33455.692      117.672  -369807.186    45807.044       25.990       26.335        2.548        2.618        2.649        2.597        2.542        3.079        2.636        2.497        3.192        2.650        2.707        2.609        3.070        3.045        2.632        2.508        0.466        0.000        1.000        0.000        0.000        1.000        0.000        0.000        0.000        0.000        0.000        0.000        0.000        0.000        0.000        0.000        1.000        0.000        0.000        0.000        0.000        0.000        0.000        0.000        0.000        0.000        1.000        0.000        0.000        0.000        0.000        0.000        3.000        0.000        0.000        0.000      100.000        0.000        0.000        2.066        2.057        3.751
     700.000  -250224.409    24286.309    14893.100    33507.152      117.732  -368485.154    45456.453       25.947       26.072        2.519        2.586        2.614        2.590        2.552        3.043        2.665        2.463        3.211        2.630        2.704        2.610        3.139        2.973        2.602        2.507        0.492        0.000        1.000        0.000        0.000        1.000        0.000        0.000        0.000        0.000        0.000        0.000        0.000        0.000        0.000        0.000        1.000        0.000        0.000        0.000        0.000        0.000        0.000        0.000        0.000        0.000        2.000        0.000        0.000        1.000        0.000        0.000        2.000        0.000        0.000        0.000      100.000        0.000        0.000        2.081        2.068        3.792
     710.000  -251079.159    25192.802    15013.930    33588.580      120.777  -369654.593    44659.346       26.342       26.411        2.635        2.630        2.648        2.619        2.549        3.026        2.683        2.508        3.199        2.599        2.701        2.556        3.135        2.994        2.614        2.576        0.485        0.000        1.000        0.000        0.000        1.000        0.000        0.000        0.000        0.000        0.000        0.000        0.000        0.000        0.000        0.000        2.000        0.000        0.000        0.000        0.000        0.000        0.000        0.000        0.000        0.000        0.000        0.000        0.000        2.000        0.000        0.000        2.000        0.000        0.000        0.000      100.000        0.000        0.000        2.332        2.311        3.821
     720.000  -250192.578    24764.265    15081.283    33293.898      145.768  -368635.824    45158.032       26.176       26.295        2.610        2.610        2.712        2.645        2.554        3.030        2.653        2.560        3.236        2.691        2.677        2.558        3.118        2.958        2.616        2.531        0.479        0.000        1.000        0.000        0.000        0.000        0.000        0.000        0.000        0.000        0.000        0.000        0.000        0.000        0.000        0.000        2.000        0.000        0.000        0.000        0.000        0.000        0.000        0.000        0.000        0.000        7.000        0.000        0.000        1.000        0.000        0.000        7.000        0.000        4.494        0.000       95.506        0.000        0.000        2.140        2.116        3.562
     730.000  -251075.033    24493.832    14775.939    33475.424      114.338  -370082.903    46148.337       26.373       26.176        2.630        2.574        2.686        2.639        2.588        3.050        2.615        2.493        3.205        2.690        2.684        2.624        3.109        3.001        2.624        2.593        0.487        0.000        1.000        0.000        0.000        1.000        0.000        0.000        0.000        0.000        0.000        0.000        0.000        0.000        0.000        0.000        1.000        0.000        0.000        0.000        0.000        0.000        0.000        0.000        0.000        1.000        3.000        0.000        0.000        2.000        0.000        0.000        2.000        0.000        4.494        0.000       95.506        0.000        0.000        2.423        2.392        3.749
     740.000  -250490.639    24016.079    14839.104    33409.762      146.952  -367078.267    44175.731       26.530       26.380        2.672        2.633        2.660        2.682        2.631        3.031        2.639        2.510        3.255        2.631        2.714        2.613        3.113        2.969        2.640        2.560        0.497        0.000        1.000        0.000        0.000        1.000        0.000        0.000        0.000        0.000        0.000        0.000        0.000        0.000        0.000        0.000        4.000        0.000        0.000        0.000        0.000        0.000        0.000        0.000        0.000        0.000        0.000        0.000        0.000        1.000        0.000        0.000        5.000        0.000        4.494        0.000       95.506        0.000        0.000        2.669        2.645        3.952
     750.000  -250808.592    24361.409    14931.691    33405.236      128.537  -368085.272    44449.807       26.208       26.104        2.651        2.618        2.706        2.670        2.529        3.112        2.655        2.565        3.173        2.652        2.714        2.576        3.104        3.039        2.619        2.539        0.491        0.000        0.000        0.000        0.000        1.000        0.000        0.000        0.000        0.000        0.000        0.000        0.000        0.000        0.000        0.000        2.000        0.000        0.000        0.000        0.000        0.000        0.000        0.000        0.000        1.000        0.000        0.000        0.000        2.000        0.000        0.000        3.000        0.000        4.494        0.000       95.506        0.000        0.000        2.269        2.257        3.835
     760.000  -251032.578    24488.550    15187.909    33312.377      122.069  -370664.147    46520.663       25.808       26.072        2.646        2.597        2.673        2.665        2.534        2.994        2.643        2.549        3.277        2.638        2.706        2.584        3.069        2.974        2.604        2.564        0.461        0.000        1.000        0.000        0.000        1.000        0.000        0.000        0.000        0.000        0.000        0.000        0.000        0.000        0.000        0.000        1.000        0.000        0.000        0.000        0.000        0.000        0.000        0.000        0.000        0.000        0.000        0.000        0.000        3.000        0.000        0.000        2.000        0.000        4.494        0.000       95.506        0.000        0.000        2.210        2.183        3.951
     770.000  -249962.670    23737.246    15013.208    33506.636      144.339  -368804.572    46440.473       25.773       26.000        2.667        2.642        2.590        2.727        2.494        3.004        2.630        2.563        3.260        2.639        2.659        2.567        3.059        2.973        2.636        2.596        0.488        0.000        1.000        0.000        0.000        1.000        0.000        0.000        0.000        0.000        1.000        0.000        0.000        0.000        0.000        0.000        2.000        0.000        0.000        0.000        0.000        0.000        0.000        0.000        0.000        1.000        0.000        0.000        0.000        1.000        0.000        0.000        4.000        0.000        4.494        0.000       95.506        0.000        0.000        2.281        2.238        3.882
     780.000  -251394.985    25478.985    14910.257    33477.061      140.614  -370648.175    45246.273       25.862       26.033        2.560        2.670        2.645        2.654        2.586        3.010        2.668        2.598        3.257        2.650        2.686        2.548        3.094        2.919        2.582        2.560        0.512        0.000        1.000        0.000        0.000        1.000        0.000        0.000        0.000        0.000        0.000        0.000        0.000        0.000        0.000        0.000        1.000        0.000        0.000        0.000        0.000        0.000        0.000        0.000        0.000        0.000        1.000        0.000        0.000        0.000        0.000        0.000        1.000        0.000        4.494        0.000       95.506        0.000        0.000        2.140        2.069        3.896
     790.000  -250444.399    25528.446    15058.511    33382.030      134.698  -368571.719    44023.635       26.079       26.218        2.565        2.585        2.622        2.665        2.500        3.091        2.722        2.533        3.239        2.661        2.713        2.568        3.126        2.995        2.610        2.625        0.475        0.000        1.000        0.000        0.000        1.000        0.000        0.000        0.000        0.000        0.000        0.000        0.000        0.000        0.000        0.000        3.000        0.000        0.000        0.000        0.000        0.000        0.000        0.000        0.000        0.000        0.000        0.000        0.000        1.000        0.000        0.000        6.000        0.000        8.989        0.000       91.011        0.000        0.000        2.166        2.108        4.074
     800.000  -250748.228    23844.754    14849.307    33354.602      141.313  -369511.510    46573.306       25.837       26.206        2.580        2.588        2.643        2.667        2.452        3.013        2.709        2.551        3.172        2.610        2.671        2.576        3.015        2.995        2.580        2.610        0.489        0.000        1.000        0.000        0.000        0.000        0.000        0.000        0.000        0.000        0.000        0.000        0.000        0.000        0.000        0.000        1.000        0.000        0.000        0.000        0.000        0.000        0.000        0.000        0.000        0.000        1.000        0.000        0.000        1.000        0.000        0.000        1.000        0.000        4.494        0.000       95.506        0.000        0.000        1.997        1.947        3.914
     810.000  -251572.225    24473.940    14926.512    33741.764      125.798  -369688.960    44848.722       25.900       25.859        2.552        2.605        2.649        2.728        2.519        3.043        2.666        2.557        3.233        2.625        2.708        2.540        3.069        2.988        2.631        2.587        0.478        0.000        1.000        0.000        0.000        0.000        0.000        0.000        0.000        0.000        0.000        0.000        0.000        0.000        0.000        0.000        4.000        0.000        0.000        0.000        0.000        0.000        0.000        0.000        0.000        3.000        0.000        0.000        0.000        2.000        0.000        0.000        2.000        0.000        8.989        0.000       91.011        0.000        0.000        1.967        1.904        4.070
     820.000  -250982.923    24188.755    15191.763    33346.400      133.050  -369621.646    45778.756       25.850       25.894        2.585        2.572        2.647        2.707        2.596        3.035        2.704        2.568        3.244        2.651        2.680        2.586        3.053        3.007        2.580        2.573        0.502        0.000        0.000        0.000        0.000        0.000        0.000        0.000        0.000        0.000        0.000        0.000        0.000        0.000        0.000        0.000        5.000        0.000        0.000        0.000        0.000        0.000        0.000        0.000        0.000        0.000        0.000        0.000        0.000        1.000        0.000        0.000        6.000        0.000        0.000        0.000      100.000        0.000        0.000        2.310        2.284        4.132
     830.000  -250922.165    23759.891    15094.261    33435.903      103.066  -369285.602    45970.317       26.135       25.770        2.585        2.548        2.622        2.656        2.509        3.084        2.683        2.526        3.197        2.646        2.687        2.567        3.079        2.975        2.571        2.571        0.470        0.000        1.000        0.000        0.000        0.000        0.000        0.000        0.000        0.000        0.000        0.000        0.000        0.000        0.000        0.000        4.000        0.000        0.000        0.000        0.000        0.000        0.000        0.000        0.000        0.000        0.000        0.000        0.000        1.000        0.000        0.000        4.000        0.000        0.000        0.000      100.000        0.000        0.000        2.519        2.491        4.463
     840.000  -250475.117    24560.770    14613.534    33567.247      126.861  -368783.952    45440.423       26.087       26.004        2.586        2.572        2.610        2.697        2.479        3.058        2.738        2.560        3.225        2.619        2.686        2.587        3.079        2.968        2.645        2.581        0.479        0.000        1.000        0.000        0.000        1.000        0.000        0.000        0.000        0.000        0.000        0.000        0.000        0.000        0.000        0.000        4.000        0.000        0.000        0.000        0.000        0.000        0.000        0.000        0.000        0.000        0.000        0.000        0.000        3.000        0.000        0.000        3.000        0.000        0.000        0.000      100.000        0.000        0.000        2.562        2.524        4.436
     850.000  -251263.401    25716.685    14839.598    33403.382      139.949  -368962.056    43599.040       26.490       26.069        2.632        2.536        2.607        2.680        2.515        3.051        2.705        2.505        3.201        2.708        2.722        2.590        3.027        2.990        2.628        2.599        0.487        0.000        1.000        0.000        0.000        0.000        0.000        0.000        0.000        0.000        0.000        0.000        0.000        0.000        0.000        0.000        4.000        0.000        0.000        0.000        0.000        0.000        0.000        0.000        0.000        0.000        0.000        0.000        0.000        0.000        0.000        0.000        5.000        0.000        0.000        0.000      100.000        0.000        0.000        2.665        2.643        4.245
     860.000  -251035.906    24779.317    14963.821    33553.573      148.046  -369897.946    45417.283       26.290       25.776        2.673        2.558        2.595        2.617        2.555        3.008        2.697        2.525        3.218        2.676        2.652        2.561        3.093        3.007        2.593        2.553        0.483        0.000        1.000        0.000        0.000        0.000        0.000        0.000        0.000        0.000        0.000        0.000        0.000        0.000        0.000        0.000        3.000        0.000        0.000        0.000        0.000        0.000        0.000        0.000        0.000        0.000        0.000        0.000        0.000        0.000        0.000        0.000        2.000        0.000        4.494        0.000       95.506        0.000        0.000        2.422        2.402        4.390
     870.000  -251310.432    25502.812    14675.406    33500.589      123.308  -370080.473    44967.925       26.337       25.745        2.677        2.613        2.589        2.668        2.488        2.959        2.705        2.616        3.235        2.629        2.651        2.600        3.113        2.998        2.611        2.588        0.489        0.000        0.000        0.000        0.000        0.000        0.000        0.000        0.000        0.000        0.000        0.000        0.000        0.000        0.000        0.000        2.000        0.000        0.000        0.000        0.000        0.000        0.000        0.000        0.000        0.000        1.000        0.000        0.000        1.000        0.000        0.000        6.000        0.000        4.494        0.000       95.506        0.000        0.000        2.565        2.563        4.432
     880.000  -250842.196    23956.883    14868.998    33714.252      150.188  -370836.013    47303.496       25.975       25.514        2.606        2.566        2.696        2.685        2.558        2.968        2.639        2.536        3.256        2.639        2.668        2.527        3.123        2.937        2.682        2.589        0.490        0.000        1.000        0.000        0.000        1.000        0.000        0.000        0.000        0.000        0.000        0.000        0.000        0.000        0.000        0.000        0.000        0.000        0.000        0.000        0.000        0.000        0.000        0.000        0.000        2.000        2.000        0.000        0.000        2.000        0.000        0.000        2.000        0.000        0.000        0.000      100.000        0.000        0.000        2.330        2.348        4.325
     890.000  -251448.047    26074.316    14791.879    33604.046      140.096  -370203.656    44145.272       26.190       25.758        2.685        2.579        2.665        2.634        2.444        3.009        2.712        2.493        3.185        2.608        2.677        2.555        3.097        3.017        2.671        2.529        0.493        0.000        1.000        0.000        0.000        1.000        0.000        0.000        0.000        0.000        0.000        0.000        0.000        0.000        0.000        0.000        2.000        0.000        0.000        0.000        0.000        0.000        0.000        0.000        0.000        0.000        1.000        0.000        0.000        1.000        0.000        0.000        1.000        0.000        4.494        0.000       95.506        0.000        0.000        2.676        2.701        4.311
     900.000  -250683.511    24463.071    14886.361    33625.938      138.539  -369558.658    45761.239       25.953       25.610        2.680        2.618        2.610        2.658        2.488        3.073        2.682        2.531        3.202        2.667        2.662        2.574        3.152        2.959        2.719        2.540        0.498        0.000        1.000        0.000        0.000        1.000        0.000        0.000        0.000        0.000        0.000        0.000        0.000        0.000        0.000        0.000        4.000        0.000        0.000        0.000        0.000        0.000        0.000        0.000        0.000        0.000        3.000        0.000        0.000        0.000        0.000        0.000        3.000        0.000        8.989        0.000       91.011        0.000        0.000        2.307        2.309        3.962
     910.000  -251414.659    25049.462    14828.243    33419.038      134.637  -370304.435    45458.395       26.362       25.891        2.668        2.608        2.649        2.644        2.511        3.046        2.722        2.545        3.277        2.645        2.668        2.574        3.131        2.956        2.664        2.568        0.480        0.000        1.000        0.000        0.000        1.000        0.000        0.000        0.000        0.000        0.000        0.000        0.000        0.000        0.000        0.000        0.000        0.000        0.000        0.000        0.000        0.000        0.000        0.000        0.000        0.000        3.000        0.000        0.000        0.000        0.000        0.000        2.000        0.000        4.494        0.000       95.506        0.000        0.000        2.211        2.228        3.929
     920.000  -250809.485    24754.695    14850.227    33628.864      154.342  -369617.978    45420.366       25.935       25.528        2.667        2.641        2.673        2.679        2.469        3.137        2.694        2.519        3.282        2.656        2.651        2.723        3.091        2.962        2.680        2.573        0.470        0.000        1.000        0.000        0.000        1.000        0.000        0.000        0.000        0.000        0.000        0.000        0.000        0.000        0.000        0.000        3.000        0.000        0.000        0.000        0.000        0.000        0.000        0.000        0.000        1.000        1.000        0.000        0.000        1.000        0.000        0.000        2.000        0.000        8.989        0.000       91.011        0.000        0.000        1.993        2.059        3.886
     930.000  -251038.193    25030.315    14692.330    33523.175      133.434  -368911.562    44494.114       26.077       25.536        2.646        2.600        2.699        2.675        2.485        3.054        2.695        2.528        3.217        2.666        2.712        2.632        3.077        2.968        2.578        2.591        0.493        0.000        1.000        0.000        0.000        1.000        0.000        0.000        0.000        0.000        0.000        0.000        0.000        0.000        0.000        0.000        1.000        0.000        0.000        0.000        0.000        0.000        0.000        0.000        0.000        1.000        2.000        0.000        0.000        0.000        0.000        0.000        2.000        0.000        4.494        0.000       95.506        0.000        0.000        1.901        1.958        3.751
     940.000  -250887.536    25363.073    14715.079    33546.516      146.569  -369914.737    45255.963       26.224       25.749        2.652        2.601        2.668        2.689        2.536        3.137        2.701        2.550        3.169        2.672        2.678        2.609        3.115        3.012        2.619        2.588        0.482        0.000        1.000        0.000        0.000        1.000        0.000        0.000        0.000        0.000        0.000        0.000        0.000        0.000        0.000        0.000        1.000        0.000        0.000        0.000        0.000        0.000        0.000        0.000        0.000        1.000        0.000        0.000        0.000        0.000        0.000        0.000        3.000        0.000        0.000        0.000      100.000        0.000        0.000        2.292        2.367        3.642
     950.000  -250952.101    25008.125    14858.011    33425.344      148.319  -370173.742    45781.841       26.462       26.003        2.690        2.591        2.618        2.599        2.527        3.090        2.668        2.540        3.225        2.665        2.690        2.580        3.105        2.980        2.645        2.518        0.474        0.000        1.000        0.000        0.000        1.000        0.000        0.000        0.000        0.000        0.000        0.000        0.000        0.000        0.000        0.000        3.000        0.000        0.000        0.000        0.000        0.000        0.000        0.000        0.000        0.000        4.000        0.000        0.000        0.000        0.000        0.000        5.000        0.000        0.000        0.000      100.000        0.000        0.000        2.910        2.960        3.905
     960.000  -251077.829    25442.255    14910.170    33515.681      126.918  -369648.278    44575.424       26.326       25.955        2.699        2.595        2.620        2.645        2.531        2.970        2.697        2.585        3.249        2.648        2.725        2.681        3.064        2.950        2.624        2.591        0.480        0.000        1.000        0.000        0.000        0.000        0.000        0.000        0.000        0.000        0.000        0.000        0.000        0.000        0.000        0.000        3.000        0.000        0.000        0.000        0.000        0.000        0.000        0.000        0.000        0.000        3.000        0.000        0.000        0.000        0.000        0.000        2.000        0.000        0.000        0.000      100.000        0.000        0.000        2.486        2.534        4.005
     970.000  -251878.390    24147.017    14948.061    33445.341      131.976  -371864.761    47313.976       26.221       25.739        2.720        2.548        2.708        2.685        2.547        3.043        2.721        2.559        3.219        2.636        2.675        2.623        3.061        2.958        2.590        2.573        0.463        0.000        1.000        0.000        0.000        1.000        0.000        0.000        0.000        0.000        0.000        0.000        0.000        0.000        0.000        0.000        1.000        0.000        0.000        0.000        0.000        0.000        0.000        0.000        0.000        1.000        2.000        0.000        0.000        0.000        0.000        0.000        7.000        0.000        4.494        0.000       95.506        0.000        0.000        2.505        2.545        4.066
     980.000  -251422.159    25830.224    15057.159    33347.525      144.206  -370791.527    44990.253       26.405       26.064        2.631        2.597        2.632        2.668        2.560        3.014        2.674        2.563        3.205        2.581        2.713        2.630        3.067        2.984        2.632        2.598        0.483        0.000        0.000        0.000        0.000        1.000        0.000        0.000        0.000        0.000        0.000        0.000        0.000        0.000        0.000        0.000        3.000        0.000        0.000        0.000        0.000        0.000        0.000        0.000        0.000        1.000        4.000        0.000        0.000        0.000        0.000        0.000        4.000        0.000        0.000        0.000      100.000        0.000        0.000        2.145        2.175        4.102
     990.000  -250698.553    25164.150    14477.403    33440.119      116.555  -369433.480    45536.699       26.136       25.732        2.667        2.566        2.589        2.674        2.486        3.088        2.695        2.478        3.182        2.613        2.705        2.666        3.064        2.927        2.617        2.608        0.471        0.000        1.000        0.000        0.000        1.000        0.000        0.000        0.000        0.000        0.000        0.000        0.000        0.000        0.000        0.000        2.000        0.000        0.000        0.000        0.000        0.000        0.000        0.000        0.000        1.000        3.000        0.000        0.000        1.000        0.000        0.000        2.000        0.000        0.000        0.000      100.000        0.000        0.000        2.084        2.105        4.147
    1000.000  -251020.533    25071.470    14469.395    33510.482      124.095  -369274.369    45078.394       26.117       25.529        2.713        2.536        2.667        2.685        2.504        3.072        2.725        2.505        3.266        2.679        2.657        2.678        3.098        2.967        2.580        2.581        0.490        0.000        1.000        0.000        0.000        1.000        0.000        0.000        0.000        0.000        0.000        0.000        0.000        0.000        0.000        0.000        4.000        0.000        0.000        0.000        0.000        0.000        0.000        0.000        0.000        0.000        6.000        0.000        0.000        1.000        0.000        0.000        4.000        0.000        0.000        0.000      100.000        0.000        0.000        2.225        2.251        4.237
     Average  -252691.429    25310.894    14938.827    33472.640      127.515  -372605.426    46064.121       26.010       25.909        2.635        2.587        2.589        2.642        2.528        3.022        2.689        2.553        3.207        2.660        2.681        2.620        3.094        2.976        2.650        2.576        0.487        0.000        0.901        0.000        0.000        1.406        0.000        0.000        0.495        0.000        0.010        0.000        0.000        0.010        0.000        0.000        2.931        0.000        0.000        0.000        0.000        0.000        0.000        0.000        0.000        0.426        1.416        0.000        0.000        0.792        0.000        0.000        3.881        0.000        2.258        0.000       97.742        0.000        0.000        2.003        2.014        3.209

