____Time[ps] Energy[ kJ/mol ]_____Bond _______Angle ____Dihedral ___Planarity _____Coulomb _________VdW _Your result _Your result _Your result _Your result _Your result _Your result _Your result _Your result _Your result _Your result _Your result _Your result _Your result _Your result _Your result _Your result _Your result _Your result _Your result _Your result _Your result _Your result _Your result _Your result _Your result _Your result _Your result _Your result _Your result _Your result _Your result _Your result _Your result _Your result _Your result _Your result _Your result _Your result _Your result _Your result _Your result _Your result _Your result _Your result _Your result _Your result _Your result _Your result _Your result _Your result _Your result _Your result _Your result _Your result _Your result _Your result _Your result _RMSDs[A]:CA ____Backbone __HeavyAtoms
       0.000  -312815.124     8332.988     5587.088    34535.601       22.329  -421720.029    60426.899       25.192       25.152        2.635        2.613        2.521        2.698        2.633        2.609        2.712        2.598        2.699        2.687        2.691        2.694        2.561        2.567        2.504        2.625        0.488        0.000        0.000        0.000        0.000        3.000        0.000        0.000        2.000        0.000        0.000        0.000        0.000        0.000        0.000        0.000        2.000        0.000        0.000        0.000        0.000        0.000        0.000        0.000        0.000        1.000        4.000        2.000        0.000        0.000        0.000        0.000        2.000        0.000        0.000        0.000      100.000        0.000        0.000        0.519        0.546        0.701
      10.000  -235821.910    27547.245    14355.923    34421.112      124.592  -356088.664    43817.883       25.921       25.772        2.679        2.487        2.615        2.685        2.524        2.582        2.726        2.572        2.723        2.688        2.753        2.569        2.562        2.597        2.604        2.603        0.489        0.000        0.000        0.000        0.000        3.000        0.000        0.000        2.000        0.000        0.000        0.000        0.000        0.000        0.000        0.000        2.000        0.000        0.000        0.000        0.000        0.000        0.000        0.000        0.000        0.000        2.000        2.000        0.000        0.000        0.000        0.000        2.000        0.000        4.494        0.000       95.506        0.000        0.000        1.484        1.485        1.796
      20.000  -235214.046    26499.013    15016.415    34344.358      107.710  -355208.074    44026.532       26.017       25.722        2.705        2.447        2.643        2.695        2.487        2.572        2.710        2.594        2.693        2.668        2.730        2.536        2.538        2.577        2.673        2.579        0.481        0.000        0.000        0.000        0.000        2.000        0.000        0.000        2.000        0.000        0.000        0.000        0.000        0.000        0.000        0.000        2.000        0.000        0.000        0.000        0.000        0.000        0.000        0.000        0.000        1.000        3.000        1.000        2.000        0.000        0.000        0.000        2.000        0.000        0.000        0.000      100.000        0.000        0.000        1.631        1.647        2.006
      30.000  -233738.021    25969.798    14505.514    34529.970      112.622  -353407.294    44551.369       26.075       25.590        2.686        2.493        2.629        2.725        2.521        2.538        2.741        2.580        2.694        2.697        2.748        2.558        2.596        2.583        2.590        2.586        0.475        0.000        0.000        0.000        0.000        2.000        0.000        0.000        1.000        0.000        0.000        0.000        0.000        0.000        0.000        0.000        2.000        0.000        0.000        0.000        0.000        0.000        0.000        0.000        0.000        1.000        4.000        1.000        0.000        1.000        0.000        0.000        7.000        0.000        0.000        0.000      100.000        0.000        0.000        1.620        1.634        2.016
      40.000  -233878.285    26602.165    14605.612    34546.086      121.255  -353460.126    43706.723       26.168       25.872        2.683        2.486        2.633        2.695        2.493        2.520        2.705        2.595        2.700        2.687        2.729        2.512        2.549        2.581        2.671        2.608        0.465        0.000        0.000        0.000        0.000        2.000        0.000        0.000        0.000        0.000        0.000        0.000        0.000        0.000        0.000        0.000        0.000        0.000        0.000        0.000        0.000        0.000        0.000        0.000        0.000        0.000        1.000        1.000        0.000        1.000        0.000        0.000        3.000        0.000        0.000        0.000      100.000        0.000        0.000        1.784        1.791        2.069
      50.000  -233584.505    25834.303    14767.786    34457.001      105.210  -352387.156    43638.350       26.093       25.749        2.708        2.458        2.642        2.706        2.465        2.444        2.735        2.567        2.675        2.649        2.745        2.538        2.611        2.589        2.679        2.582        0.487        0.000        0.000        1.000        0.000        1.000        0.000        0.000        0.000        0.000        0.000        0.000        0.000        0.000        0.000        0.000        1.000        0.000        0.000        0.000        0.000        0.000        0.000        0.000        0.000        1.000        1.000        1.000        0.000        1.000        0.000        0.000        4.000        0.000        0.000        0.000      100.000        0.000        0.000        1.659        1.697        1.958
      60.000  -233239.190    25275.736    14956.372    34352.051      124.092  -351616.147    43668.706       26.238       25.796        2.695        2.476        2.649        2.715        2.502        2.505        2.739        2.589        2.671        2.688        2.768        2.523        2.594        2.580        2.713        2.655        0.483        0.000        0.000        1.000        0.000        1.000        0.000        0.000        0.000        0.000        0.000        0.000        0.000        0.000        0.000        0.000        2.000        0.000        0.000        0.000        0.000        0.000        0.000        0.000        0.000        0.000        3.000        0.000        1.000        0.000        0.000        1.000        3.000        0.000        0.000        0.000      100.000        0.000        0.000        1.796        1.807        2.180
      70.000  -233671.729    25183.852    14981.288    34287.428       97.477  -351165.107    42943.332       26.157       25.908        2.696        2.459        2.692        2.726        2.562        2.595        2.692        2.565        2.692        2.687        2.713        2.524        2.513        2.596        2.673        2.586        0.485        0.000        0.000        0.000        0.000        0.000        0.000        0.000        1.000        0.000        0.000        0.000        0.000        0.000        0.000        0.000        1.000        0.000        0.000        0.000        0.000        0.000        0.000        0.000        0.000        0.000        3.000        0.000        0.000        1.000        0.000        2.000        7.000        0.000        0.000        0.000      100.000        0.000        0.000        1.606        1.613        2.082
      80.000  -233555.150    24521.754    14728.875    34392.574      121.221  -350702.183    43382.609       25.961       25.592        2.717        2.443        2.709        2.689        2.517        2.630        2.735        2.541        2.747        2.701        2.714        2.537        2.594        2.598        2.705        2.571        0.473        0.000        0.000        0.000        0.000        0.000        0.000        0.000        0.000        0.000        0.000        0.000        0.000        0.000        0.000        0.000        2.000        0.000        0.000        0.000        0.000        0.000        0.000        0.000        0.000        0.000        1.000        0.000        0.000        1.000        0.000        1.000        4.000        0.000        0.000        0.000      100.000        0.000        0.000        1.522        1.535        2.134
      90.000  -233280.045    24871.194    14877.816    34690.875      116.250  -350991.339    43155.160       25.840       25.572        2.704        2.467        2.701        2.701        2.485        2.597        2.652        2.591        2.668        2.685        2.744        2.519        2.586        2.571        2.710        2.563        0.481        0.000        0.000        0.000        0.000        0.000        0.000        0.000        0.000        0.000        0.000        0.000        0.000        0.000        0.000        0.000        1.000        0.000        0.000        0.000        0.000        0.000        0.000        0.000        0.000        0.000        2.000        2.000        0.000        0.000        0.000        0.000        4.000        0.000        0.000        0.000      100.000        0.000        0.000        1.768        1.772        2.255
     100.000  -232761.339    24640.871    14704.747    34245.338      126.671  -348502.838    42023.872       25.697       25.717        2.687        2.496        2.701        2.740        2.489        2.662        2.693        2.573        2.729        2.665        2.706        2.565        2.620        2.624        2.710        2.596        0.482        1.000        0.000        0.000        0.000        0.000        0.000        0.000        0.000        0.000        0.000        0.000        1.000        0.000        0.000        0.000        4.000        0.000        0.000        0.000        0.000        0.000        0.000        0.000        0.000        0.000        0.000        0.000        0.000        1.000        0.000        0.000        4.000        0.000        0.000        0.000      100.000        0.000        0.000        1.755        1.765        2.342
     110.000  -232648.206    24160.557    14779.395    34440.140      123.582  -350613.552    44461.673       25.916       25.808        2.712        2.475        2.681        2.683        2.455        2.602        2.651        2.580        2.696        2.675        2.723        2.561        2.569        2.546        2.721        2.584        0.481        0.000        0.000        0.000        0.000        0.000        0.000        0.000        0.000        0.000        0.000        0.000        0.000        0.000        0.000        0.000        0.000        0.000        0.000        0.000        0.000        0.000        0.000        0.000        0.000        0.000        1.000        1.000        1.000        1.000        0.000        1.000        1.000        0.000        0.000        0.000      100.000        0.000        0.000        1.775        1.792        2.288
     120.000  -232311.220    24667.283    14261.561    34490.457      112.798  -348061.470    42218.152       25.904       25.972        2.677        2.426        2.698        2.707        2.499        2.603        2.675        2.550        2.714        2.720        2.670        2.517        2.655        2.586        2.685        2.543        0.497        0.000        0.000        0.000        0.000        0.000        0.000        0.000        0.000        0.000        0.000        0.000        1.000        0.000        0.000        0.000        1.000        0.000        0.000        0.000        0.000        0.000        0.000        0.000        0.000        0.000        1.000        0.000        0.000        1.000        0.000        4.000        6.000        0.000        0.000        0.000      100.000        0.000        0.000        1.833        1.815        2.351
     130.000  -232031.473    23365.123    14590.072    34755.853      119.886  -347898.314    43035.907       25.838       25.943        2.713        2.476        2.695        2.726        2.546        2.619        2.696        2.590        2.672        2.686        2.733        2.542        2.578        2.564        2.713        2.585        0.503        0.000        0.000        0.000        0.000        0.000        0.000        0.000        0.000        0.000        0.000        0.000        0.000        0.000        0.000        0.000        1.000        0.000        0.000        0.000        0.000        0.000        0.000        0.000        0.000        0.000        1.000        0.000        0.000        1.000        0.000        1.000        6.000        0.000        0.000        0.000      100.000        0.000        0.000        1.677        1.697        2.332
     140.000  -232414.941    24014.662    14895.279    34430.619       93.519  -348895.934    43046.914       26.000       25.943        2.724        2.522        2.681        2.684        2.522        2.559        2.684        2.598        2.683        2.679        2.662        2.537        2.501        2.576        2.721        2.590        0.496        0.000        0.000        0.000        0.000        0.000        0.000        0.000        0.000        0.000        0.000        0.000        0.000        0.000        0.000        0.000        1.000        0.000        0.000        0.000        0.000        0.000        0.000        0.000        0.000        1.000        4.000        0.000        2.000        2.000        0.000        0.000        6.000        0.000        0.000        0.000      100.000        0.000        0.000        1.817        1.835        2.426
     150.000  -231854.810    23518.110    14293.293    34679.029      127.922  -347371.622    42898.459       25.638       25.732        2.710        2.435        2.652        2.679        2.524        2.620        2.729        2.567        2.630        2.699        2.722        2.543        2.521        2.611        2.665        2.641        0.460        0.000        0.000        0.000        0.000        0.000        0.000        0.000        0.000        0.000        0.000        0.000        0.000        0.000        0.000        0.000        3.000        0.000        0.000        0.000        0.000        0.000        0.000        0.000        0.000        0.000        3.000        0.000        0.000        1.000        0.000        2.000        3.000        0.000        4.494        0.000       95.506        0.000        0.000        1.985        2.019        2.520
     160.000  -231660.437    24568.175    14253.797    34508.840      125.271  -347019.541    41903.021       25.875       26.008        2.685        2.500        2.674        2.752        2.509        2.588        2.740        2.582        2.612        2.647        2.716        2.526        2.523        2.632        2.715        2.594        0.466        0.000        0.000        0.000        0.000        0.000        0.000        0.000        1.000        0.000        0.000        0.000        0.000        0.000        0.000        0.000        1.000        0.000        0.000        0.000        0.000        0.000        0.000        0.000        0.000        1.000        1.000        1.000        1.000        1.000        0.000        1.000        8.000        0.000        4.494        0.000       95.506        0.000        0.000        1.818        1.829        2.334
     170.000  -232503.786    24032.038    14266.819    34665.404      130.631  -347067.548    41468.870       25.877       25.940        2.651        2.480        2.678        2.728        2.535        2.575        2.720        2.578        2.595        2.692        2.734        2.526        2.577        2.565        2.696        2.593        0.495        0.000        0.000        0.000        0.000        0.000        0.000        0.000        0.000        0.000        0.000        0.000        1.000        0.000        0.000        0.000        0.000        0.000        0.000        0.000        0.000        0.000        0.000        0.000        0.000        0.000        0.000        0.000        0.000        1.000        0.000        0.000        5.000        0.000        4.494        0.000       95.506        0.000        0.000        1.890        1.942        2.320
     180.000  -231771.441    23230.875    14438.552    34552.765       93.049  -347359.204    43272.522       25.911       26.075        2.669        2.458        2.685        2.735        2.489        2.603        2.672        2.563        2.627        2.677        2.737        2.539        2.498        2.616        2.705        2.594        0.481        0.000        0.000        0.000        0.000        0.000        0.000        0.000        1.000        0.000        0.000        0.000        1.000        0.000        0.000        0.000        1.000        0.000        0.000        0.000        0.000        0.000        0.000        0.000        0.000        1.000        1.000        3.000        0.000        2.000        0.000        0.000        3.000        0.000        0.000        0.000      100.000        0.000        0.000        1.878        1.898        2.382
     190.000  -231281.997    24263.967    14454.489    34427.696      130.250  -345258.386    40699.986       25.988       25.824        2.688        2.492        2.669        2.705        2.463        2.589        2.720        2.552        2.631        2.720        2.724        2.540        2.554        2.622        2.727        2.621        0.483        0.000        0.000        0.000        0.000        0.000        0.000        0.000        0.000        0.000        0.000        0.000        0.000        0.000        0.000        0.000        0.000        0.000        0.000        0.000        0.000        0.000        0.000        0.000        0.000        0.000        0.000        1.000        1.000        1.000        0.000        0.000        5.000        0.000        0.000        0.000      100.000        0.000        0.000        1.671        1.731        2.296
     200.000  -231220.336    24477.126    13987.635    34539.024       99.981  -345406.193    41082.090       25.967       25.809        2.656        2.469        2.700        2.721        2.501        2.557        2.679        2.570        2.623        2.679        2.726        2.531        2.547        2.627        2.729        2.623        0.481        0.000        0.000        0.000        0.000        0.000        0.000        0.000        0.000        0.000        0.000        0.000        0.000        0.000        0.000        0.000        0.000        0.000        0.000        0.000        0.000        0.000        0.000        0.000        0.000        2.000        1.000        2.000        0.000        2.000        0.000        1.000        2.000        0.000        0.000        0.000      100.000        0.000        0.000        2.012        2.079        2.442
     210.000  -231566.283    23613.869    14481.794    34374.181       99.039  -346737.446    42602.280       25.941       25.904        2.632        2.485        2.666        2.712        2.511        2.540        2.705        2.574        2.630        2.701        2.729        2.541        2.603        2.584        2.714        2.627        0.510        0.000        0.000        0.000        0.000        0.000        0.000        0.000        0.000        0.000        0.000        0.000        0.000        0.000        0.000        0.000        0.000        0.000        0.000        0.000        0.000        0.000        0.000        0.000        0.000        0.000        3.000        0.000        0.000        2.000        0.000        1.000        9.000        0.000        0.000        0.000      100.000        0.000        0.000        1.955        2.020        2.398
     220.000  -231105.883    24318.436    14109.118    34725.905       94.389  -345998.107    41644.376       25.663       25.712        2.653        2.483        2.681        2.700        2.510        2.524        2.670        2.508        2.628        2.672        2.715        2.574        2.560        2.590        2.692        2.613        0.478        0.000        0.000        0.000        0.000        0.000        0.000        0.000        1.000        0.000        0.000        0.000        0.000        0.000        0.000        0.000        0.000        0.000        0.000        0.000        0.000        0.000        0.000        0.000        0.000        1.000        0.000        0.000        0.000        1.000        0.000        1.000        1.000        0.000        4.494        0.000       95.506        0.000        0.000        2.056        2.088        2.509
     230.000  -231341.026    23832.079    14013.620    34589.651      112.227  -346255.700    42367.097       25.313       25.490        2.669        2.486        2.623        2.688        2.485        2.612        2.682        2.558        2.636        2.684        2.703        2.596        2.548        2.617        2.733        2.640        0.456        0.000        0.000        0.000        0.000        0.000        0.000        0.000        1.000        0.000        0.000        0.000        2.000        0.000        0.000        0.000        1.000        0.000        0.000        0.000        0.000        0.000        0.000        0.000        0.000        1.000        0.000        0.000        1.000        1.000        0.000        0.000        8.000        0.000        0.000        0.000      100.000        0.000        0.000        2.569        2.599        2.867
     240.000  -230846.942    23634.329    13847.640    34584.570      121.674  -345064.109    42028.953       25.893       25.931        2.676        2.468        2.638        2.754        2.471        2.608        2.696        2.560        2.639        2.659        2.759        2.552        2.606        2.605        2.725        2.612        0.477        0.000        0.000        0.000        0.000        0.000        0.000        0.000        0.000        0.000        0.000        0.000        1.000        0.000        0.000        0.000        0.000        0.000        0.000        0.000        0.000        0.000        0.000        0.000        0.000        1.000        1.000        1.000        1.000        1.000        0.000        0.000        3.000        0.000        0.000        0.000      100.000        0.000        0.000        2.048        2.067        2.412
     250.000  -231312.587    24466.505    14138.783    34549.024      125.913  -344984.292    40391.480       25.798       25.710        2.678        2.462        2.639        2.710        2.516        2.607        2.687        2.538        2.635        2.700        2.669        2.486        2.620        2.612        2.743        2.532        0.461        0.000        0.000        0.000        0.000        0.000        0.000        0.000        1.000        0.000        0.000        0.000        0.000        0.000        0.000        0.000        0.000        0.000        0.000        0.000        0.000        0.000        0.000        0.000        0.000        0.000        1.000        0.000        2.000        1.000        0.000        0.000        3.000        0.000        0.000        0.000      100.000        0.000        0.000        1.683        1.720        2.387
     260.000  -231027.587    23727.836    14116.090    34432.634      108.230  -344064.039    40651.662       26.002       25.764        2.644        2.476        2.676        2.684        2.509        2.547        2.652        2.488        2.656        2.683        2.662        2.559        2.606        2.592        2.725        2.635        0.506        0.000        0.000        0.000        0.000        0.000        0.000        0.000        1.000        0.000        0.000        0.000        0.000        0.000        0.000        0.000        1.000        0.000        0.000        0.000        0.000        0.000        0.000        0.000        0.000        0.000        0.000        1.000        1.000        1.000        0.000        0.000        3.000        0.000        0.000        0.000      100.000        0.000        0.000        1.860        1.918        2.536
     270.000  -230802.907    22292.131    14244.730    34298.192      116.068  -344765.882    43011.855       25.727       25.834        2.684        2.429        2.696        2.733        2.526        2.585        2.751        2.583        2.641        2.686        2.656        2.526        2.546        2.588        2.719        2.625        0.481        0.000        0.000        0.000        0.000        0.000        0.000        0.000        1.000        0.000        0.000        0.000        0.000        0.000        0.000        0.000        0.000        0.000        0.000        0.000        0.000        0.000        0.000        0.000        0.000        1.000        2.000        0.000        0.000        1.000        0.000        0.000        4.000        0.000        0.000        0.000      100.000        0.000        0.000        1.676        1.728        2.520
     280.000  -231169.698    24199.710    14205.818    34492.253      119.802  -345894.618    41707.338       25.620       25.934        2.666        2.474        2.677        2.732        2.560        2.565        2.726        2.515        2.619        2.657        2.723        2.545        2.524        2.594        2.697        2.659        0.504        0.000        0.000        0.000        0.000        0.000        0.000        0.000        2.000        0.000        0.000        0.000        0.000        0.000        0.000        0.000        0.000        0.000        0.000        0.000        0.000        0.000        0.000        0.000        0.000        1.000        4.000        0.000        1.000        1.000        0.000        1.000        9.000        0.000        0.000        0.000      100.000        0.000        0.000        1.614        1.635        2.343
     290.000  -230930.141    23210.392    14204.404    34346.061       95.290  -345501.573    42715.285       25.458       25.667        2.702        2.477        2.686        2.716        2.500        2.565        2.750        2.576        2.618        2.684        2.721        2.546        2.492        2.612        2.697        2.631        0.482        0.000        0.000        0.000        0.000        1.000        0.000        0.000        1.000        0.000        0.000        0.000        0.000        0.000        0.000        0.000        0.000        0.000        0.000        0.000        0.000        0.000        0.000        0.000        0.000        0.000        2.000        0.000        2.000        2.000        0.000        0.000        4.000        0.000        4.494        0.000       95.506        0.000        0.000        1.994        2.025        2.588
     300.000  -230887.421    24667.869    14057.042    34417.906      120.788  -345735.015    41583.989       25.758       25.808        2.693        2.441        2.698        2.697        2.534        2.523        2.712        2.620        2.636        2.671        2.690        2.534        2.560        2.615        2.733        2.622        0.488        0.000        0.000        0.000        0.000        0.000        0.000        0.000        1.000        0.000        0.000        0.000        1.000        0.000        0.000        0.000        0.000        0.000        0.000        0.000        0.000        0.000        0.000        0.000        0.000        1.000        1.000        0.000        0.000        1.000        0.000        0.000        3.000        0.000        0.000        0.000      100.000        0.000        0.000        1.919        1.899        2.447
     310.000  -230938.911    24093.517    14177.987    34328.606      122.093  -344466.996    40805.880       25.554       25.516        2.548        2.440        2.692        2.731        2.518        2.604        2.665        2.599        2.655        2.703        2.692        2.536        2.473        2.578        2.712        2.629        0.497        0.000        0.000        0.000        0.000        0.000        0.000        0.000        1.000        0.000        0.000        0.000        0.000        0.000        0.000        0.000        0.000        0.000        0.000        0.000        0.000        0.000        0.000        0.000        0.000        1.000        0.000        2.000        0.000        1.000        0.000        0.000        3.000        0.000        4.494        0.000       95.506        0.000        0.000        1.404        1.413        2.189
     320.000  -230040.182    22700.371    14205.997    34318.948      121.501  -344559.789    43172.790       25.555       25.801        2.542        2.453        2.607        2.763        2.538        2.562        2.686        2.625        2.629        2.689        2.692        2.511        2.475        2.627        2.726        2.591        0.492        0.000        0.000        0.000        0.000        0.000        0.000        0.000        2.000        0.000        0.000        0.000        0.000        0.000        0.000        0.000        0.000        0.000        0.000        0.000        0.000        0.000        0.000        0.000        0.000        0.000        2.000        1.000        0.000        1.000        0.000        0.000        3.000        0.000        0.000        0.000      100.000        0.000        0.000        1.605        1.609        2.292
     330.000  -231511.269    23698.457    14033.791    34398.900      125.281  -346361.082    42593.384       25.549       25.766        2.585        2.492        2.721        2.721        2.512        2.608        2.704        2.571        2.635        2.692        2.673        2.494        2.616        2.609        2.721        2.553        0.489        0.000        0.000        0.000        0.000        0.000        0.000        0.000        1.000        0.000        0.000        0.000        0.000        0.000        0.000        0.000        0.000        0.000        0.000        0.000        0.000        0.000        0.000        0.000        0.000        1.000        1.000        1.000        2.000        1.000        0.000        1.000        5.000        0.000        0.000        0.000      100.000        0.000        0.000        1.651        1.649        2.314
     340.000  -230606.071    23912.238    14250.747    34330.419      106.195  -343792.634    40586.965       25.714       26.007        2.567        2.461        2.616        2.656        2.531        2.577        2.666        2.571        2.657        2.661        2.795        2.523        2.542        2.570        2.699        2.580        0.483        0.000        0.000        0.000        0.000        0.000        0.000        0.000        1.000        0.000        0.000        0.000        0.000        0.000        0.000        0.000        0.000        0.000        0.000        0.000        0.000        0.000        0.000        0.000        0.000        2.000        0.000        0.000        2.000        1.000        0.000        0.000        3.000        0.000        0.000        0.000      100.000        0.000        0.000        1.789        1.799        2.353
     350.000  -230183.804    24415.831    14040.999    34408.962      128.792  -344430.084    41251.697       25.530       25.615        2.550        2.497        2.733        2.756        2.553        2.538        2.733        2.581        2.619        2.702        2.677        2.523        2.628        2.622        2.721        2.577        0.470        0.000        0.000        0.000        0.000        0.000        0.000        0.000        1.000        0.000        0.000        0.000        0.000        0.000        0.000        0.000        0.000        0.000        0.000        0.000        0.000        0.000        0.000        0.000        0.000        2.000        0.000        0.000        1.000        1.000        0.000        1.000        5.000        0.000        4.494        0.000       95.506        0.000        0.000        1.788        1.801        2.412
     360.000  -230587.135    23412.346    13876.651    34359.546      136.952  -342872.789    40500.158       25.330       25.486        2.580        2.438        2.668        2.699        2.559        2.544        2.699        2.613        2.641        2.715        2.703        2.521        2.590        2.585        2.713        2.559        0.493        0.000        0.000        0.000        0.000        0.000        0.000        0.000        0.000        0.000        0.000        0.000        0.000        0.000        0.000        0.000        0.000        0.000        0.000        0.000        0.000        0.000        0.000        0.000        0.000        0.000        2.000        0.000        1.000        1.000        0.000        0.000        5.000        0.000        7.865        0.000       92.135        0.000        0.000        1.715        1.704        2.428
     370.000  -230688.703    23552.339    13917.692    34455.386      131.826  -344238.932    41492.985       25.267       25.440        2.563        2.466        2.656        2.719        2.526        2.586        2.675        2.587        2.606        2.686        2.737        2.587        2.533        2.582        2.718        2.506        0.497        0.000        0.000        0.000        0.000        0.000        0.000        0.000        0.000        0.000        0.000        0.000        0.000        0.000        0.000        0.000        0.000        0.000        0.000        0.000        0.000        0.000        0.000        0.000        0.000        0.000        0.000        0.000        1.000        0.000        0.000        0.000        2.000        0.000        0.000        0.000      100.000        0.000        0.000        2.139        2.144        2.679
     380.000  -231128.470    23456.195    14042.950    34323.030      140.340  -344798.475    41707.491       25.488       25.418        2.542        2.475        2.701        2.748        2.526        2.595        2.704        2.574        2.649        2.696        2.678        2.522        2.598        2.571        2.698        2.571        0.465        0.000        0.000        0.000        0.000        0.000        0.000        0.000        1.000        0.000        0.000        0.000        0.000        0.000        0.000        0.000        0.000        0.000        0.000        0.000        0.000        0.000        0.000        0.000        0.000        2.000        2.000        2.000        2.000        0.000        0.000        0.000        3.000        0.000        4.494        0.000       95.506        0.000        0.000        2.489        2.503        2.980
     390.000  -230234.025    23801.423    14360.184    34501.939      114.459  -344434.902    41422.873       25.640       25.702        2.561        2.488        2.665        2.730        2.538        2.569        2.684        2.564        2.646        2.722        2.692        2.539        2.514        2.604        2.696        2.623        0.482        0.000        0.000        0.000        0.000        0.000        0.000        0.000        0.000        0.000        0.000        0.000        0.000        0.000        0.000        0.000        0.000        0.000        0.000        0.000        0.000        0.000        0.000        0.000        0.000        0.000        1.000        0.000        0.000        0.000        0.000        0.000        1.000        0.000        4.494        0.000       95.506        0.000        0.000        2.013        2.021        2.638
     400.000  -230219.961    23869.793    14132.021    34043.569      134.941  -342477.733    40077.446       25.565       25.594        2.541        2.468        2.675        2.682        2.515        2.615        2.699        2.607        2.661        2.677        2.682        2.553        2.567        2.633        2.711        2.633        0.505        0.000        0.000        0.000        0.000        0.000        0.000        0.000        1.000        0.000        0.000        0.000        0.000        0.000        0.000        0.000        0.000        0.000        0.000        0.000        0.000        0.000        0.000        0.000        0.000        1.000        3.000        2.000        0.000        1.000        0.000        1.000        3.000        0.000        4.494        0.000       95.506        0.000        0.000        2.306        2.324        2.837
     410.000  -230179.195    22670.537    14043.880    34264.745      110.914  -343827.264    42557.993       25.550       25.750        2.556        2.499        2.696        2.690        2.483        2.576        2.736        2.578        2.641        2.680        2.692        2.554        2.613        2.582        2.666        2.624        0.476        0.000        0.000        0.000        0.000        1.000        0.000        0.000        1.000        0.000        0.000        0.000        0.000        0.000        0.000        0.000        0.000        0.000        0.000        0.000        0.000        0.000        0.000        0.000        0.000        0.000        1.000        1.000        0.000        0.000        0.000        1.000        2.000        0.000        0.000        0.000      100.000        0.000        0.000        2.301        2.294        2.839
     420.000  -229786.204    22632.242    14120.076    34424.867      109.261  -343618.515    42545.865       25.465       25.528        2.542        2.503        2.707        2.649        2.546        2.621        2.720        2.578        2.653        2.651        2.634        2.527        2.487        2.583        2.732        2.607        0.497        0.000        0.000        0.000        0.000        1.000        0.000        0.000        1.000        0.000        0.000        0.000        0.000        0.000        0.000        0.000        0.000        0.000        0.000        0.000        0.000        0.000        0.000        0.000        0.000        1.000        0.000        1.000        1.000        0.000        0.000        1.000        1.000        0.000        0.000        0.000      100.000        0.000        0.000        2.259        2.257        2.850
     430.000  -229971.384    22214.478    14009.582    34515.139      139.671  -342444.917    41594.664       25.390       25.514        2.538        2.444        2.658        2.719        2.519        2.563        2.671        2.600        2.618        2.674        2.643        2.539        2.535        2.553        2.681        2.622        0.499        0.000        0.000        0.000        0.000        1.000        0.000        0.000        1.000        0.000        0.000        0.000        0.000        0.000        0.000        0.000        0.000        0.000        0.000        0.000        0.000        0.000        0.000        0.000        0.000        1.000        4.000        0.000        1.000        0.000        0.000        0.000        1.000        0.000        0.000        0.000      100.000        0.000        0.000        2.320        2.334        2.829
     440.000  -230113.930    23444.419    14190.840    34253.166      137.218  -343006.821    40867.248       25.449       25.402        2.591        2.513        2.719        2.727        2.553        2.576        2.699        2.531        2.664        2.673        2.669        2.538        2.658        2.549        2.703        2.652        0.492        0.000        0.000        0.000        0.000        1.000        0.000        0.000        1.000        0.000        0.000        0.000        0.000        0.000        0.000        0.000        0.000        0.000        0.000        0.000        0.000        0.000        0.000        0.000        0.000        0.000        0.000        2.000        0.000        0.000        0.000        1.000        2.000        0.000        0.000        0.000      100.000        0.000        0.000        2.095        2.125        2.733
     450.000  -229430.441    22211.327    14098.995    34479.490      148.700  -343114.107    42745.155       25.216       25.373        2.584        2.463        2.682        2.688        2.422        2.560        2.708        2.549        2.642        2.662        2.720        2.578        2.574        2.630        2.719        2.637        0.491        0.000        0.000        0.000        0.000        1.000        0.000        0.000        1.000        0.000        0.000        0.000        1.000        0.000        0.000        0.000        0.000        0.000        0.000        0.000        0.000        0.000        0.000        0.000        0.000        0.000        2.000        0.000        0.000        0.000        0.000        0.000        1.000        0.000        4.494        0.000       95.506        0.000        0.000        2.576        2.615        3.089
     460.000  -229867.917    22611.154    13960.144    34433.216      124.369  -342810.655    41813.856       25.639       25.541        2.545        2.478        2.631        2.710        2.483        2.538        2.705        2.593        2.618        2.709        2.707        2.442        2.575        2.597        2.717        2.591        0.494        0.000        0.000        0.000        0.000        1.000        0.000        0.000        1.000        0.000        0.000        0.000        0.000        0.000        0.000        0.000        0.000        0.000        0.000        0.000        0.000        0.000        0.000        0.000        0.000        0.000        1.000        0.000        0.000        0.000        0.000        0.000        3.000        0.000        4.494        0.000       95.506        0.000        0.000        2.670        2.688        3.225
     470.000  -230029.504    23682.066    13975.771    34296.857      112.709  -341839.019    39742.111       25.607       25.487        2.558        2.441        2.675        2.690        2.498        2.550        2.734        2.557        2.638        2.690        2.749        2.468        2.486        2.613        2.691        2.605        0.473        0.000        0.000        0.000        0.000        1.000        0.000        0.000        1.000        0.000        0.000        0.000        0.000        0.000        0.000        0.000        0.000        0.000        0.000        0.000        0.000        0.000        0.000        0.000        0.000        0.000        0.000        1.000        1.000        0.000        0.000        0.000        6.000        0.000        0.000        0.000      100.000        0.000        0.000        2.192        2.209        2.950
     480.000  -229516.339    23426.289    14095.565    34372.814      134.198  -343109.498    41564.293       25.415       25.447        2.574        2.479        2.647        2.703        2.467        2.600        2.699        2.551        2.635        2.706        2.704        2.485        2.518        2.618        2.743        2.626        0.490        0.000        0.000        0.000        0.000        1.000        0.000        0.000        1.000        0.000        0.000        0.000        0.000        0.000        0.000        0.000        0.000        0.000        0.000        0.000        0.000        0.000        0.000        0.000        0.000        0.000        4.000        0.000        0.000        0.000        0.000        0.000        2.000        0.000        4.494        0.000       95.506        0.000        0.000        1.889        1.895        2.885
     490.000  -230254.020    22968.149    13976.628    34464.263      116.996  -344517.911    42737.855       25.122       25.381        2.564        2.505        2.694        2.696        2.473        2.559        2.703        2.574        2.626        2.667        2.728        2.476        2.544        2.569        2.682        2.627        0.508        0.000        0.000        0.000        0.000        1.000        0.000        0.000        1.000        0.000        0.000        0.000        1.000        0.000        0.000        0.000        0.000        0.000        0.000        0.000        0.000        0.000        0.000        0.000        0.000        0.000        0.000        1.000        0.000        0.000        0.000        1.000        2.000        0.000        0.000        0.000      100.000        0.000        0.000        2.250        2.253        3.102
     500.000  -230340.154    22686.131    14013.910    34441.593      121.534  -343285.564    41682.241       25.532       25.468        2.559        2.470        2.703        2.734        2.519        2.553        2.699        2.582        2.641        2.695        2.669        2.553        2.569        2.618        2.691        2.604        0.494        0.000        0.000        0.000        1.000        1.000        0.000        0.000        0.000        0.000        0.000        0.000        0.000        0.000        0.000        0.000        0.000        0.000        0.000        0.000        0.000        0.000        0.000        0.000        0.000        0.000        2.000        0.000        2.000        0.000        0.000        0.000        2.000        0.000        0.000        0.000      100.000        0.000        0.000        2.129        2.125        3.022
     510.000  -230197.781    22170.893    13833.247    34518.107      111.058  -343159.576    42328.490       25.492       25.767        2.541        2.478        2.739        2.704        2.494        2.549        2.710        2.574        2.645        2.706        2.645        2.467        2.625        2.589        2.697        2.627        0.490        0.000        0.000        0.000        0.000        1.000        0.000        0.000        1.000        0.000        0.000        0.000        0.000        0.000        0.000        0.000        0.000        0.000        0.000        0.000        0.000        0.000        0.000        0.000        0.000        0.000        1.000        1.000        2.000        1.000        0.000        3.000        2.000        0.000        0.000        0.000      100.000        0.000        0.000        1.919        1.915        2.826
     520.000  -230325.998    22963.346    13849.508    34383.924      139.314  -342714.080    41051.990       25.331       25.587        2.559        2.462        2.679        2.713        2.459        2.535        2.685        2.628        2.643        2.654        2.719        2.493        2.589        2.603        2.677        2.589        0.495        0.000        0.000        0.000        0.000        1.000        0.000        0.000        0.000        0.000        0.000        0.000        0.000        0.000        0.000        0.000        0.000        0.000        0.000        0.000        0.000        0.000        0.000        0.000        0.000        0.000        0.000        0.000        2.000        0.000        0.000        0.000        1.000        0.000        0.000        0.000      100.000        0.000        0.000        1.696        1.699        2.972
     530.000  -230147.409    23625.042    14446.106    34530.681      127.239  -342792.680    39916.203       25.505       25.774        2.592        2.503        2.666        2.720        2.529        2.538        2.701        2.629        2.696        2.706        2.701        2.519        2.561        2.634        2.706        2.609        0.480        0.000        0.000        0.000        0.000        1.000        0.000        0.000        1.000        0.000        0.000        0.000        0.000        0.000        0.000        0.000        0.000        0.000        0.000        0.000        0.000        0.000        0.000        0.000        0.000        0.000        1.000        0.000        4.000        0.000        0.000        0.000        5.000        0.000        0.000        0.000      100.000        0.000        0.000        2.024        2.039        2.935
     540.000  -229969.913    22973.312    13841.558    34540.197      144.423  -342662.780    41193.377       25.501       25.657        2.585        2.478        2.656        2.725        2.529        2.500        2.705        2.569        2.638        2.674        2.724        2.462        2.603        2.615        2.696        2.580        0.489        0.000        0.000        0.000        0.000        1.000        0.000        0.000        1.000        0.000        0.000        0.000        0.000        0.000        0.000        0.000        0.000        0.000        0.000        0.000        0.000        0.000        0.000        0.000        0.000        0.000        3.000        1.000        2.000        0.000        0.000        0.000        2.000        0.000        0.000        0.000      100.000        0.000        0.000        1.666        1.677        2.638
     550.000  -229921.658    22692.773    14218.591    34536.242      143.788  -342751.379    41238.326       25.498       25.555        2.560        2.480        2.725        2.735        2.508        2.500        2.687        2.566        2.637        2.666        2.700        2.604        2.582        2.591        2.698        2.610        0.506        0.000        0.000        0.000        0.000        1.000        0.000        0.000        1.000        0.000        0.000        0.000        0.000        0.000        0.000        0.000        0.000        0.000        0.000        0.000        0.000        0.000        0.000        0.000        0.000        0.000        1.000        2.000        3.000        0.000        0.000        0.000        8.000        0.000        0.000        0.000      100.000        0.000        0.000        1.932        1.923        2.812
     560.000  -229991.311    22480.024    14218.845    34417.740      157.842  -343446.711    42180.949       25.470       25.497        2.609        2.478        2.704        2.728        2.514        2.604        2.714        2.541        2.631        2.694        2.738        2.526        2.570        2.633        2.698        2.622        0.487        0.000        0.000        0.000        0.000        1.000        0.000        0.000        0.000        0.000        0.000        0.000        0.000        0.000        0.000        0.000        0.000        0.000        0.000        0.000        0.000        0.000        0.000        0.000        0.000        0.000        3.000        2.000        2.000        0.000        0.000        0.000        3.000        0.000        0.000        0.000      100.000        0.000        0.000        2.194        2.193        2.940
     570.000  -229970.204    22666.240    13683.210    34490.185      114.793  -342477.344    41552.711       25.408       25.419        2.544        2.502        2.692        2.673        2.534        2.569        2.708        2.545        2.641        2.727        2.725        2.511        2.541        2.624        2.669        2.582        0.500        0.000        0.000        0.000        0.000        1.000        0.000        0.000        0.000        0.000        0.000        0.000        0.000        0.000        0.000        0.000        0.000        0.000        0.000        0.000        0.000        0.000        0.000        0.000        0.000        0.000        2.000        0.000        1.000        0.000        0.000        0.000        2.000        0.000        0.000        0.000      100.000        0.000        0.000        2.903        2.918        3.364
     580.000  -230116.675    22859.057    13952.726    34487.459      119.481  -342908.829    41373.431       25.344       25.453        2.552        2.476        2.706        2.709        2.485        2.528        2.702        2.575        2.670        2.678        2.715        2.585        2.601        2.599        2.666        2.625        0.492        0.000        0.000        0.000        0.000        1.000        0.000        0.000        0.000        0.000        0.000        0.000        0.000        0.000        0.000        0.000        0.000        0.000        0.000        0.000        0.000        0.000        0.000        0.000        0.000        0.000        2.000        0.000        0.000        1.000        0.000        0.000        1.000        0.000        0.000        0.000      100.000        0.000        0.000        2.804        2.839        3.415
     590.000  -229787.736    22888.958    14501.669    34510.415      158.201  -343107.532    41260.553       25.357       25.626        2.537        2.505        2.688        2.672        2.476        2.582        2.658        2.522        2.669        2.695        2.695        2.570        2.572        2.532        2.683        2.626        0.497        0.000        0.000        0.000        0.000        0.000        0.000        0.000        1.000        0.000        0.000        0.000        0.000        0.000        0.000        0.000        0.000        0.000        0.000        0.000        0.000        0.000        0.000        0.000        0.000        0.000        1.000        1.000        2.000        0.000        0.000        0.000        6.000        0.000        4.494        0.000       95.506        0.000        0.000        2.871        2.916        3.449
     600.000  -229304.759    21648.034    13830.800    34651.444      121.561  -342333.450    42776.853       25.105       25.647        2.538        2.461        2.650        2.680        2.496        2.599        2.687        2.481        2.742        2.679        2.695        2.546        2.514        2.629        2.669        2.589        0.482        0.000        0.000        0.000        0.000        1.000        0.000        0.000        1.000        0.000        0.000        0.000        0.000        0.000        0.000        0.000        0.000        0.000        0.000        0.000        0.000        0.000        0.000        0.000        0.000        0.000        1.000        0.000        3.000        0.000        0.000        0.000        3.000        0.000        0.000        0.000      100.000        0.000        0.000        3.014        3.029        3.512
     610.000  -229273.228    21788.117    13831.458    34663.893       98.523  -341993.750    42338.532       25.069       25.074        2.551        2.492        2.714        2.683        2.501        2.510        2.750        2.551        2.724        2.674        2.710        2.509        2.577        2.597        2.679        2.629        0.503        0.000        0.000        0.000        0.000        0.000        0.000        0.000        1.000        0.000        0.000        0.000        0.000        0.000        0.000        0.000        0.000        0.000        0.000        0.000        0.000        0.000        0.000        0.000        0.000        0.000        0.000        0.000        0.000        0.000        0.000        0.000        2.000        0.000        0.000        0.000      100.000        0.000        0.000        2.812        2.843        3.422
     620.000  -229178.070    23124.075    13869.929    34335.552      122.789  -341037.967    40407.552       25.281       25.412        2.566        2.464        2.664        2.672        2.481        2.525        2.697        2.484        2.701        2.666        2.713        2.548        2.623        2.624        2.632        2.643        0.501        0.000        0.000        0.000        0.000        1.000        0.000        0.000        1.000        0.000        0.000        0.000        1.000        0.000        0.000        0.000        0.000        0.000        0.000        0.000        0.000        0.000        0.000        0.000        0.000        2.000        1.000        0.000        0.000        0.000        0.000        0.000        0.000        0.000        0.000        0.000      100.000        0.000        0.000        2.834        2.864        3.432
     630.000  -230269.450    22879.793    14090.750    34417.595      119.445  -342465.921    40688.889       25.303       25.489        2.563        2.481        2.698        2.697        2.503        2.490        2.671        2.564        2.706        2.677        2.699        2.579        2.554        2.558        2.672        2.610        0.489        0.000        0.000        0.000        0.000        1.000        0.000        0.000        1.000        0.000        0.000        0.000        0.000        0.000        0.000        0.000        0.000        0.000        0.000        0.000        0.000        0.000        0.000        0.000        0.000        0.000        1.000        0.000        3.000        0.000        0.000        0.000        3.000        0.000        0.000        0.000      100.000        0.000        0.000        2.673        2.729        3.324
     640.000  -230514.782    23371.491    13752.789    34439.522      115.950  -342929.828    40735.293       25.466       25.619        2.561        2.479        2.668        2.686        2.512        2.533        2.742        2.518        2.697        2.720        2.722        2.576        2.590        2.587        2.653        2.610        0.469        0.000        0.000        0.000        0.000        1.000        0.000        0.000        1.000        0.000        0.000        0.000        0.000        0.000        0.000        0.000        0.000        0.000        0.000        0.000        0.000        0.000        0.000        0.000        0.000        0.000        0.000        0.000        0.000        0.000        0.000        0.000        2.000        0.000        0.000        0.000      100.000        0.000        0.000        2.079        2.110        3.209
     650.000  -230366.228    23393.194    13832.843    34463.828      108.952  -342824.187    40659.142       25.545       25.388        2.608        2.490        2.680        2.713        2.515        2.526        2.713        2.558        2.713        2.703        2.754        2.557        2.593        2.656        2.703        2.614        0.490        0.000        0.000        0.000        0.000        1.000        0.000        0.000        1.000        0.000        0.000        0.000        0.000        0.000        0.000        0.000        0.000        0.000        0.000        0.000        0.000        0.000        0.000        0.000        0.000        0.000        2.000        0.000        0.000        0.000        0.000        0.000        2.000        0.000        0.000        0.000      100.000        0.000        0.000        2.026        2.024        3.198
     660.000  -230128.959    23600.007    13955.459    34458.452      126.263  -342220.935    39951.796       25.564       25.506        2.615        2.441        2.697        2.674        2.519        2.551        2.639        2.512        2.650        2.647        2.783        2.492        2.575        2.632        2.683        2.579        0.477        0.000        0.000        0.000        0.000        0.000        0.000        0.000        0.000        0.000        0.000        0.000        0.000        0.000        0.000        0.000        0.000        0.000        0.000        0.000        0.000        0.000        0.000        0.000        0.000        0.000        0.000        0.000        1.000        0.000        0.000        0.000        1.000        0.000        4.494        0.000       95.506        0.000        0.000        1.968        1.996        3.071
     670.000  -230339.649    22794.939    13918.894    34554.818      146.551  -343272.168    41517.317       25.250       25.419        2.597        2.504        2.687        2.700        2.523        2.547        2.729        2.558        2.659        2.671        2.726        2.489        2.527        2.600        2.691        2.626        0.488        0.000        0.000        0.000        1.000        1.000        0.000        0.000        1.000        0.000        0.000        0.000        0.000        0.000        0.000        0.000        0.000        0.000        0.000        0.000        1.000        0.000        0.000        0.000        0.000        0.000        2.000        0.000        1.000        0.000        0.000        0.000        0.000        0.000        4.494        0.000       95.506        0.000        0.000        1.551        1.574        2.955
     680.000  -229995.131    22562.828    13974.604    34348.083      137.157  -342754.575    41736.771       25.376       25.633        2.624        2.518        2.695        2.713        2.521        2.562        2.713        2.613        2.635        2.695        2.711        2.572        2.566        2.662        2.694        2.575        0.497        0.000        0.000        0.000        1.000        1.000        0.000        0.000        1.000        0.000        0.000        0.000        0.000        0.000        0.000        0.000        0.000        0.000        0.000        0.000        1.000        0.000        0.000        0.000        0.000        0.000        1.000        0.000        3.000        0.000        0.000        1.000        4.000        0.000        0.000        0.000      100.000        0.000        0.000        1.668        1.677        2.928
     690.000  -229707.076    22740.936    14065.878    34332.650      134.456  -341388.707    40407.711       25.464       25.582        2.587        2.488        2.686        2.719        2.523        2.512        2.711        2.599        2.673        2.678        2.768        2.538        2.566        2.615        2.733        2.563        0.476        0.000        0.000        0.000        0.000        1.000        0.000        0.000        1.000        0.000        0.000        0.000        1.000        0.000        0.000        0.000        0.000        0.000        0.000        0.000        0.000        0.000        0.000        0.000        0.000        0.000        1.000        2.000        1.000        0.000        0.000        0.000        3.000        0.000        4.494        0.000       95.506        0.000        0.000        1.698        1.682        2.950
     700.000  -229878.254    23054.208    14018.152    34307.867      118.036  -342142.634    40766.116       25.235       25.378        2.580        2.503        2.689        2.731        2.503        2.564        2.712        2.565        2.638        2.709        2.768        2.582        2.570        2.606        2.727        2.569        0.499        0.000        0.000        0.000        0.000        0.000        0.000        0.000        1.000        0.000        0.000        0.000        0.000        0.000        0.000        0.000        0.000        0.000        0.000        0.000        0.000        0.000        0.000        0.000        0.000        0.000        1.000        0.000        1.000        0.000        0.000        0.000        3.000        0.000        4.494        0.000       95.506        0.000        0.000        1.804        1.760        3.013
     710.000  -230226.890    23142.369    14022.083    34327.019      115.338  -342665.805    40832.106       25.399       25.471        2.579        2.479        2.709        2.716        2.518        2.574        2.699        2.598        2.696        2.717        2.753        2.483        2.594        2.592        2.732        2.544        0.469        0.000        0.000        0.000        0.000        0.000        0.000        0.000        0.000        0.000        0.000        0.000        0.000        0.000        0.000        0.000        0.000        0.000        0.000        0.000        0.000        0.000        0.000        0.000        0.000        0.000        1.000        0.000        0.000        0.000        0.000        0.000        2.000        0.000        0.000        0.000      100.000        0.000        0.000        2.095        2.056        3.032
     720.000  -230055.584    22857.461    13829.052    34321.015      116.161  -341917.969    40738.694       25.590       25.602        2.549        2.496        2.691        2.717        2.519        2.488        2.689        2.572        2.680        2.685        2.742        2.540        2.527        2.596        2.668        2.673        0.498        0.000        0.000        0.000        0.000        1.000        0.000        0.000        0.000        0.000        0.000        0.000        0.000        0.000        0.000        0.000        0.000        0.000        0.000        0.000        0.000        0.000        0.000        0.000        0.000        0.000        0.000        2.000        0.000        0.000        0.000        0.000        0.000        0.000        0.000        0.000      100.000        0.000        0.000        2.380        2.367        3.067
     730.000  -230282.453    22810.869    13769.407    34313.058      126.568  -341997.799    40695.443       25.239       25.521        2.589        2.460        2.714        2.720        2.495        2.572        2.676        2.521        2.720        2.715        2.739        2.521        2.584        2.579        2.717        2.576        0.494        0.000        0.000        0.000        0.000        1.000        0.000        0.000        0.000        0.000        0.000        0.000        1.000        0.000        0.000        0.000        0.000        0.000        0.000        0.000        0.000        0.000        0.000        0.000        0.000        1.000        0.000        2.000        1.000        0.000        0.000        0.000        3.000        0.000        0.000        0.000      100.000        0.000        0.000        2.354        2.306        3.073
     740.000  -230165.178    23874.192    13679.679    34343.022      135.094  -342497.059    40299.892       25.430       25.617        2.566        2.508        2.697        2.676        2.501        2.550        2.649        2.537        2.726        2.701        2.765        2.599        2.591        2.604        2.722        2.593        0.490        0.000        0.000        0.000        0.000        1.000        0.000        0.000        0.000        0.000        0.000        0.000        0.000        0.000        0.000        0.000        0.000        0.000        0.000        0.000        0.000        0.000        0.000        0.000        0.000        0.000        0.000        0.000        0.000        0.000        0.000        0.000        0.000        0.000        0.000        0.000      100.000        0.000        0.000        1.952        1.954        2.937
     750.000  -229883.976    22347.781    14003.607    34406.537      146.172  -342521.954    41733.882       25.355       25.574        2.543        2.477        2.711        2.690        2.540        2.499        2.691        2.565        2.717        2.693        2.719        2.598        2.540        2.587        2.682        2.562        0.480        0.000        0.000        0.000        0.000        1.000        0.000        0.000        1.000        0.000        0.000        0.000        0.000        0.000        0.000        0.000        0.000        0.000        0.000        0.000        0.000        0.000        0.000        0.000        0.000        0.000        0.000        2.000        2.000        0.000        0.000        0.000        3.000        0.000        0.000        0.000      100.000        0.000        0.000        2.078        2.088        3.147
     760.000  -229677.959    22973.138    13854.422    34496.323      118.260  -342865.625    41745.524       25.171       25.292        2.562        2.490        2.714        2.713        2.511        2.468        2.670        2.604        2.699        2.699        2.723        2.581        2.535        2.606        2.682        2.599        0.489        0.000        0.000        0.000        0.000        1.000        0.000        0.000        1.000        0.000        0.000        0.000        0.000        0.000        0.000        0.000        0.000        0.000        0.000        0.000        0.000        0.000        0.000        0.000        0.000        0.000        0.000        0.000        2.000        0.000        0.000        0.000        1.000        0.000        0.000        0.000      100.000        0.000        0.000        1.928        1.956        2.905
     770.000  -230023.295    23664.029    13977.363    34474.395      122.608  -342562.775    40301.085       25.356       25.564        2.553        2.488        2.688        2.723        2.498        2.463        2.683        2.561        2.740        2.708        2.731        2.527        2.609        2.589        2.715        2.606        0.487        0.000        0.000        0.000        0.000        1.000        0.000        0.000        1.000        0.000        0.000        0.000        1.000        0.000        0.000        0.000        0.000        0.000        0.000        0.000        0.000        0.000        0.000        0.000        0.000        0.000        0.000        0.000        1.000        0.000        0.000        0.000        2.000        0.000        0.000        0.000      100.000        0.000        0.000        1.824        1.871        2.964
     780.000  -229747.612    22734.899    13739.183    34445.960      132.487  -341827.702    41027.561       25.306       25.595        2.551        2.482        2.681        2.703        2.465        2.556        2.648        2.606        2.734        2.660        2.735        2.557        2.532        2.603        2.673        2.573        0.487        0.000        0.000        0.000        0.000        1.000        0.000        0.000        1.000        0.000        0.000        0.000        0.000        0.000        0.000        0.000        0.000        0.000        0.000        0.000        0.000        0.000        0.000        0.000        0.000        0.000        2.000        2.000        0.000        0.000        0.000        0.000        6.000        0.000        0.000        0.000      100.000        0.000        0.000        2.082        2.097        3.032
     790.000  -230277.618    23537.748    13853.539    34295.752      101.614  -342720.100    40653.829       25.430       25.698        2.595        2.467        2.693        2.722        2.541        2.548        2.641        2.596        2.703        2.705        2.739        2.503        2.614        2.542        2.728        2.533        0.480        0.000        0.000        0.000        1.000        1.000        0.000        0.000        0.000        0.000        0.000        0.000        0.000        0.000        0.000        0.000        0.000        0.000        0.000        0.000        1.000        0.000        0.000        0.000        0.000        0.000        0.000        3.000        2.000        0.000        0.000        0.000        2.000        0.000        0.000        0.000      100.000        0.000        0.000        2.018        2.076        2.967
     800.000  -229468.588    23414.735    13962.018    34553.259      109.127  -342223.021    40715.293       25.320       25.429        2.552        2.479        2.702        2.716        2.521        2.490        2.660        2.568        2.646        2.701        2.719        2.598        2.536        2.614        2.709        2.590        0.519        0.000        0.000        0.000        0.000        1.000        0.000        0.000        1.000        0.000        0.000        0.000        0.000        0.000        0.000        0.000        0.000        0.000        0.000        0.000        0.000        0.000        0.000        0.000        0.000        0.000        0.000        1.000        2.000        0.000        0.000        0.000        0.000        0.000        4.494        0.000       95.506        0.000        0.000        1.979        2.017        3.043
     810.000  -230807.503    22832.346    13811.423    34450.503      133.422  -343314.170    41278.973       25.710       25.422        2.585        2.512        2.653        2.730        2.499        2.520        2.655        2.555        2.718        2.708        2.726        2.543        2.580        2.584        2.678        2.604        0.491        0.000        0.000        0.000        1.000        1.000        0.000        0.000        1.000        0.000        0.000        0.000        0.000        0.000        0.000        0.000        0.000        0.000        0.000        0.000        1.000        0.000        0.000        0.000        0.000        0.000        0.000        0.000        2.000        1.000        0.000        0.000        3.000        0.000        0.000        0.000      100.000        0.000        0.000        1.836        1.892        3.053
     820.000  -230102.971    23014.852    13963.502    34323.183      118.394  -341971.340    40448.437       25.735       25.662        2.589        2.509        2.685        2.741        2.531        2.580        2.675        2.554        2.736        2.745        2.742        2.551        2.541        2.572        2.693        2.622        0.481        0.000        0.000        0.000        1.000        1.000        0.000        0.000        0.000        0.000        0.000        0.000        0.000        0.000        0.000        0.000        0.000        0.000        0.000        0.000        1.000        0.000        0.000        0.000        0.000        0.000        1.000        0.000        1.000        0.000        0.000        0.000        2.000        0.000        0.000        0.000      100.000        0.000        0.000        2.079        2.126        3.289
     830.000  -230007.805    22304.191    14058.233    34387.406      111.112  -343274.267    42405.520       25.281       25.233        2.567        2.533        2.667        2.664        2.495        2.511        2.654        2.545        2.713        2.710        2.742        2.497        2.606        2.600        2.669        2.533        0.499        0.000        0.000        0.000        1.000        0.000        0.000        0.000        0.000        0.000        0.000        0.000        0.000        0.000        0.000        0.000        0.000        0.000        0.000        0.000        1.000        0.000        0.000        0.000        0.000        0.000        0.000        0.000        1.000        0.000        0.000        0.000        5.000        0.000        0.000        0.000      100.000        0.000        0.000        1.944        2.004        3.192
     840.000  -229903.151    23757.110    14195.965    34223.328      110.315  -342883.212    40693.344       25.641       25.378        2.582        2.530        2.697        2.625        2.501        2.576        2.752        2.598        2.758        2.696        2.712        2.507        2.523        2.593        2.698        2.566        0.504        0.000        0.000        0.000        1.000        1.000        0.000        0.000        1.000        0.000        0.000        0.000        0.000        0.000        0.000        0.000        0.000        0.000        0.000        0.000        1.000        0.000        0.000        0.000        0.000        0.000        0.000        2.000        1.000        0.000        0.000        0.000        0.000        0.000        0.000        0.000      100.000        0.000        0.000        1.623        1.677        3.216
     850.000  -229453.629    22034.127    13792.379    34355.066      142.417  -341926.830    42149.212       25.714       25.748        2.590        2.472        2.679        2.703        2.505        2.593        2.735        2.582        2.692        2.737        2.753        2.455        2.524        2.581        2.666        2.651        0.479        0.000        0.000        0.000        1.000        1.000        0.000        0.000        1.000        0.000        0.000        0.000        0.000        0.000        0.000        0.000        0.000        0.000        0.000        0.000        1.000        0.000        0.000        0.000        0.000        0.000        0.000        2.000        2.000        0.000        0.000        0.000        0.000        0.000        0.000        0.000      100.000        0.000        0.000        1.754        1.797        3.110
     860.000  -229588.866    22864.754    13734.431    34269.325      133.047  -340790.694    40200.271       25.958       25.653        2.559        2.502        2.671        2.705        2.501        2.605        2.713        2.575        2.725        2.664        2.709        2.519        2.545        2.542        2.764        2.580        0.486        0.000        0.000        0.000        1.000        1.000        0.000        0.000        1.000        0.000        0.000        0.000        1.000        0.000        0.000        0.000        0.000        0.000        0.000        0.000        1.000        0.000        0.000        0.000        0.000        1.000        0.000        1.000        1.000        0.000        0.000        0.000        2.000        0.000        0.000        0.000      100.000        0.000        0.000        1.823        1.860        3.191
     870.000  -229554.258    22655.920    14368.269    34247.895      130.171  -342448.619    41492.106       25.630       25.522        2.547        2.488        2.645        2.720        2.535        2.561        2.711        2.584        2.725        2.654        2.711        2.494        2.577        2.614        2.724        2.629        0.505        0.000        0.000        0.000        1.000        1.000        0.000        0.000        1.000        0.000        0.000        0.000        0.000        0.000        0.000        0.000        0.000        0.000        0.000        0.000        1.000        0.000        0.000        0.000        0.000        0.000        1.000        0.000        1.000        0.000        0.000        0.000        1.000        0.000        4.494        0.000       95.506        0.000        0.000        2.122        2.146        3.169
     880.000  -230847.151    23195.479    13809.692    34193.486      147.272  -342242.696    40049.615       25.669       25.701        2.582        2.464        2.682        2.750        2.513        2.565        2.638        2.583        2.719        2.742        2.715        2.530        2.551        2.617        2.705        2.610        0.495        0.000        0.000        0.000        1.000        1.000        0.000        0.000        1.000        0.000        0.000        0.000        0.000        0.000        0.000        0.000        0.000        0.000        0.000        0.000        1.000        0.000        0.000        0.000        0.000        0.000        0.000        0.000        4.000        0.000        0.000        0.000        2.000        0.000        0.000        0.000      100.000        0.000        0.000        1.994        2.037        3.257
     890.000  -229720.601    23019.060    13938.897    34496.074      118.382  -342534.299    41241.285       25.596       25.442        2.575        2.464        2.671        2.684        2.519        2.501        2.673        2.568        2.721        2.684        2.715        2.465        2.567        2.563        2.723        2.641        0.493        0.000        0.000        0.000        0.000        1.000        0.000        0.000        1.000        0.000        0.000        0.000        0.000        0.000        0.000        0.000        0.000        0.000        0.000        0.000        0.000        0.000        0.000        0.000        0.000        0.000        1.000        0.000        3.000        0.000        0.000        0.000        3.000        0.000        0.000        0.000      100.000        0.000        0.000        2.245        2.268        3.288
     900.000  -230030.298    23438.607    14188.739    34201.913       90.334  -341618.693    39668.802       25.758       25.293        2.598        2.451        2.694        2.672        2.543        2.508        2.676        2.621        2.715        2.726        2.723        2.484        2.521        2.578        2.730        2.627        0.482        0.000        0.000        0.000        0.000        1.000        0.000        0.000        1.000        0.000        0.000        0.000        0.000        0.000        0.000        0.000        0.000        0.000        0.000        0.000        0.000        0.000        0.000        0.000        0.000        0.000        1.000        0.000        1.000        0.000        0.000        0.000        0.000        0.000        0.000        0.000      100.000        0.000        0.000        2.056        2.114        3.284
     910.000  -230613.412    22125.261    14037.821    34329.782      133.705  -343238.203    41998.222       25.794       25.478        2.545        2.491        2.674        2.700        2.459        2.532        2.641        2.611        2.718        2.695        2.761        2.479        2.486        2.579        2.738        2.627        0.494        0.000        0.000        0.000        0.000        1.000        0.000        0.000        1.000        0.000        0.000        0.000        0.000        0.000        0.000        0.000        0.000        0.000        0.000        0.000        0.000        0.000        0.000        0.000        0.000        2.000        0.000        0.000        1.000        0.000        0.000        0.000        0.000        0.000        0.000        0.000      100.000        0.000        0.000        2.045        2.087        3.162
     920.000  -230126.884    21879.472    14040.874    34255.935      120.537  -342519.972    42096.270       25.470       25.127        2.578        2.498        2.695        2.721        2.525        2.614        2.645        2.592        2.723        2.715        2.742        2.537        2.499        2.589        2.758        2.589        0.483        0.000        0.000        0.000        0.000        1.000        0.000        0.000        1.000        0.000        0.000        0.000        0.000        0.000        0.000        0.000        0.000        0.000        0.000        0.000        0.000        0.000        0.000        0.000        0.000        2.000        1.000        0.000        0.000        1.000        0.000        0.000        4.000        0.000        0.000        0.000      100.000        0.000        0.000        2.361        2.420        3.303
     930.000  -229489.017    23490.213    14213.210    34251.089      130.914  -341971.367    40396.923       25.408       25.154        2.577        2.451        2.718        2.657        2.541        2.598        2.654        2.594        2.726        2.712        2.744        2.527        2.515        2.639        2.742        2.640        0.486        0.000        0.000        0.000        0.000        1.000        0.000        0.000        1.000        0.000        0.000        0.000        0.000        0.000        0.000        0.000        0.000        0.000        0.000        0.000        0.000        0.000        0.000        0.000        0.000        1.000        2.000        0.000        2.000        0.000        0.000        0.000        2.000        0.000        0.000        0.000      100.000        0.000        0.000        2.224        2.256        3.161
     940.000  -230216.304    22913.840    14170.248    34294.332      120.164  -343164.443    41449.554       25.694       25.416        2.553        2.469        2.681        2.638        2.526        2.572        2.687        2.551        2.706        2.693        2.761        2.506        2.504        2.606        2.678        2.652        0.500        0.000        0.000        0.000        0.000        1.000        0.000        0.000        0.000        0.000        0.000        0.000        0.000        0.000        0.000        0.000        0.000        0.000        0.000        0.000        0.000        0.000        0.000        0.000        0.000        1.000        0.000        0.000        0.000        0.000        0.000        0.000        4.000        0.000        4.494        0.000       95.506        0.000        0.000        2.318        2.388        3.381
     950.000  -229765.855    22393.392    13827.434    34512.157      102.790  -342426.214    41824.587       25.596       25.435        2.548        2.476        2.602        2.662        2.547        2.593        2.646        2.618        2.721        2.695        2.709        2.449        2.499        2.575        2.738        2.561        0.484        0.000        0.000        0.000        0.000        1.000        0.000        0.000        1.000        0.000        0.000        0.000        0.000        0.000        0.000        0.000        0.000        0.000        0.000        0.000        0.000        0.000        0.000        0.000        0.000        0.000        1.000        0.000        2.000        0.000        0.000        0.000        3.000        0.000        0.000        0.000      100.000        0.000        0.000        2.177        2.218        3.217
     960.000  -230512.835    21850.621    13569.963    34504.567      116.584  -342239.897    41685.327       25.670       25.275        2.562        2.475        2.616        2.702        2.524        2.578        2.682        2.616        2.730        2.696        2.669        2.518        2.502        2.584        2.716        2.553        0.494        0.000        0.000        0.000        0.000        1.000        0.000        0.000        1.000        0.000        0.000        0.000        0.000        0.000        0.000        0.000        0.000        0.000        0.000        0.000        0.000        0.000        0.000        0.000        0.000        1.000        3.000        1.000        0.000        0.000        0.000        0.000        4.000        0.000        0.000        0.000      100.000        0.000        0.000        1.858        1.930        3.182
     970.000  -229918.476    22712.748    13741.641    34293.804      126.431  -343013.555    42220.455       25.547       25.302        2.555        2.483        2.672        2.714        2.516        2.617        2.671        2.577        2.730        2.704        2.714        2.508        2.454        2.612        2.719        2.576        0.511        0.000        0.000        0.000        1.000        1.000        0.000        0.000        1.000        0.000        0.000        0.000        0.000        0.000        0.000        0.000        0.000        0.000        0.000        0.000        1.000        0.000        0.000        0.000        0.000        0.000        0.000        0.000        1.000        0.000        0.000        0.000        3.000        0.000        4.494        0.000       95.506        0.000        0.000        1.873        1.941        3.079
     980.000  -228984.834    22636.149    13888.507    34342.348      113.031  -341274.130    41309.261       25.727       25.371        2.573        2.470        2.702        2.658        2.525        2.591        2.684        2.602        2.763        2.667        2.673        2.494        2.469        2.636        2.690        2.576        0.467        0.000        0.000        0.000        1.000        1.000        0.000        0.000        1.000        0.000        0.000        0.000        0.000        0.000        0.000        0.000        0.000        0.000        0.000        0.000        1.000        0.000        0.000        0.000        0.000        0.000        0.000        1.000        2.000        0.000        0.000        0.000        2.000        0.000        4.494        0.000       95.506        0.000        0.000        1.861        1.933        3.157
     990.000  -230157.319    22746.687    13847.955    34383.404      128.439  -343254.453    41990.649       25.773       25.586        2.542        2.492        2.675        2.634        2.522        2.586        2.703        2.594        2.696        2.698        2.704        2.522        2.479        2.595        2.726        2.565        0.490        0.000        0.000        0.000        1.000        1.000        0.000        0.000        1.000        0.000        0.000        0.000        0.000        0.000        0.000        0.000        0.000        0.000        0.000        0.000        1.000        0.000        0.000        0.000        0.000        1.000        2.000        0.000        2.000        0.000        0.000        0.000        4.000        0.000        0.000        0.000      100.000        0.000        0.000        1.829        1.910        3.279
    1000.000  -229797.821    22195.586    14213.229    34266.122      109.578  -340652.586    40070.249       25.882       25.450        2.554        2.458        2.705        2.712        2.522        2.594        2.736        2.594        2.721        2.649        2.655        2.546        2.511        2.625        2.715        2.560        0.476        0.000        0.000        0.000        1.000        1.000        0.000        0.000        1.000        0.000        0.000        0.000        0.000        0.000        0.000        0.000        0.000        0.000        0.000        0.000        1.000        0.000        0.000        0.000        0.000        0.000        2.000        0.000        0.000        0.000        0.000        0.000        1.000        0.000        0.000        0.000      100.000        0.000        0.000        1.731        1.822        3.425
     Average  -231551.173    23274.200    14040.015    34420.443      120.732  -345258.947    41852.383       25.598       25.594        2.602        2.479        2.678        2.705        2.512        2.562        2.695        2.572        2.675        2.689        2.716        2.532        2.557        2.597        2.700        2.600        0.488        0.010        0.000        0.020        0.158        0.683        0.000        0.000        0.723        0.000        0.000        0.000        0.149        0.000        0.000        0.000        0.287        0.000        0.000        0.000        0.149        0.000        0.000        0.000        0.000        0.376        1.168        0.614        0.970        0.416        0.000        0.277        3.030        0.000        1.146        0.000       98.854        0.000        0.000        1.990        2.014        2.790

