____Time[ps] Energy[ kJ/mol ]_____Bond _______Angle ____Dihedral ___Planarity _____Coulomb _________VdW _Your result _Your result _Your result _Your result _Your result _Your result _Your result _Your result _Your result _Your result _Your result _Your result _Your result _Your result _Your result _Your result _Your result _Your result _Your result _Your result _Your result _Your result _Your result _Your result _Your result _Your result _Your result _Your result _Your result _Your result _Your result _Your result _Your result _Your result _Your result _Your result _Your result _Your result _Your result _Your result _Your result _Your result _Your result _Your result _Your result _Your result _Your result _Your result _Your result _Your result _Your result _Your result _Your result _Your result _Your result _Your result _Your result _RMSDs[A]:CA ____Backbone __HeavyAtoms
       0.000  -344941.066     7000.981     4769.835    33622.795       19.820  -458474.780    68120.283       25.125       25.160        2.437        2.511        2.540        2.632        3.173        2.954        3.249        2.972        3.160        3.232        3.105        3.198        2.480        2.554        2.572        2.585        0.487        0.000        1.000        0.000        1.000        3.000        0.000        0.000        3.000        0.000        0.000        0.000        0.000        0.000        0.000        0.000        4.000        0.000        0.000        0.000        0.000        0.000        0.000        0.000        0.000        0.000        1.000        0.000        1.000        0.000        0.000        0.000        3.000        0.000        0.000        0.000      100.000        0.000        0.000        0.469        0.512        0.656
      10.000  -259593.776    30233.566    15392.149    33704.915      120.535  -388483.498    49438.557       25.720       25.508        2.506        2.535        2.500        2.629        3.134        2.881        3.285        2.957        3.180        3.279        3.132        3.040        2.523        2.516        2.671        2.608        0.500        0.000        0.000        0.000        1.000        3.000        0.000        0.000        1.000        0.000        0.000        0.000        0.000        0.000        0.000        0.000        6.000        0.000        0.000        0.000        0.000        0.000        0.000        0.000        0.000        0.000        1.000        0.000        1.000        1.000        0.000        0.000        2.000        0.000        0.000        0.000      100.000        0.000        0.000        1.289        1.325        1.522
      20.000  -259503.376    29290.648    15576.186    33714.290      137.765  -387828.523    49606.258       25.697       25.455        2.523        2.559        2.533        2.668        3.177        2.888        3.282        2.996        3.152        3.255        3.179        3.004        2.501        2.534        2.744        2.591        0.479        0.000        1.000        0.000        1.000        3.000        0.000        0.000        2.000        0.000        0.000        0.000        0.000        0.000        0.000        0.000        2.000        0.000        0.000        0.000        0.000        0.000        0.000        0.000        0.000        1.000        2.000        0.000        0.000        0.000        0.000        0.000        0.000        0.000        4.494        0.000       95.506        0.000        0.000        1.418        1.434        1.619
      30.000  -258717.600    28482.369    15816.909    33651.332      122.790  -386229.709    49438.710       25.793       25.656        2.470        2.575        2.580        2.711        3.228        3.041        3.270        2.945        3.184        3.252        3.172        3.083        2.525        2.549        2.703        2.573        0.499        0.000        2.000        0.000        1.000        4.000        0.000        0.000        1.000        0.000        0.000        0.000        0.000        0.000        0.000        0.000        2.000        0.000        0.000        0.000        0.000        0.000        0.000        0.000        0.000        0.000        1.000        0.000        0.000        0.000        0.000        0.000        4.000        0.000        4.494        0.000       95.506        0.000        0.000        1.758        1.799        2.068
      40.000  -258980.653    27419.592    15860.757    33769.370      136.417  -386699.048    50532.260       25.712       25.639        2.556        2.605        2.530        2.702        3.209        2.949        3.224        3.008        3.208        3.233        3.155        3.031        2.551        2.534        2.679        2.579        0.508        0.000        1.000        0.000        1.000        3.000        0.000        0.000        1.000        0.000        0.000        0.000        0.000        0.000        0.000        0.000        0.000        0.000        0.000        0.000        0.000        0.000        0.000        0.000        0.000        0.000        3.000        0.000        0.000        1.000        0.000        0.000        2.000        0.000        4.494        0.000       95.506        0.000        0.000        1.668        1.690        1.984
      50.000  -258132.161    28570.648    15989.135    33715.820      105.202  -384278.925    47765.958       25.677       25.696        2.550        2.685        2.564        2.691        3.176        2.947        3.263        3.001        3.154        3.262        3.143        3.090        2.547        2.542        2.728        2.614        0.487        0.000        1.000        0.000        0.000        4.000        0.000        0.000        1.000        0.000        1.000        0.000        0.000        0.000        0.000        0.000        0.000        0.000        0.000        0.000        0.000        0.000        0.000        0.000        0.000        0.000        2.000        0.000        1.000        0.000        0.000        0.000        1.000        0.000        4.494        0.000       95.506        0.000        0.000        1.738        1.786        2.166
      60.000  -257599.661    27322.444    16158.285    33551.179      119.477  -385998.760    51247.715       25.876       25.750        2.565        2.615        2.588        2.642        3.234        2.981        3.271        3.021        3.170        3.236        3.165        3.092        2.544        2.603        2.706        2.544        0.498        0.000        2.000        0.000        0.000        4.000        0.000        0.000        0.000        0.000        2.000        0.000        0.000        0.000        0.000        0.000        3.000        0.000        0.000        0.000        0.000        0.000        0.000        0.000        0.000        1.000        3.000        0.000        1.000        0.000        0.000        0.000        3.000        0.000        0.000        0.000      100.000        0.000        0.000        1.484        1.512        1.902
      70.000  -257447.670    27625.433    15990.969    33900.666       92.453  -384520.040    49462.849       25.535       25.513        2.595        2.679        2.505        2.634        3.186        2.910        3.215        3.053        3.264        3.260        3.130        2.978        2.516        2.551        2.686        2.546        0.482        1.000        2.000        0.000        0.000        3.000        0.000        0.000        2.000        0.000        1.000        0.000        0.000        0.000        0.000        0.000        0.000        0.000        0.000        0.000        0.000        0.000        0.000        0.000        0.000        0.000        3.000        0.000        2.000        0.000        0.000        0.000        4.000        0.000        0.000        0.000      100.000        0.000        0.000        1.652        1.686        2.015
      80.000  -257742.217    28393.529    16036.060    33277.403      113.741  -383028.246    47465.296       25.811       25.848        2.579        2.622        2.546        2.637        3.243        2.926        3.278        3.007        3.265        3.244        3.127        3.045        2.509        2.591        2.671        2.571        0.493        1.000        1.000        0.000        0.000        4.000        0.000        0.000        2.000        0.000        0.000        0.000        0.000        0.000        0.000        0.000        2.000        0.000        0.000        0.000        0.000        0.000        0.000        0.000        0.000        0.000        4.000        0.000        1.000        0.000        0.000        0.000        2.000        0.000        0.000        0.000      100.000        0.000        0.000        1.606        1.617        2.021
      90.000  -257207.996    28164.077    15708.353    33505.880       99.512  -382369.406    47683.588       25.663       25.716        2.583        2.610        2.532        2.655        3.252        2.916        3.230        3.078        3.223        3.244        3.152        3.089        2.520        2.542        2.644        2.579        0.463        0.000        1.000        0.000        0.000        4.000        0.000        0.000        2.000        0.000        0.000        0.000        0.000        0.000        0.000        0.000        3.000        0.000        0.000        0.000        0.000        0.000        0.000        0.000        0.000        1.000        0.000        0.000        0.000        0.000        0.000        0.000        3.000        0.000        0.000        0.000      100.000        0.000        0.000        1.639        1.648        1.956
     100.000  -256455.850    28013.666    16166.580    33468.785      108.701  -380817.515    46603.934       25.986       25.990        2.620        2.588        2.584        2.672        3.156        2.913        3.206        2.998        3.186        3.247        3.182        3.026        2.524        2.569        2.693        2.588        0.493        0.000        2.000        0.000        0.000        4.000        0.000        0.000        2.000        0.000        0.000        0.000        0.000        0.000        0.000        0.000        4.000        0.000        0.000        0.000        0.000        0.000        0.000        0.000        0.000        0.000        2.000        0.000        0.000        0.000        0.000        0.000        2.000        0.000        0.000        0.000      100.000        0.000        0.000        1.610        1.636        1.986
     110.000  -256402.941    25988.180    15945.041    33643.398      120.359  -381467.770    49367.851       25.981       25.713        2.576        2.581        2.592        2.644        3.220        2.874        3.234        2.998        3.160        3.254        3.163        3.034        2.515        2.572        2.719        2.576        0.478        0.000        2.000        0.000        0.000        4.000        0.000        0.000        1.000        0.000        1.000        0.000        0.000        0.000        0.000        0.000        5.000        0.000        0.000        0.000        0.000        0.000        0.000        0.000        0.000        1.000        2.000        0.000        0.000        0.000        0.000        0.000        4.000        0.000        0.000        0.000      100.000        0.000        0.000        1.435        1.468        1.811
     120.000  -257259.866    26868.836    15821.516    33826.006      122.914  -382944.699    49045.560       25.949       25.724        2.572        2.574        2.571        2.629        3.191        2.963        3.266        3.076        3.219        3.202        3.142        3.059        2.504        2.573        2.673        2.593        0.489        0.000        1.000        0.000        0.000        3.000        0.000        0.000        1.000        0.000        1.000        0.000        0.000        0.000        0.000        0.000        1.000        0.000        0.000        0.000        0.000        0.000        0.000        0.000        0.000        1.000        4.000        0.000        0.000        1.000        0.000        0.000        3.000        0.000        0.000        0.000      100.000        0.000        0.000        1.435        1.466        1.799
     130.000  -256491.629    27753.504    15572.981    33699.410      129.092  -379954.781    46308.164       25.848       25.667        2.597        2.614        2.530        2.731        3.220        2.941        3.238        3.006        3.131        3.230        3.167        3.018        2.482        2.611        2.700        2.589        0.498        0.000        1.000        0.000        0.000        3.000        0.000        0.000        0.000        1.000        0.000        0.000        0.000        0.000        0.000        0.000        1.000        0.000        0.000        0.000        0.000        0.000        0.000        0.000        0.000        1.000        2.000        0.000        0.000        0.000        0.000        0.000        3.000        0.000        0.000        0.000      100.000        0.000        0.000        1.869        1.925        2.205
     140.000  -257748.561    27309.811    15672.110    33465.873      145.627  -382869.903    48527.922       25.706       25.554        2.615        2.562        2.553        2.696        3.275        2.973        3.261        3.130        3.194        3.253        3.232        3.035        2.466        2.582        2.705        2.628        0.489        0.000        1.000        0.000        0.000        4.000        0.000        0.000        2.000        0.000        0.000        0.000        0.000        0.000        0.000        0.000        2.000        0.000        0.000        0.000        0.000        0.000        0.000        0.000        0.000        1.000        2.000        0.000        0.000        1.000        0.000        0.000        4.000        0.000        0.000        0.000      100.000        0.000        0.000        2.296        2.347        2.606
     150.000  -256279.144    27236.747    15534.153    33734.650      143.406  -379901.835    46973.735       25.707       25.349        2.580        2.604        2.524        2.709        3.241        2.926        3.223        2.974        3.186        3.257        3.124        3.047        2.548        2.581        2.716        2.602        0.477        0.000        1.000        0.000        0.000        4.000        0.000        0.000        2.000        0.000        1.000        0.000        0.000        0.000        0.000        0.000        2.000        0.000        0.000        0.000        0.000        0.000        0.000        0.000        0.000        1.000        4.000        0.000        0.000        0.000        0.000        0.000        1.000        0.000        0.000        0.000      100.000        0.000        0.000        2.002        2.044        2.304
     160.000  -256048.180    27876.722    15803.983    33751.435      117.903  -380520.071    46921.848       25.669       25.368        2.592        2.505        2.558        2.709        3.218        3.002        3.265        3.043        3.167        3.225        3.087        3.035        2.536        2.574        2.672        2.557        0.485        0.000        2.000        0.000        0.000        4.000        0.000        0.000        2.000        0.000        1.000        0.000        0.000        0.000        0.000        0.000        0.000        0.000        0.000        0.000        0.000        0.000        0.000        0.000        0.000        1.000        2.000        0.000        1.000        0.000        0.000        0.000        3.000        0.000        0.000        0.000      100.000        0.000        0.000        2.157        2.226        2.385
     170.000  -256457.151    25891.504    15605.199    33765.428      157.698  -380380.185    48503.205       25.680       25.512        2.595        2.510        2.504        2.673        3.212        2.968        3.265        3.050        3.146        3.223        3.133        3.087        2.485        2.578        2.699        2.586        0.467        0.000        1.000        0.000        0.000        4.000        0.000        0.000        0.000        0.000        2.000        0.000        0.000        0.000        0.000        0.000        0.000        0.000        0.000        0.000        0.000        0.000        0.000        0.000        0.000        0.000        2.000        0.000        0.000        0.000        0.000        0.000        2.000        0.000        0.000        0.000      100.000        0.000        0.000        2.438        2.483        2.736
     180.000  -255168.676    27025.645    15427.600    33528.031      128.142  -379200.843    47922.749       25.863       25.590        2.523        2.589        2.501        2.709        3.155        2.924        3.245        3.032        3.266        3.207        3.149        3.067        2.527        2.567        2.691        2.608        0.465        0.000        0.000        0.000        0.000        3.000        0.000        0.000        0.000        0.000        0.000        0.000        0.000        0.000        0.000        0.000        2.000        0.000        0.000        0.000        0.000        0.000        0.000        0.000        0.000        0.000        5.000        0.000        1.000        1.000        0.000        0.000        0.000        0.000        4.494        0.000       95.506        0.000        0.000        2.545        2.597        2.871
     190.000  -255285.822    25298.723    15530.583    33733.068      109.229  -378139.663    48182.239       25.689       25.415        2.539        2.547        2.511        2.719        3.215        2.973        3.259        3.066        3.259        3.248        3.184        3.005        2.435        2.611        2.667        2.619        0.499        0.000        1.000        0.000        0.000        3.000        0.000        0.000        1.000        0.000        0.000        0.000        0.000        0.000        0.000        0.000        2.000        0.000        0.000        0.000        0.000        0.000        0.000        0.000        0.000        0.000        4.000        0.000        1.000        1.000        0.000        0.000        4.000        0.000        0.000        0.000      100.000        0.000        0.000        2.567        2.608        2.853
     200.000  -255585.819    26434.635    15342.547    33481.903      154.364  -379045.502    48046.235       25.914       25.455        2.565        2.544        2.564        2.664        3.160        2.951        3.224        2.988        3.241        3.278        3.151        3.037        2.568        2.590        2.714        2.629        0.482        0.000        1.000        0.000        0.000        2.000        0.000        0.000        1.000        0.000        0.000        0.000        0.000        0.000        0.000        0.000        3.000        0.000        0.000        0.000        0.000        0.000        0.000        0.000        0.000        0.000        3.000        0.000        0.000        0.000        0.000        0.000        5.000        0.000        0.000        0.000      100.000        0.000        0.000        2.074        2.120        2.444
     210.000  -255537.288    25824.202    15186.632    33610.644      131.342  -377582.587    47292.479       25.863       25.549        2.513        2.483        2.515        2.685        3.161        2.977        3.247        3.008        3.218        3.282        3.178        2.973        2.524        2.634        2.668        2.571        0.495        0.000        0.000        0.000        0.000        3.000        0.000        0.000        0.000        0.000        1.000        0.000        0.000        0.000        0.000        0.000        2.000        0.000        0.000        0.000        0.000        0.000        0.000        0.000        0.000        1.000        5.000        0.000        0.000        0.000        0.000        0.000        5.000        0.000        0.000        0.000      100.000        0.000        0.000        1.878        1.929        2.368
     220.000  -255805.297    26263.330    15319.494    33794.661      119.670  -378181.704    46879.253       25.793       25.771        2.614        2.575        2.482        2.650        3.198        2.984        3.276        2.915        3.204        3.229        3.149        3.000        2.553        2.548        2.689        2.544        0.490        0.000        0.000        0.000        0.000        2.000        0.000        0.000        0.000        0.000        0.000        0.000        0.000        0.000        0.000        0.000        1.000        0.000        0.000        0.000        0.000        0.000        0.000        0.000        0.000        1.000        5.000        0.000        0.000        0.000        0.000        0.000        2.000        0.000        0.000        0.000      100.000        0.000        0.000        1.502        1.569        2.007
     230.000  -256093.807    26094.074    15437.845    33561.874      116.495  -379064.125    47760.030       25.664       25.623        2.615        2.569        2.508        2.694        3.242        2.981        3.244        3.014        3.291        3.260        3.136        3.088        2.541        2.587        2.710        2.566        0.483        0.000        1.000        0.000        1.000        2.000        0.000        0.000        0.000        0.000        0.000        0.000        0.000        0.000        0.000        0.000        1.000        0.000        0.000        0.000        0.000        0.000        0.000        0.000        0.000        0.000        1.000        0.000        0.000        1.000        0.000        0.000        4.000        0.000        0.000        0.000      100.000        0.000        0.000        1.645        1.683        2.158
     240.000  -254610.143    25726.152    15414.634    33829.873      150.479  -377181.891    47450.610       25.702       25.414        2.658        2.556        2.523        2.661        3.195        2.955        3.235        3.038        3.220        3.285        3.134        3.056        2.582        2.547        2.675        2.604        0.484        0.000        1.000        0.000        1.000        2.000        0.000        0.000        1.000        0.000        1.000        0.000        0.000        0.000        0.000        0.000        1.000        0.000        0.000        0.000        0.000        0.000        0.000        0.000        0.000        0.000        2.000        0.000        2.000        1.000        0.000        0.000        9.000        0.000        0.000        0.000      100.000        0.000        0.000        1.747        1.771        2.022
     250.000  -255224.507    26019.569    15402.628    33533.869      154.671  -377874.425    47539.179       25.620       25.728        2.600        2.586        2.493        2.683        3.233        2.945        3.206        3.010        3.254        3.267        3.155        3.023        2.547        2.567        2.680        2.558        0.499        0.000        1.000        0.000        1.000        2.000        0.000        0.000        1.000        0.000        1.000        0.000        0.000        0.000        0.000        0.000        3.000        0.000        0.000        0.000        0.000        0.000        0.000        0.000        0.000        1.000        2.000        0.000        2.000        1.000        0.000        0.000        6.000        0.000        0.000        0.000      100.000        0.000        0.000        1.933        1.984        2.220
     260.000  -254906.546    24613.943    15653.444    33676.518      157.264  -376680.988    47673.273       25.573       25.702        2.594        2.535        2.528        2.672        3.215        3.022        3.257        3.036        3.194        3.253        3.059        2.964        2.525        2.579        2.684        2.542        0.490        0.000        1.000        0.000        1.000        2.000        0.000        0.000        0.000        0.000        0.000        0.000        0.000        0.000        0.000        0.000        1.000        0.000        0.000        0.000        0.000        0.000        0.000        0.000        0.000        0.000        1.000        0.000        1.000        1.000        0.000        0.000        1.000        0.000        0.000        0.000      100.000        0.000        0.000        1.484        1.505        1.938
     270.000  -254867.674    25375.337    15434.875    33585.015      126.466  -376178.062    46788.695       25.412       25.643        2.574        2.586        2.530        2.698        3.175        2.945        3.206        3.087        3.307        3.320        3.142        3.002        2.534        2.557        2.689        2.606        0.479        0.000        1.000        0.000        0.000        2.000        0.000        0.000        0.000        0.000        0.000        0.000        0.000        0.000        0.000        0.000        2.000        0.000        0.000        0.000        0.000        0.000        0.000        0.000        0.000        1.000        2.000        0.000        2.000        1.000        0.000        0.000        7.000        0.000        4.494        0.000       95.506        0.000        0.000        1.485        1.478        2.024
     280.000  -253681.495    25764.559    15265.431    33667.298      119.371  -375690.763    47192.609       25.449       25.518        2.608        2.593        2.524        2.720        3.237        2.945        3.212        2.957        3.307        3.289        2.916        3.003        2.549        2.577        2.690        2.550        0.492        0.000        1.000        0.000        1.000        2.000        0.000        0.000        1.000        0.000        0.000        0.000        0.000        0.000        0.000        0.000        3.000        0.000        0.000        0.000        0.000        0.000        0.000        0.000        0.000        0.000        2.000        0.000        2.000        2.000        0.000        0.000        6.000        0.000        0.000        0.000      100.000        0.000        0.000        1.659        1.664        2.110
     290.000  -254357.934    26373.374    15566.529    33738.708      131.036  -376175.586    46008.006       26.026       25.818        2.600        2.581        2.487        2.667        3.210        3.077        3.211        3.059        3.214        3.258        2.975        3.037        2.512        2.574        2.692        2.562        0.490        0.000        1.000        0.000        0.000        2.000        0.000        0.000        0.000        0.000        0.000        0.000        0.000        0.000        0.000        0.000        2.000        0.000        0.000        0.000        0.000        0.000        0.000        0.000        0.000        0.000        3.000        0.000        0.000        1.000        0.000        0.000        6.000        0.000        0.000        0.000      100.000        0.000        0.000        1.766        1.767        2.126
     300.000  -254406.355    25119.350    15170.005    33585.137      115.442  -375708.547    47312.258       25.995       25.829        2.557        2.555        2.536        2.682        3.137        2.987        3.260        3.060        3.257        3.237        2.962        3.054        2.471        2.559        2.707        2.538        0.505        0.000        1.000        0.000        0.000        2.000        0.000        0.000        0.000        0.000        1.000        0.000        0.000        0.000        0.000        0.000        1.000        0.000        0.000        0.000        0.000        0.000        0.000        0.000        0.000        1.000        5.000        0.000        0.000        1.000        0.000        0.000        3.000        0.000        4.494        0.000       95.506        0.000        0.000        1.847        1.859        2.234
     310.000  -254137.871    26492.158    14785.126    33563.871      127.768  -374925.775    45818.982       25.805       25.743        2.573        2.520        2.538        2.681        3.233        2.882        3.204        3.058        3.152        3.262        2.951        3.072        2.484        2.588        2.728        2.558        0.488        0.000        1.000        0.000        0.000        2.000        0.000        0.000        0.000        0.000        1.000        0.000        0.000        0.000        0.000        0.000        0.000        0.000        0.000        0.000        0.000        0.000        0.000        0.000        0.000        0.000        4.000        0.000        0.000        1.000        0.000        0.000        2.000        0.000        0.000        0.000      100.000        0.000        0.000        2.056        2.079        2.347
     320.000  -254492.975    25566.543    15041.129    33661.471      107.909  -376226.880    47356.854       25.669       25.545        2.529        2.598        2.539        2.722        3.237        3.040        3.230        2.977        3.213        3.236        2.950        3.059        2.529        2.614        2.730        2.512        0.498        0.000        1.000        0.000        0.000        2.000        0.000        0.000        0.000        0.000        0.000        0.000        0.000        0.000        0.000        0.000        1.000        0.000        0.000        0.000        0.000        0.000        0.000        0.000        0.000        0.000        2.000        0.000        1.000        2.000        0.000        0.000        1.000        0.000        4.494        0.000       95.506        0.000        0.000        2.339        2.364        2.591
     330.000  -254646.214    26561.712    15556.134    33713.571      127.785  -376236.644    45631.227       25.686       25.478        2.516        2.563        2.506        2.685        3.180        2.940        3.294        2.972        3.229        3.249        2.931        3.098        2.507        2.602        2.693        2.460        0.475        0.000        1.000        0.000        0.000        2.000        0.000        0.000        0.000        0.000        1.000        0.000        0.000        0.000        0.000        0.000        4.000        0.000        0.000        0.000        0.000        0.000        0.000        0.000        0.000        0.000        2.000        0.000        0.000        1.000        0.000        0.000        2.000        0.000        4.494        0.000       95.506        0.000        0.000        2.014        2.043        2.274
     340.000  -253653.571    26309.778    15277.264    33489.881      105.830  -375157.243    46320.918       25.785       25.724        2.536        2.578        2.482        2.664        3.197        2.980        3.227        3.028        3.216        3.210        2.948        3.105        2.525        2.573        2.699        2.497        0.504        0.000        1.000        0.000        0.000        2.000        0.000        0.000        1.000        0.000        0.000        0.000        0.000        0.000        0.000        0.000        1.000        0.000        0.000        0.000        0.000        0.000        0.000        0.000        0.000        0.000        5.000        0.000        1.000        1.000        0.000        0.000        0.000        0.000        4.494        0.000       95.506        0.000        0.000        2.131        2.163        2.311
     350.000  -254566.101    26773.060    15123.781    33667.541      114.378  -375657.716    45412.854       25.628       25.632        2.497        2.551        2.509        2.715        3.199        2.966        3.254        2.976        3.225        3.243        3.007        3.039        2.504        2.612        2.712        2.576        0.490        0.000        1.000        0.000        0.000        2.000        0.000        0.000        1.000        0.000        1.000        0.000        0.000        0.000        0.000        0.000        3.000        0.000        0.000        0.000        0.000        0.000        0.000        0.000        0.000        0.000        2.000        0.000        0.000        2.000        0.000        0.000        7.000        0.000        0.000        0.000      100.000        0.000        0.000        1.931        1.966        2.291
     360.000  -254320.503    25277.938    15476.222    33586.031      133.105  -376403.182    47609.383       25.824       25.819        2.558        2.582        2.499        2.623        3.241        2.921        3.253        3.129        3.204        3.239        2.986        3.045        2.493        2.581        2.678        2.591        0.487        0.000        1.000        0.000        0.000        2.000        0.000        0.000        1.000        0.000        0.000        0.000        0.000        0.000        0.000        0.000        2.000        0.000        0.000        0.000        0.000        0.000        0.000        0.000        0.000        0.000        3.000        0.000        1.000        1.000        0.000        0.000        1.000        0.000        0.000        0.000      100.000        0.000        0.000        1.725        1.782        2.156
     370.000  -253750.796    25325.835    15007.319    33696.478      145.287  -374011.985    46086.270       25.991       25.967        2.517        2.530        2.545        2.694        3.260        2.924        3.199        3.081        3.258        3.224        2.969        3.026        2.509        2.609        2.714        2.555        0.478        0.000        1.000        0.000        0.000        2.000        0.000        0.000        1.000        0.000        1.000        0.000        0.000        0.000        0.000        0.000        0.000        0.000        0.000        0.000        0.000        0.000        0.000        0.000        0.000        0.000        2.000        0.000        1.000        1.000        0.000        0.000        2.000        0.000        4.494        0.000       95.506        0.000        0.000        1.729        1.788        2.074
     380.000  -253704.793    24569.789    15358.915    33858.323      125.370  -376057.558    48440.368       25.806       25.799        2.555        2.449        2.519        2.674        3.178        2.970        3.280        3.070        3.218        3.219        3.032        3.107        2.488        2.568        2.710        2.586        0.496        0.000        1.000        0.000        1.000        2.000        0.000        0.000        1.000        0.000        1.000        0.000        0.000        0.000        0.000        0.000        6.000        0.000        0.000        0.000        0.000        0.000        0.000        0.000        0.000        1.000        2.000        0.000        3.000        2.000        0.000        0.000        5.000        0.000        0.000        0.000      100.000        0.000        0.000        1.871        1.920        2.252
     390.000  -253965.579    26118.342    15334.676    33703.244      118.779  -374906.525    45665.905       25.633       25.766        2.524        2.606        2.581        2.693        3.209        2.997        3.202        3.067        3.256        3.226        2.989        3.090        2.543        2.583        2.697        2.568        0.492        0.000        0.000        0.000        0.000        2.000        0.000        0.000        1.000        0.000        0.000        0.000        0.000        0.000        0.000        0.000        3.000        0.000        0.000        0.000        0.000        0.000        0.000        0.000        0.000        0.000        2.000        0.000        0.000        1.000        0.000        0.000        5.000        0.000        0.000        0.000      100.000        0.000        0.000        2.252        2.297        2.493
     400.000  -254430.978    26097.109    15021.920    33573.730      127.883  -374279.220    45027.600       25.805       25.756        2.633        2.549        2.526        2.695        3.217        2.923        3.239        2.970        3.286        3.209        3.037        3.047        2.475        2.588        2.697        2.523        0.497        0.000        1.000        0.000        0.000        2.000        0.000        0.000        1.000        0.000        1.000        0.000        0.000        0.000        0.000        0.000        3.000        0.000        0.000        0.000        0.000        0.000        0.000        0.000        0.000        0.000        6.000        0.000        0.000        1.000        0.000        0.000        5.000        0.000        0.000        0.000      100.000        0.000        0.000        2.022        2.088        2.328
     410.000  -254843.403    24446.778    14893.754    33733.611      129.384  -376889.756    48842.827       25.203       25.616        2.555        2.509        2.538        2.678        3.213        3.019        3.226        2.976        3.287        3.269        2.999        3.068        2.466        2.563        2.707        2.543        0.497        0.000        1.000        0.000        0.000        2.000        0.000        0.000        0.000        0.000        0.000        0.000        0.000        0.000        0.000        0.000        0.000        0.000        0.000        0.000        0.000        0.000        0.000        0.000        0.000        0.000        2.000        0.000        0.000        1.000        0.000        0.000        5.000        0.000        0.000        0.000      100.000        0.000        0.000        1.985        2.063        2.315
     420.000  -253125.368    25444.528    15283.478    33521.081      113.209  -374059.230    46571.566       25.610       25.923        2.580        2.559        2.524        2.693        3.219        3.024        3.291        3.104        3.295        3.242        2.974        3.064        2.471        2.575        2.662        2.542        0.523        0.000        0.000        0.000        0.000        2.000        0.000        0.000        0.000        0.000        2.000        0.000        0.000        0.000        0.000        0.000        0.000        0.000        0.000        0.000        0.000        0.000        0.000        0.000        0.000        0.000        2.000        0.000        1.000        1.000        0.000        0.000        4.000        0.000        0.000        0.000      100.000        0.000        0.000        1.973        2.035        2.456
     430.000  -253394.858    25179.651    15120.122    33682.073      143.020  -373787.060    46267.337       25.493       25.775        2.586        2.540        2.508        2.723        3.218        3.002        3.267        3.016        3.236        3.260        3.009        3.035        2.457        2.595        2.688        2.545        0.507        0.000        1.000        0.000        0.000        2.000        0.000        0.000        1.000        0.000        0.000        0.000        0.000        0.000        0.000        0.000        3.000        0.000        0.000        0.000        0.000        0.000        0.000        0.000        0.000        1.000        2.000        0.000        0.000        1.000        0.000        0.000        4.000        0.000        0.000        0.000      100.000        0.000        0.000        2.154        2.204        2.497
     440.000  -253077.802    25139.325    15177.316    33631.039      108.994  -374279.280    47144.804       25.680       25.833        2.611        2.476        2.544        2.704        3.186        2.999        3.275        3.013        3.295        3.207        3.006        2.952        2.522        2.563        2.705        2.561        0.466        0.000        1.000        0.000        0.000        2.000        0.000        0.000        0.000        0.000        1.000        0.000        0.000        0.000        0.000        0.000        3.000        0.000        0.000        0.000        0.000        0.000        0.000        0.000        0.000        1.000        1.000        0.000        1.000        1.000        0.000        0.000        2.000        0.000        0.000        0.000      100.000        0.000        0.000        2.468        2.527        2.756
     450.000  -254111.231    24868.036    15291.874    33674.819      114.084  -375540.015    47479.971       25.811       25.844        2.566        2.495        2.515        2.681        3.219        3.027        3.221        3.084        3.244        3.270        2.991        3.019        2.522        2.556        2.667        2.568        0.512        0.000        0.000        0.000        0.000        1.000        0.000        0.000        0.000        0.000        1.000        0.000        0.000        0.000        0.000        0.000        2.000        0.000        0.000        0.000        0.000        0.000        0.000        0.000        0.000        2.000        2.000        0.000        1.000        1.000        0.000        0.000        3.000        0.000        0.000        0.000      100.000        0.000        0.000        1.817        1.855        2.343
     460.000  -253025.484    25507.804    15106.429    33616.607      132.407  -373799.482    46410.751       25.736       25.693        2.584        2.562        2.505        2.711        3.187        2.972        3.269        3.135        3.276        3.230        2.961        3.051        2.456        2.616        2.705        2.559        0.482        1.000        1.000        0.000        0.000        2.000        0.000        0.000        1.000        1.000        1.000        0.000        0.000        0.000        0.000        0.000        1.000        0.000        0.000        0.000        0.000        0.000        0.000        0.000        0.000        0.000        4.000        0.000        0.000        1.000        0.000        0.000        5.000        0.000        4.494        0.000       95.506        0.000        0.000        1.531        1.582        2.082
     470.000  -253769.060    24750.220    15096.993    33721.334      124.638  -374416.799    46954.554       25.685       25.777        2.614        2.557        2.502        2.699        3.183        2.999        3.242        3.021        3.222        3.237        3.028        3.075        2.498        2.563        2.689        2.534        0.486        0.000        0.000        0.000        0.000        2.000        0.000        0.000        1.000        0.000        1.000        0.000        0.000        0.000        0.000        0.000        3.000        0.000        0.000        0.000        0.000        0.000        0.000        0.000        0.000        2.000        0.000        0.000        0.000        1.000        0.000        0.000        4.000        0.000        4.494        0.000       95.506        0.000        0.000        1.492        1.546        2.147
     480.000  -253641.240    25721.396    15231.652    33482.500      132.925  -373643.767    45434.053       25.757       25.811        2.582        2.545        2.512        2.675        3.233        3.074        3.233        3.101        3.199        3.337        2.967        3.025        2.512        2.650        2.706        2.576        0.473        0.000        0.000        0.000        0.000        2.000        0.000        0.000        0.000        0.000        0.000        0.000        0.000        0.000        0.000        0.000        2.000        0.000        0.000        0.000        0.000        0.000        0.000        0.000        0.000        0.000        1.000        0.000        0.000        2.000        0.000        0.000        3.000        0.000        0.000        0.000      100.000        0.000        0.000        1.814        1.845        2.416
     490.000  -253254.491    25854.159    14772.482    33671.018      135.662  -373794.329    46106.518       25.437       25.689        2.603        2.534        2.583        2.667        3.216        3.044        3.253        2.999        3.248        3.263        2.980        3.060        2.473        2.562        2.726        2.544        0.490        0.000        0.000        0.000        0.000        2.000        0.000        0.000        0.000        0.000        2.000        0.000        0.000        0.000        0.000        0.000        2.000        0.000        0.000        0.000        0.000        0.000        0.000        0.000        0.000        2.000        2.000        0.000        0.000        2.000        0.000        0.000        2.000        0.000        4.494        0.000       95.506        0.000        0.000        2.265        2.307        2.837
     500.000  -253786.983    25435.515    14949.896    33974.610      144.714  -375105.761    46814.043       25.514       25.716        2.604        2.536        2.501        2.650        3.189        2.986        3.263        2.943        3.268        3.254        2.998        3.034        2.444        2.570        2.703        2.525        0.489        0.000        1.000        0.000        0.000        2.000        0.000        0.000        0.000        1.000        0.000        0.000        0.000        0.000        0.000        0.000        1.000        0.000        0.000        0.000        0.000        0.000        0.000        0.000        0.000        0.000        0.000        0.000        0.000        1.000        0.000        0.000        3.000        0.000        0.000        0.000      100.000        0.000        0.000        1.967        2.044        2.572
     510.000  -252819.253    24657.248    15258.612    33663.599      116.524  -373037.198    46521.962       25.679       25.807        2.575        2.534        2.524        2.648        3.181        2.916        3.242        3.037        3.163        3.240        2.984        3.023        2.461        2.592        2.713        2.651        0.475        0.000        0.000        0.000        0.000        2.000        0.000        0.000        0.000        0.000        1.000        0.000        0.000        0.000        0.000        0.000        0.000        0.000        0.000        0.000        0.000        0.000        0.000        0.000        0.000        1.000        1.000        0.000        1.000        1.000        0.000        0.000        3.000        0.000        0.000        0.000      100.000        0.000        0.000        1.842        1.870        2.371
     520.000  -252881.990    24596.432    15072.302    33689.943       90.244  -372777.450    46446.538       25.505       25.475        2.602        2.506        2.523        2.622        3.196        2.888        3.240        2.956        3.146        3.264        2.985        2.973        2.512        2.591        2.682        2.500        0.502        0.000        1.000        0.000        0.000        2.000        0.000        0.000        0.000        0.000        0.000        0.000        0.000        0.000        0.000        0.000        2.000        0.000        0.000        0.000        0.000        0.000        0.000        0.000        0.000        3.000        0.000        0.000        1.000        1.000        0.000        0.000        5.000        0.000        0.000        0.000      100.000        0.000        0.000        1.687        1.678        2.230
     530.000  -253040.992    25312.624    15042.374    33550.084      132.783  -371982.244    44903.386       25.788       26.024        2.559        2.472        2.525        2.677        3.226        3.068        3.253        3.046        3.279        3.249        3.074        3.013        2.531        2.603        2.722        2.504        0.505        0.000        0.000        0.000        0.000        2.000        0.000        0.000        0.000        0.000        0.000        0.000        0.000        0.000        0.000        0.000        1.000        0.000        0.000        0.000        0.000        0.000        0.000        0.000        0.000        1.000        2.000        0.000        0.000        0.000        0.000        0.000        2.000        0.000        0.000        0.000      100.000        0.000        0.000        1.988        1.986        2.561
     540.000  -253427.854    25766.500    15309.707    33536.005      129.255  -373861.814    45692.493       25.674       25.869        2.543        2.505        2.543        2.667        3.231        3.031        3.285        3.016        3.289        3.289        3.059        3.070        2.518        2.579        2.694        2.499        0.461        0.000        0.000        0.000        0.000        2.000        0.000        0.000        0.000        0.000        0.000        0.000        0.000        0.000        0.000        0.000        2.000        0.000        0.000        0.000        0.000        0.000        0.000        0.000        0.000        1.000        2.000        0.000        3.000        0.000        0.000        0.000        1.000        0.000        0.000        0.000      100.000        0.000        0.000        1.821        1.819        2.530
     550.000  -253369.358    26127.456    15220.721    33704.030      148.554  -373677.625    45107.506       25.648       25.832        2.566        2.526        2.529        2.698        3.245        2.997        3.265        3.000        3.253        3.244        2.938        2.958        2.557        2.567        2.661        2.582        0.502        0.000        1.000        0.000        0.000        2.000        0.000        0.000        0.000        0.000        0.000        0.000        0.000        0.000        0.000        0.000        1.000        0.000        0.000        0.000        0.000        0.000        0.000        0.000        0.000        1.000        3.000        0.000        0.000        0.000        0.000        0.000        0.000        0.000        0.000        0.000      100.000        0.000        0.000        1.604        1.603        2.585
     560.000  -253560.872    25051.240    15408.833    33603.825      130.286  -374189.238    46434.182       25.607       25.864        2.580        2.538        2.532        2.672        3.244        3.076        3.265        2.939        3.206        3.226        3.006        2.997        2.533        2.582        2.673        2.652        0.491        0.000        0.000        0.000        0.000        2.000        0.000        0.000        0.000        0.000        0.000        0.000        0.000        0.000        0.000        0.000        0.000        0.000        0.000        0.000        0.000        0.000        0.000        0.000        0.000        1.000        3.000        0.000        0.000        1.000        0.000        0.000        4.000        0.000        0.000        0.000      100.000        0.000        0.000        1.754        1.783        2.625
     570.000  -253708.135    24757.498    15293.269    33399.871      125.891  -373338.439    46053.774       25.810       25.883        2.530        2.628        2.534        2.676        3.242        3.066        3.261        3.007        3.230        3.250        2.975        3.077        2.462        2.585        2.688        2.547        0.494        0.000        1.000        0.000        0.000        2.000        0.000        0.000        0.000        0.000        0.000        0.000        0.000        0.000        0.000        0.000        1.000        0.000        0.000        0.000        0.000        0.000        0.000        0.000        0.000        1.000        1.000        0.000        0.000        0.000        0.000        0.000        3.000        0.000        0.000        0.000      100.000        0.000        0.000        1.923        1.940        2.690
     580.000  -253386.129    25126.375    14997.808    33571.274      134.742  -373565.520    46349.192       25.961       25.790        2.538        2.536        2.610        2.657        3.214        3.007        3.278        3.088        3.172        3.218        2.937        3.071        2.478        2.537        2.702        2.642        0.495        0.000        0.000        0.000        0.000        2.000        0.000        0.000        0.000        0.000        2.000        0.000        0.000        0.000        0.000        0.000        2.000        0.000        0.000        0.000        0.000        0.000        0.000        0.000        0.000        0.000        1.000        0.000        0.000        0.000        0.000        0.000        4.000        0.000        0.000        0.000      100.000        0.000        0.000        1.745        1.761        2.405
     590.000  -253460.899    25813.011    15115.570    33601.474      139.812  -372652.096    44521.330       25.596       25.817        2.573        2.512        2.693        2.647        3.157        2.993        3.248        2.956        3.209        3.232        3.008        3.023        2.478        2.574        2.736        2.605        0.469        0.000        0.000        0.000        0.000        2.000        0.000        0.000        0.000        0.000        0.000        0.000        0.000        0.000        0.000        0.000        2.000        0.000        0.000        0.000        0.000        0.000        0.000        0.000        0.000        1.000        4.000        0.000        1.000        0.000        0.000        0.000        3.000        0.000        0.000        0.000      100.000        0.000        0.000        1.356        1.384        2.229
     600.000  -254105.186    24903.695    15122.903    33741.047      138.449  -376010.510    47999.230       25.793       25.590        2.620        2.529        2.651        2.620        3.153        3.003        3.258        3.025        3.186        3.227        2.965        3.039        2.532        2.577        2.684        2.587        0.495        0.000        0.000        0.000        0.000        1.000        0.000        0.000        0.000        0.000        0.000        0.000        0.000        0.000        0.000        0.000        1.000        0.000        0.000        0.000        0.000        0.000        0.000        0.000        0.000        2.000        3.000        0.000        0.000        0.000        0.000        0.000        4.000        0.000        0.000        0.000      100.000        0.000        0.000        1.477        1.549        2.236
     610.000  -254084.794    26081.010    14900.534    33444.600      119.880  -373159.200    44528.381       25.515       25.530        2.568        2.559        2.618        2.676        3.169        2.979        3.215        3.034        3.178        3.277        2.994        3.034        2.515        2.613        2.712        2.626        0.461        0.000        0.000        0.000        0.000        2.000        0.000        0.000        0.000        0.000        0.000        0.000        0.000        0.000        0.000        0.000        4.000        0.000        0.000        0.000        0.000        0.000        0.000        0.000        0.000        1.000        2.000        0.000        0.000        2.000        0.000        0.000        0.000        0.000        0.000        0.000      100.000        0.000        0.000        1.658        1.696        2.396
     620.000  -253371.791    26433.606    15058.887    33635.389      123.744  -374799.168    46175.750       25.462       25.567        2.600        2.620        2.688        2.624        3.168        3.025        3.289        3.112        3.267        3.216        3.065        3.071        2.451        2.562        2.684        2.567        0.480        0.000        0.000        0.000        0.000        2.000        0.000        0.000        0.000        0.000        0.000        0.000        0.000        0.000        0.000        0.000        1.000        0.000        0.000        0.000        0.000        0.000        0.000        0.000        0.000        1.000        2.000        0.000        1.000        0.000        0.000        0.000        3.000        0.000        0.000        0.000      100.000        0.000        0.000        1.488        1.514        2.280
     630.000  -254278.099    24408.068    15147.240    33823.749      115.571  -375952.590    48179.863       25.594       25.605        2.597        2.542        2.676        2.633        3.176        2.941        3.214        2.957        3.221        3.254        2.979        3.002        2.483        2.613        2.658        2.605        0.497        0.000        0.000        0.000        0.000        2.000        0.000        0.000        0.000        0.000        0.000        0.000        0.000        0.000        0.000        0.000        1.000        0.000        0.000        0.000        0.000        0.000        0.000        0.000        0.000        1.000        2.000        0.000        1.000        0.000        0.000        0.000        4.000        0.000        0.000        0.000      100.000        0.000        0.000        1.782        1.799        2.488
     640.000  -253834.445    24724.006    15088.973    33553.959      121.587  -374514.278    47191.308       25.593       25.805        2.595        2.529        2.642        2.592        3.177        2.987        3.249        2.922        3.264        3.146        3.053        3.012        2.502        2.571        2.694        2.571        0.490        0.000        0.000        0.000        0.000        2.000        0.000        0.000        0.000        0.000        1.000        0.000        0.000        0.000        0.000        0.000        0.000        0.000        0.000        0.000        0.000        0.000        0.000        0.000        0.000        1.000        2.000        0.000        0.000        0.000        0.000        0.000        0.000        0.000        0.000        0.000      100.000        0.000        0.000        1.977        2.001        2.508
     650.000  -253576.792    25832.629    15192.598    33505.451      156.228  -373249.691    44985.993       25.352       25.771        2.601        2.521        2.640        2.668        3.196        2.960        3.253        2.982        3.176        3.174        2.992        3.080        2.493        2.590        2.708        2.612        0.488        0.000        0.000        0.000        0.000        2.000        0.000        0.000        0.000        0.000        0.000        0.000        0.000        0.000        0.000        0.000        2.000        0.000        0.000        0.000        0.000        0.000        0.000        0.000        0.000        1.000        3.000        0.000        1.000        1.000        0.000        0.000        2.000        0.000        4.494        0.000       95.506        0.000        0.000        2.420        2.481        2.856
     660.000  -253667.518    24366.366    14995.761    33658.728      122.461  -373852.328    47041.494       25.387       25.521        2.622        2.582        2.619        2.616        3.199        3.011        3.197        2.953        3.248        3.185        2.947        2.952        2.453        2.611        2.690        2.559        0.486        0.000        0.000        0.000        0.000        2.000        0.000        0.000        0.000        0.000        1.000        0.000        0.000        0.000        0.000        0.000        2.000        0.000        0.000        0.000        0.000        0.000        0.000        0.000        0.000        2.000        4.000        0.000        1.000        0.000        0.000        0.000        3.000        0.000        4.494        0.000       95.506        0.000        0.000        2.768        2.819        2.974
     670.000  -252861.004    24527.986    15291.423    33672.656      160.956  -374002.988    47488.963       25.683       25.929        2.626        2.552        2.597        2.659        3.218        2.954        3.206        2.928        3.266        3.181        3.026        3.072        2.473        2.592        2.663        2.624        0.489        1.000        0.000        0.000        0.000        2.000        0.000        0.000        0.000        0.000        0.000        0.000        0.000        0.000        0.000        0.000        2.000        0.000        0.000        0.000        0.000        0.000        0.000        0.000        0.000        1.000        2.000        0.000        0.000        1.000        0.000        0.000        0.000        0.000        0.000        0.000      100.000        0.000        0.000        2.887        2.909        3.295
     680.000  -253308.326    25195.419    14970.663    33742.939      118.034  -372664.828    45329.446       25.640       25.514        2.534        2.447        2.610        2.672        3.202        2.908        3.185        2.953        3.269        3.185        2.940        3.026        2.482        2.610        2.682        2.621        0.497        0.000        0.000        0.000        0.000        2.000        0.000        0.000        0.000        0.000        0.000        0.000        0.000        0.000        0.000        0.000        2.000        0.000        0.000        0.000        0.000        0.000        0.000        0.000        0.000        0.000        2.000        0.000        0.000        0.000        0.000        0.000        0.000        0.000        0.000        0.000      100.000        0.000        0.000        2.900        2.929        3.416
     690.000  -254143.293    25952.441    14865.898    33806.192      151.358  -374270.521    45351.337       25.458       25.412        2.565        2.549        2.605        2.623        3.162        2.857        3.104        2.920        3.188        3.182        3.011        3.068        2.530        2.595        2.726        2.580        0.462        0.000        0.000        0.000        0.000        2.000        0.000        0.000        0.000        0.000        0.000        0.000        0.000        0.000        0.000        0.000        1.000        0.000        0.000        0.000        0.000        0.000        0.000        0.000        0.000        0.000        2.000        0.000        1.000        0.000        0.000        0.000        6.000        0.000        0.000        0.000      100.000        0.000        0.000        2.557        2.578        3.185
     700.000  -252623.436    26078.523    14889.671    33677.424      106.447  -372755.932    45380.430       25.438       25.534        2.577        2.631        2.677        2.628        3.218        2.966        3.212        2.938        3.195        3.179        2.976        3.027        2.536        2.598        2.683        2.587        0.493        0.000        1.000        0.000        0.000        2.000        0.000        0.000        0.000        0.000        0.000        0.000        0.000        0.000        0.000        0.000        3.000        0.000        0.000        0.000        0.000        0.000        0.000        0.000        0.000        0.000        2.000        0.000        0.000        0.000        0.000        0.000        0.000        0.000        0.000        0.000      100.000        0.000        0.000        2.700        2.723        3.353
     710.000  -253384.374    24178.369    15058.247    33674.334      124.793  -373905.217    47485.099       25.577       25.731        2.562        2.626        2.627        2.652        3.222        3.027        3.186        2.880        3.174        3.165        2.979        3.062        2.501        2.616        2.657        2.558        0.499        0.000        1.000        0.000        0.000        1.000        0.000        0.000        0.000        0.000        0.000        0.000        0.000        0.000        0.000        0.000        1.000        0.000        0.000        0.000        0.000        0.000        0.000        0.000        0.000        0.000        3.000        0.000        0.000        1.000        0.000        0.000        2.000        0.000        0.000        0.000      100.000        0.000        0.000        2.682        2.742        3.208
     720.000  -253822.905    24619.197    15089.274    33719.123      142.922  -374100.590    46707.169       25.503       25.730        2.565        2.602        2.662        2.619        3.252        3.058        3.129        2.966        3.172        3.263        3.056        3.024        2.478        2.635        2.696        2.598        0.505        0.000        1.000        0.000        0.000        1.000        0.000        0.000        0.000        0.000        0.000        0.000        0.000        0.000        0.000        0.000        0.000        0.000        0.000        0.000        0.000        0.000        0.000        0.000        0.000        1.000        2.000        0.000        0.000        0.000        0.000        0.000        5.000        0.000        0.000        0.000      100.000        0.000        0.000        2.277        2.320        2.980
     730.000  -253666.774    25225.767    14917.105    33575.594      106.715  -374670.042    47178.087       25.412       25.415        2.523        2.604        2.706        2.668        3.200        3.054        3.151        2.949        3.263        3.187        3.067        3.064        2.531        2.619        2.679        2.591        0.496        0.000        1.000        0.000        0.000        2.000        0.000        0.000        0.000        0.000        1.000        0.000        0.000        0.000        0.000        0.000        1.000        0.000        0.000        0.000        0.000        0.000        0.000        0.000        0.000        0.000        2.000        0.000        0.000        0.000        0.000        0.000        2.000        0.000        0.000        0.000      100.000        0.000        0.000        1.967        1.991        2.809
     740.000  -252758.586    24730.692    15141.165    33590.807      115.835  -372385.393    46048.308       25.677       25.675        2.463        2.646        2.619        2.612        3.240        2.896        3.216        3.023        3.299        3.211        2.979        2.957        2.514        2.605        2.692        2.600        0.485        0.000        1.000        0.000        0.000        2.000        0.000        0.000        0.000        0.000        0.000        0.000        0.000        0.000        0.000        0.000        0.000        0.000        0.000        0.000        0.000        0.000        0.000        0.000        0.000        0.000        2.000        0.000        2.000        0.000        0.000        0.000        2.000        0.000        4.494        0.000       95.506        0.000        0.000        1.921        1.969        2.980
     750.000  -253050.473    25476.007    15321.601    33613.879      129.124  -373451.010    45859.927       25.934       25.635        2.508        2.656        2.595        2.605        3.216        2.987        3.205        3.071        3.263        3.227        3.022        2.972        2.553        2.616        2.670        2.581        0.483        0.000        1.000        0.000        0.000        2.000        0.000        0.000        0.000        1.000        0.000        0.000        0.000        0.000        0.000        0.000        0.000        0.000        0.000        0.000        0.000        0.000        0.000        0.000        0.000        0.000        1.000        0.000        1.000        0.000        0.000        0.000        2.000        0.000        4.494        0.000       95.506        0.000        0.000        2.112        2.129        3.246
     760.000  -252495.558    25021.171    15399.432    33646.095      141.051  -372910.521    46207.214       25.865       26.019        2.561        2.563        2.630        2.633        3.160        2.984        3.175        2.964        3.254        3.188        2.972        2.991        2.529        2.563        2.674        2.582        0.494        0.000        1.000        0.000        0.000        2.000        0.000        0.000        0.000        0.000        0.000        0.000        0.000        0.000        0.000        0.000        2.000        0.000        0.000        0.000        0.000        0.000        0.000        0.000        0.000        0.000        2.000        0.000        0.000        0.000        0.000        0.000        1.000        0.000        0.000        0.000      100.000        0.000        0.000        1.850        1.887        3.031
     770.000  -253883.090    23997.599    15003.944    33503.573      111.644  -373809.231    47309.380       25.491       25.720        2.549        2.577        2.630        2.653        3.193        2.925        3.201        3.007        3.257        3.187        3.033        3.050        2.555        2.554        2.645        2.577        0.479        0.000        1.000        0.000        0.000        2.000        0.000        0.000        0.000        0.000        0.000        0.000        0.000        0.000        0.000        0.000        0.000        0.000        0.000        0.000        0.000        0.000        0.000        0.000        0.000        0.000        3.000        0.000        0.000        0.000        0.000        0.000        0.000        0.000        0.000        0.000      100.000        0.000        0.000        1.941        1.955        3.229
     780.000  -253325.932    25954.069    15030.066    33650.854      127.640  -372346.786    44258.225       25.683       25.720        2.580        2.616        2.688        2.638        3.191        3.036        3.188        3.030        3.285        3.155        2.983        3.071        2.498        2.522        2.687        2.615        0.487        0.000        1.000        0.000        0.000        2.000        0.000        0.000        0.000        0.000        0.000        0.000        0.000        0.000        0.000        0.000        1.000        0.000        0.000        0.000        0.000        0.000        0.000        0.000        0.000        0.000        0.000        0.000        1.000        0.000        0.000        0.000        1.000        0.000        0.000        0.000      100.000        0.000        0.000        1.811        1.817        2.993
     790.000  -254328.621    25630.004    14804.509    33687.961      142.272  -373416.051    44822.684       25.441       25.810        2.588        2.598        2.640        2.623        3.230        3.012        3.149        2.982        3.266        3.234        3.004        2.988        2.499        2.635        2.716        2.709        0.480        0.000        0.000        0.000        0.000        2.000        0.000        0.000        0.000        0.000        0.000        0.000        0.000        0.000        0.000        0.000        2.000        0.000        0.000        0.000        0.000        0.000        0.000        0.000        0.000        0.000        0.000        0.000        1.000        0.000        0.000        0.000        2.000        0.000        4.494        0.000       95.506        0.000        0.000        1.465        1.505        2.824
     800.000  -252782.929    24356.569    15213.282    33774.395      141.267  -373875.586    47607.143       25.573       26.017        2.563        2.605        2.693        2.634        3.188        3.034        3.175        3.002        3.211        3.180        2.966        3.099        2.489        2.571        2.668        2.607        0.472        0.000        1.000        0.000        0.000        1.000        0.000        0.000        0.000        0.000        0.000        0.000        0.000        0.000        0.000        0.000        1.000        0.000        0.000        0.000        0.000        0.000        0.000        0.000        0.000        1.000        2.000        0.000        0.000        0.000        0.000        0.000        4.000        0.000        4.494        0.000       95.506        0.000        0.000        1.756        1.821        3.144
     810.000  -253633.396    24263.983    15193.417    33865.190      108.877  -374692.450    47627.587       25.207       25.533        2.577        2.615        2.699        2.644        3.177        3.121        3.136        2.965        3.247        3.139        2.966        3.084        2.476        2.595        2.689        2.569        0.488        0.000        0.000        0.000        0.000        2.000        0.000        0.000        0.000        0.000        0.000        0.000        0.000        0.000        0.000        0.000        0.000        0.000        0.000        0.000        0.000        0.000        0.000        0.000        0.000        1.000        1.000        0.000        0.000        0.000        0.000        0.000        2.000        0.000        0.000        0.000      100.000        0.000        0.000        1.699        1.743        3.119
     820.000  -254101.951    25613.414    14889.389    33489.921      160.026  -373083.534    44828.835       25.752       25.860        2.613        2.652        2.683        2.719        3.200        3.112        3.187        2.994        3.285        3.164        3.023        3.070        2.521        2.599        2.699        2.581        0.475        0.000        1.000        0.000        0.000        2.000        0.000        0.000        0.000        0.000        0.000        0.000        0.000        0.000        0.000        0.000        0.000        0.000        0.000        0.000        0.000        0.000        0.000        0.000        0.000        1.000        0.000        0.000        1.000        0.000        0.000        0.000        2.000        0.000        0.000        0.000      100.000        0.000        0.000        2.190        2.229        3.332
     830.000  -254011.059    24347.196    14786.763    33681.300      129.450  -373538.517    46582.748       25.805       25.892        2.653        2.574        2.639        2.627        3.251        3.010        3.155        2.961        3.260        3.231        3.041        3.090        2.498        2.543        2.689        2.599        0.498        0.000        0.000        0.000        0.000        2.000        0.000        0.000        0.000        0.000        0.000        0.000        0.000        0.000        0.000        0.000        2.000        0.000        0.000        0.000        0.000        0.000        0.000        0.000        0.000        1.000        0.000        0.000        0.000        0.000        0.000        0.000        1.000        0.000        0.000        0.000      100.000        0.000        0.000        2.189        2.256        3.275
     840.000  -253980.682    24981.163    14885.412    33514.754      117.908  -374127.482    46647.563       25.410       25.720        2.547        2.537        2.646        2.597        3.226        3.069        3.206        2.959        3.214        3.207        3.008        3.050        2.541        2.559        2.647        2.615        0.492        0.000        0.000        0.000        0.000        2.000        0.000        0.000        0.000        0.000        0.000        0.000        0.000        0.000        0.000        0.000        3.000        0.000        0.000        0.000        0.000        0.000        0.000        0.000        0.000        1.000        3.000        0.000        0.000        0.000        0.000        0.000        2.000        0.000        0.000        0.000      100.000        0.000        0.000        1.719        1.779        2.990
     850.000  -253837.001    25014.082    15314.886    33586.230      144.110  -374039.209    46142.900       25.288       25.548        2.576        2.620        2.638        2.606        3.211        3.035        3.191        3.003        3.298        3.170        2.916        3.064        2.484        2.596        2.673        2.603        0.504        0.000        0.000        0.000        0.000        1.000        0.000        0.000        0.000        0.000        0.000        0.000        0.000        0.000        0.000        0.000        0.000        0.000        0.000        0.000        0.000        0.000        0.000        0.000        0.000        1.000        2.000        0.000        0.000        0.000        0.000        0.000        3.000        0.000        0.000        0.000      100.000        0.000        0.000        1.728        1.767        3.102
     860.000  -253902.207    24102.001    14966.513    33706.302      132.679  -374138.538    47328.836       25.735       25.862        2.575        2.555        2.660        2.649        3.229        3.036        3.161        3.005        3.214        3.183        2.966        3.108        2.491        2.614        2.719        2.599        0.469        0.000        0.000        0.000        0.000        1.000        0.000        0.000        0.000        0.000        0.000        0.000        0.000        0.000        0.000        0.000        0.000        0.000        0.000        0.000        0.000        0.000        0.000        0.000        0.000        1.000        0.000        0.000        0.000        1.000        0.000        0.000        3.000        0.000        0.000        0.000      100.000        0.000        0.000        1.729        1.770        3.146
     870.000  -253446.265    25676.523    14779.316    33513.025      132.057  -373044.009    45496.824       25.954       25.992        2.606        2.594        2.646        2.633        3.291        3.071        3.187        3.015        3.255        3.199        3.044        3.081        2.517        2.578        2.731        2.614        0.485        0.000        1.000        0.000        0.000        1.000        0.000        0.000        0.000        0.000        0.000        0.000        0.000        0.000        0.000        0.000        0.000        0.000        0.000        0.000        0.000        0.000        0.000        0.000        0.000        0.000        0.000        0.000        0.000        0.000        0.000        0.000        2.000        0.000        0.000        0.000      100.000        0.000        0.000        1.868        1.890        3.098
     880.000  -253430.891    24111.503    15089.842    33708.289      140.070  -374211.762    47731.166       25.703       25.820        2.624        2.627        2.677        2.612        3.244        3.019        3.144        3.081        3.261        3.181        2.986        3.071        2.466        2.597        2.699        2.607        0.493        0.000        0.000        0.000        0.000        1.000        0.000        0.000        0.000        0.000        0.000        0.000        0.000        0.000        0.000        0.000        1.000        0.000        0.000        0.000        0.000        0.000        0.000        0.000        0.000        0.000        3.000        0.000        0.000        0.000        0.000        0.000        3.000        0.000        0.000        0.000      100.000        0.000        0.000        1.935        1.971        3.184
     890.000  -253640.815    25741.773    14654.058    33571.891      109.515  -372963.730    45245.678       25.906       26.054        2.645        2.555        2.610        2.646        3.280        2.976        3.239        2.906        3.247        3.175        2.997        3.090        2.476        2.640        2.686        2.586        0.502        0.000        0.000        0.000        0.000        1.000        0.000        0.000        0.000        0.000        0.000        0.000        0.000        0.000        0.000        0.000        1.000        0.000        0.000        0.000        0.000        0.000        0.000        0.000        0.000        1.000        2.000        0.000        2.000        1.000        0.000        0.000        2.000        0.000        0.000        0.000      100.000        0.000        0.000        2.266        2.301        3.433
     900.000  -253987.116    25956.423    15099.671    33628.245      143.415  -374503.970    45689.100       25.620       25.738        2.630        2.581        2.610        2.631        3.258        3.008        3.232        3.018        3.260        3.233        3.002        3.105        2.512        2.591        2.738        2.609        0.496        0.000        0.000        0.000        0.000        1.000        0.000        0.000        0.000        0.000        0.000        0.000        0.000        0.000        0.000        0.000        1.000        0.000        0.000        0.000        0.000        0.000        0.000        0.000        0.000        1.000        2.000        0.000        0.000        0.000        0.000        0.000        3.000        0.000        0.000        0.000      100.000        0.000        0.000        2.190        2.243        3.466
     910.000  -254148.421    25915.444    14856.743    33581.456      106.908  -375318.290    46709.316       25.518       25.962        2.648        2.544        2.712        2.599        3.309        3.041        3.177        2.990        3.250        3.197        3.054        3.129        2.476        2.587        2.632        2.641        0.473        0.000        1.000        0.000        0.000        1.000        0.000        0.000        0.000        0.000        0.000        0.000        0.000        0.000        0.000        0.000        0.000        0.000        0.000        0.000        0.000        0.000        0.000        0.000        0.000        1.000        3.000        0.000        0.000        0.000        0.000        0.000        2.000        0.000        0.000        0.000      100.000        0.000        0.000        1.901        1.945        3.407
     920.000  -253701.432    25004.315    15229.211    33519.420      119.320  -374788.695    47214.998       25.699       25.841        2.592        2.573        2.619        2.635        3.253        3.040        3.196        3.067        3.248        3.112        2.963        3.091        2.545        2.605        2.636        2.621        0.495        0.000        1.000        0.000        0.000        1.000        0.000        0.000        0.000        0.000        0.000        0.000        0.000        0.000        0.000        0.000        1.000        0.000        0.000        0.000        0.000        0.000        0.000        0.000        0.000        0.000        5.000        0.000        0.000        0.000        0.000        0.000        3.000        0.000        4.494        0.000       95.506        0.000        0.000        2.046        2.095        3.653
     930.000  -253646.286    24780.862    15291.719    33511.845      112.567  -374162.741    46819.463       25.413       25.509        2.617        2.565        2.641        2.638        3.276        3.028        3.281        3.034        3.214        3.223        3.047        3.068        2.534        2.607        2.669        2.654        0.491        0.000        1.000        0.000        0.000        0.000        0.000        0.000        0.000        0.000        1.000        0.000        0.000        0.000        0.000        0.000        2.000        0.000        0.000        0.000        0.000        0.000        0.000        0.000        0.000        0.000        2.000        0.000        0.000        0.000        0.000        0.000        6.000        0.000        4.494        0.000       95.506        0.000        0.000        2.004        2.020        3.730
     940.000  -253305.798    24928.293    15308.308    33317.567      175.606  -374251.206    47215.633       25.620       25.582        2.589        2.605        2.627        2.648        3.260        3.020        3.273        3.062        3.199        3.175        3.069        3.131        2.487        2.592        2.719        2.579        0.497        1.000        0.000        0.000        0.000        0.000        0.000        0.000        0.000        0.000        0.000        0.000        0.000        0.000        0.000        0.000        1.000        0.000        0.000        0.000        0.000        0.000        0.000        0.000        0.000        0.000        4.000        0.000        0.000        0.000        0.000        0.000        2.000        0.000        4.494        0.000       95.506        0.000        0.000        2.291        2.324        3.848
     950.000  -254140.246    25060.546    14947.408    33716.872      109.798  -375276.304    47301.434       25.824       25.794        2.604        2.644        2.614        2.598        3.256        2.996        3.232        2.979        3.229        3.158        3.042        3.064        2.514        2.556        2.665        2.520        0.483        1.000        1.000        0.000        0.000        0.000        0.000        0.000        0.000        0.000        0.000        0.000        0.000        0.000        0.000        0.000        1.000        0.000        0.000        0.000        0.000        0.000        0.000        0.000        0.000        1.000        2.000        0.000        0.000        0.000        0.000        0.000        3.000        0.000        0.000        0.000      100.000        0.000        0.000        1.781        1.822        3.517
     960.000  -254071.516    24932.654    15134.772    33365.083      149.210  -374287.911    46634.677       25.654       25.827        2.627        2.624        2.677        2.629        3.201        2.952        3.251        2.968        3.158        3.177        2.964        3.114        2.513        2.563        2.678        2.602        0.483        0.000        0.000        0.000        0.000        1.000        0.000        0.000        0.000        0.000        0.000        0.000        0.000        0.000        0.000        0.000        1.000        0.000        0.000        0.000        0.000        0.000        0.000        0.000        0.000        0.000        1.000        0.000        0.000        1.000        0.000        0.000        4.000        0.000        4.494        0.000       95.506        0.000        0.000        1.661        1.684        3.665
     970.000  -253117.542    24368.834    15221.297    33583.363      151.890  -373633.747    47190.821       25.557       25.823        2.593        2.620        2.662        2.660        3.250        3.108        3.281        2.984        3.196        3.155        2.972        3.088        2.467        2.553        2.709        2.635        0.489        0.000        1.000        0.000        0.000        0.000        0.000        0.000        0.000        0.000        0.000        0.000        0.000        0.000        0.000        0.000        2.000        0.000        0.000        0.000        0.000        0.000        0.000        0.000        0.000        0.000        0.000        0.000        0.000        0.000        0.000        0.000        0.000        0.000        0.000        0.000      100.000        0.000        0.000        1.788        1.794        3.600
     980.000  -253774.307    25667.944    14918.065    33704.487      124.603  -374296.531    46107.125       25.905       25.840        2.636        2.622        2.693        2.680        3.216        3.064        3.216        3.038        3.195        3.167        2.984        3.087        2.508        2.527        2.663        2.647        0.483        0.000        0.000        0.000        0.000        0.000        0.000        0.000        0.000        0.000        0.000        0.000        0.000        0.000        0.000        0.000        0.000        0.000        0.000        0.000        0.000        0.000        0.000        0.000        0.000        0.000        1.000        0.000        0.000        0.000        0.000        0.000        1.000        0.000        0.000        0.000      100.000        0.000        0.000        1.823        1.871        3.835
     990.000  -254317.704    24391.007    14867.055    33624.566      116.258  -374902.815    47586.226       25.773       25.756        2.607        2.674        2.604        2.668        3.219        2.956        3.184        3.034        3.155        3.200        3.047        3.103        2.476        2.556        2.714        2.588        0.499        0.000        0.000        0.000        0.000        0.000        0.000        0.000        0.000        0.000        0.000        0.000        0.000        0.000        0.000        0.000        1.000        0.000        0.000        0.000        0.000        0.000        0.000        0.000        0.000        0.000        3.000        0.000        1.000        0.000        0.000        0.000        6.000        0.000        0.000        0.000      100.000        0.000        0.000        1.759        1.804        3.807
    1000.000  -253348.156    25621.622    15339.435    33553.332      156.207  -373378.520    45359.768       26.052       25.988        2.624        2.592        2.625        2.627        3.223        3.051        3.225        3.021        3.209        3.199        3.034        3.089        2.476        2.575        2.699        2.573        0.495        0.000        0.000        0.000        0.000        0.000        0.000        0.000        0.000        0.000        1.000        0.000        0.000        0.000        0.000        0.000        1.000        0.000        0.000        0.000        0.000        0.000        0.000        0.000        0.000        0.000        3.000        0.000        1.000        0.000        0.000        0.000        8.000        0.000        0.000        0.000      100.000        0.000        0.000        1.849        1.910        3.761
     Average  -255393.984    25566.297    15153.214    33634.456      127.199  -376974.996    47099.847       25.673       25.706        2.576        2.570        2.579        2.661        3.212        2.987        3.229        3.010        3.226        3.225        3.038        3.050        2.506        2.581        2.691        2.581        0.489        0.059        0.663        0.000        0.109        2.040        0.000        0.000        0.396        0.040        0.356        0.000        0.000        0.000        0.000        0.000        1.554        0.000        0.000        0.000        0.000        0.000        0.000        0.000        0.000        0.545        2.208        0.000        0.495        0.505        0.000        0.000        2.921        0.000        1.068        0.000       98.932        0.000        0.000        1.903        1.939        2.627

