____Time[ps] Energy[ kJ/mol ]_____Bond _______Angle ____Dihedral ___Planarity _____Coulomb _________VdW _Your result _Your result _Your result _Your result _Your result _Your result _Your result _Your result _Your result _Your result _Your result _Your result _Your result _Your result _Your result _Your result _Your result _Your result _Your result _Your result _Your result _Your result _Your result _Your result _Your result _Your result _Your result _Your result _Your result _Your result _Your result _Your result _Your result _Your result _Your result _Your result _Your result _Your result _Your result _Your result _Your result _Your result _Your result _Your result _Your result _Your result _Your result _Your result _Your result _Your result _Your result _Your result _Your result _Your result _Your result _Your result _Your result _RMSDs[A]:CA ____Backbone __HeavyAtoms
       0.000  -318387.327     5654.801     4295.051    33953.810       22.453  -424702.793    62389.352       25.376       25.310        2.575        3.101        2.553        2.555        2.546        3.078        2.641        2.505        3.273        2.539        3.170        2.630        3.114        2.941        2.490        2.607        0.491        0.000        1.000        0.000        0.000        1.000        0.000        0.000        1.000        0.000        0.000        0.000        0.000        0.000        0.000        0.000        2.000        0.000        0.000        0.000        0.000        0.000        0.000        0.000        0.000        2.000        0.000        0.000        0.000        0.000        0.000        0.000        5.000        0.000        0.000        0.000      100.000        0.000        0.000        0.528        0.558        0.657
      10.000  -239794.577    29105.300    14350.200    33906.734      125.572  -362819.078    45536.695       26.082       25.824        2.553        3.206        2.613        2.573        2.563        2.967        2.624        2.476        3.270        2.607        3.246        2.456        3.118        3.007        2.534        2.564        0.512        0.000        1.000        0.000        0.000        1.000        0.000        0.000        0.000        0.000        0.000        0.000        0.000        0.000        0.000        0.000        1.000        0.000        0.000        0.000        0.000        0.000        0.000        0.000        0.000        1.000        0.000        0.000        0.000        1.000        0.000        0.000        3.000        0.000        0.000        0.000      100.000        0.000        0.000        1.504        1.574        1.785
      20.000  -239854.873    26669.147    14638.665    33961.713      124.060  -362022.499    46774.041       26.150       25.859        2.588        3.275        2.548        2.550        2.513        2.956        2.641        2.508        3.278        2.581        3.203        2.525        3.110        2.973        2.496        2.631        0.481        0.000        1.000        0.000        0.000        2.000        0.000        0.000        0.000        0.000        0.000        0.000        0.000        0.000        0.000        0.000        0.000        0.000        0.000        0.000        0.000        0.000        0.000        0.000        0.000        0.000        2.000        0.000        0.000        1.000        0.000        0.000        4.000        0.000        0.000        0.000      100.000        0.000        0.000        1.736        1.777        2.031
      30.000  -238647.483    27309.719    14733.083    34056.954      126.446  -361413.734    46540.049       26.075       25.844        2.663        3.275        2.563        2.571        2.630        3.014        2.607        2.523        3.274        2.634        3.235        2.542        3.042        2.972        2.497        2.531        0.470        0.000        1.000        0.000        0.000        1.000        0.000        0.000        0.000        0.000        0.000        0.000        0.000        0.000        0.000        0.000        3.000        0.000        0.000        0.000        0.000        0.000        0.000        0.000        0.000        1.000        3.000        0.000        0.000        1.000        0.000        0.000        6.000        0.000        0.000        0.000      100.000        0.000        0.000        1.876        1.910        2.264
      40.000  -238980.740    27024.406    14710.116    34023.262      131.581  -360962.610    46092.505       26.083       25.786        2.648        3.315        2.571        2.515        2.631        3.040        2.635        2.472        3.230        2.587        3.282        2.490        3.104        2.971        2.545        2.579        0.502        0.000        1.000        0.000        0.000        2.000        0.000        0.000        0.000        0.000        0.000        0.000        0.000        0.000        0.000        0.000        1.000        0.000        0.000        0.000        0.000        0.000        0.000        0.000        0.000        1.000        0.000        0.000        0.000        0.000        0.000        0.000        1.000        0.000        0.000        0.000      100.000        0.000        0.000        1.598        1.632        2.053
      50.000  -238624.135    26211.698    15199.926    33795.879       86.820  -360706.255    46787.796       26.048       25.790        2.617        3.226        2.575        2.585        2.675        3.043        2.680        2.494        3.277        2.607        3.211        2.532        3.020        2.957        2.469        2.624        0.480        0.000        1.000        0.000        0.000        1.000        0.000        0.000        0.000        0.000        0.000        0.000        0.000        0.000        0.000        0.000        1.000        0.000        0.000        0.000        0.000        0.000        0.000        0.000        0.000        0.000        2.000        0.000        0.000        1.000        0.000        0.000        0.000        0.000        0.000        0.000      100.000        0.000        0.000        1.513        1.551        2.000
      60.000  -238978.200    26181.566    14725.898    34045.763      128.607  -359417.191    45357.156       25.994       25.748        2.634        3.196        2.603        2.527        2.654        3.021        2.676        2.497        3.214        2.601        3.239        2.496        3.012        3.000        2.498        2.629        0.471        0.000        1.000        0.000        0.000        1.000        0.000        0.000        0.000        0.000        0.000        0.000        0.000        0.000        0.000        0.000        4.000        0.000        0.000        0.000        0.000        0.000        0.000        0.000        0.000        0.000        1.000        0.000        0.000        0.000        0.000        0.000        1.000        0.000        0.000        0.000      100.000        0.000        0.000        1.447        1.500        2.003
      70.000  -238459.089    26283.043    14869.708    34157.549      105.141  -359296.499    45421.969       25.982       25.728        2.632        3.162        2.590        2.543        2.630        3.017        2.691        2.497        3.284        2.586        3.178        2.503        3.029        2.977        2.537        2.577        0.493        0.000        1.000        0.000        0.000        2.000        0.000        0.000        0.000        0.000        0.000        0.000        0.000        0.000        0.000        0.000        3.000        0.000        0.000        0.000        0.000        0.000        0.000        0.000        0.000        0.000        1.000        0.000        0.000        0.000        0.000        0.000        5.000        0.000        0.000        0.000      100.000        0.000        0.000        1.533        1.608        1.977
      80.000  -238039.749    26193.076    15085.901    33917.158      121.396  -358780.423    45423.142       26.067       25.684        2.695        3.203        2.600        2.551        2.630        2.980        2.635        2.469        3.293        2.655        3.212        2.555        3.013        3.000        2.541        2.634        0.492        0.000        1.000        0.000        0.000        1.000        0.000        0.000        0.000        0.000        0.000        0.000        0.000        0.000        0.000        0.000        3.000        0.000        0.000        0.000        0.000        0.000        0.000        0.000        0.000        0.000        2.000        0.000        0.000        1.000        0.000        0.000        2.000        0.000        0.000        0.000      100.000        0.000        0.000        1.552        1.612        1.983
      90.000  -237528.668    26049.398    15002.586    33790.994      118.653  -356932.922    44442.623       26.266       25.683        2.690        3.269        2.589        2.549        2.657        2.964        2.659        2.422        3.246        2.580        3.285        2.548        3.024        2.959        2.513        2.623        0.501        0.000        1.000        0.000        0.000        1.000        0.000        0.000        0.000        0.000        0.000        0.000        0.000        0.000        0.000        0.000        6.000        0.000        0.000        0.000        0.000        0.000        0.000        0.000        0.000        1.000        1.000        0.000        0.000        1.000        0.000        0.000        0.000        0.000        0.000        0.000      100.000        0.000        0.000        1.609        1.664        1.984
     100.000  -237381.453    25936.438    15298.297    33823.339      125.026  -356732.728    44168.176       25.942       25.635        2.680        3.273        2.649        2.537        2.641        3.042        2.613        2.463        3.239        2.625        3.170        2.542        3.072        2.996        2.528        2.581        0.497        0.000        1.000        0.000        0.000        2.000        0.000        0.000        0.000        0.000        0.000        0.000        0.000        0.000        0.000        0.000        5.000        0.000        0.000        0.000        0.000        0.000        0.000        0.000        0.000        0.000        0.000        0.000        0.000        1.000        0.000        0.000        5.000        0.000        0.000        0.000      100.000        0.000        0.000        1.682        1.745        2.046
     110.000  -237140.231    25445.174    15068.020    33849.086      162.223  -356645.399    44980.664       26.205       25.665        2.704        3.269        2.580        2.555        2.632        3.105        2.589        2.542        3.293        2.577        3.186        2.466        3.061        2.985        2.507        2.619        0.490        0.000        1.000        0.000        0.000        1.000        0.000        0.000        1.000        0.000        0.000        0.000        0.000        0.000        0.000        0.000        3.000        0.000        0.000        0.000        0.000        0.000        0.000        0.000        0.000        0.000        1.000        0.000        0.000        0.000        0.000        0.000        4.000        0.000        0.000        0.000      100.000        0.000        0.000        1.579        1.620        2.023
     120.000  -237970.516    25653.150    14797.642    33752.073      127.336  -356070.208    43769.491       26.157       25.654        2.712        3.292        2.600        2.615        2.625        3.032        2.694        2.550        3.317        2.659        3.243        2.486        3.091        2.949        2.494        2.649        0.479        0.000        1.000        0.000        0.000        2.000        0.000        0.000        0.000        0.000        0.000        0.000        0.000        0.000        0.000        0.000        5.000        0.000        0.000        0.000        0.000        0.000        0.000        0.000        0.000        0.000        1.000        0.000        0.000        0.000        0.000        0.000        1.000        0.000        0.000        0.000      100.000        0.000        0.000        1.634        1.671        2.047
     130.000  -236325.271    24622.034    15002.619    33901.045      119.565  -355119.995    45149.462       26.044       25.711        2.658        3.253        2.587        2.636        2.610        3.139        2.614        2.494        3.148        2.568        3.162        2.502        3.086        2.992        2.523        2.635        0.500        0.000        1.000        0.000        0.000        2.000        0.000        0.000        0.000        0.000        0.000        0.000        0.000        0.000        0.000        0.000        3.000        0.000        0.000        0.000        0.000        0.000        0.000        0.000        0.000        0.000        1.000        0.000        0.000        0.000        0.000        0.000        0.000        0.000        0.000        0.000      100.000        0.000        0.000        1.872        1.922        2.316
     140.000  -236199.096    25945.507    15166.313    33981.177      134.343  -354246.402    42819.967       26.060       25.634        2.670        3.303        2.549        2.639        2.551        3.050        2.675        2.501        3.229        2.612        3.191        2.532        3.075        3.005        2.501        2.619        0.478        0.000        1.000        0.000        0.000        2.000        0.000        0.000        0.000        0.000        0.000        0.000        0.000        0.000        0.000        0.000        6.000        0.000        0.000        0.000        0.000        0.000        0.000        0.000        0.000        0.000        1.000        0.000        0.000        1.000        0.000        0.000        3.000        0.000        0.000        0.000      100.000        0.000        0.000        1.879        1.905        2.452
     150.000  -236524.166    24202.212    15173.924    33911.342      111.150  -354527.690    44604.897       26.061       25.747        2.659        3.254        2.584        2.612        2.666        3.080        2.615        2.582        3.268        2.594        3.232        2.568        3.086        2.932        2.501        2.608        0.483        0.000        1.000        0.000        0.000        2.000        0.000        0.000        0.000        0.000        0.000        0.000        0.000        0.000        0.000        0.000        2.000        0.000        0.000        0.000        0.000        0.000        0.000        0.000        0.000        0.000        0.000        0.000        0.000        0.000        0.000        0.000        1.000        0.000        0.000        0.000      100.000        0.000        0.000        1.590        1.631        2.145
     160.000  -235823.258    25295.507    15014.958    33819.623      119.430  -355588.842    45516.066       25.867       25.761        2.645        3.254        2.581        2.639        2.638        3.029        2.630        2.540        3.208        2.576        3.192        2.529        3.088        2.931        2.533        2.618        0.502        0.000        1.000        0.000        0.000        2.000        0.000        0.000        0.000        0.000        0.000        0.000        0.000        0.000        0.000        0.000        2.000        0.000        0.000        0.000        0.000        0.000        0.000        0.000        0.000        0.000        0.000        0.000        0.000        0.000        0.000        0.000        2.000        0.000        0.000        0.000      100.000        0.000        0.000        1.691        1.749        2.225
     170.000  -235957.154    25307.042    14692.995    34105.079      105.534  -354522.657    44354.853       25.871       25.643        2.679        3.278        2.637        2.595        2.668        3.117        2.646        2.505        3.282        2.651        3.217        2.577        3.054        2.983        2.506        2.627        0.483        0.000        1.000        0.000        0.000        1.000        0.000        0.000        1.000        0.000        0.000        0.000        0.000        0.000        0.000        0.000        3.000        0.000        0.000        0.000        0.000        0.000        0.000        0.000        0.000        0.000        1.000        0.000        0.000        0.000        0.000        0.000        2.000        0.000        0.000        0.000      100.000        0.000        0.000        2.023        2.092        2.436
     180.000  -236320.540    25107.347    14614.216    33998.500      122.907  -353844.549    43681.039       25.891       25.846        2.626        3.290        2.615        2.607        2.643        2.979        2.606        2.571        3.241        2.628        3.204        2.494        3.109        2.936        2.515        2.592        0.488        0.000        1.000        0.000        0.000        2.000        0.000        0.000        1.000        0.000        0.000        0.000        0.000        0.000        0.000        0.000        1.000        0.000        0.000        0.000        0.000        0.000        0.000        0.000        0.000        0.000        4.000        0.000        0.000        1.000        0.000        0.000        2.000        0.000        0.000        0.000      100.000        0.000        0.000        1.898        1.968        2.437
     190.000  -235781.191    23679.479    15019.173    34001.245      106.263  -353895.102    45307.751       25.766       25.601        2.644        3.238        2.605        2.589        2.647        3.102        2.639        2.559        3.241        2.594        3.175        2.526        3.065        2.964        2.501        2.614        0.497        0.000        1.000        0.000        0.000        1.000        0.000        0.000        0.000        0.000        0.000        0.000        0.000        0.000        0.000        0.000        3.000        0.000        0.000        0.000        0.000        0.000        0.000        0.000        0.000        1.000        4.000        0.000        0.000        1.000        0.000        0.000        2.000        0.000        0.000        0.000      100.000        0.000        0.000        1.705        1.740        2.248
     200.000  -236421.896    24908.650    14669.493    34043.224      138.353  -353947.371    43765.755       25.789       25.614        2.648        3.239        2.604        2.576        2.621        3.047        2.602        2.546        3.273        2.642        3.230        2.557        3.055        2.952        2.488        2.654        0.477        0.000        1.000        0.000        0.000        2.000        0.000        0.000        0.000        0.000        0.000        0.000        0.000        0.000        0.000        0.000        5.000        0.000        0.000        0.000        0.000        0.000        0.000        0.000        0.000        0.000        1.000        0.000        0.000        0.000        0.000        0.000        1.000        0.000        0.000        0.000      100.000        0.000        0.000        1.960        2.004        2.616
     210.000  -234947.780    23180.926    14486.730    34139.252      147.459  -351745.471    44843.324       25.565       25.430        2.633        3.242        2.626        2.580        2.625        2.964        2.635        2.551        3.272        2.690        3.214        2.508        3.036        2.971        2.431        2.612        0.496        0.000        1.000        0.000        0.000        2.000        0.000        0.000        0.000        0.000        0.000        0.000        0.000        0.000        0.000        0.000        3.000        0.000        0.000        0.000        0.000        0.000        0.000        0.000        0.000        0.000        2.000        0.000        0.000        0.000        0.000        0.000        6.000        0.000        4.494        0.000       95.506        0.000        0.000        2.097        2.125        2.807
     220.000  -234907.272    23481.419    14706.325    34302.447      124.511  -352170.723    44648.749       25.738       25.514        2.576        3.262        2.636        2.611        2.621        2.984        2.598        2.572        3.241        2.531        3.217        2.504        3.122        2.942        2.476        2.548        0.491        0.000        1.000        0.000        0.000        2.000        0.000        0.000        0.000        0.000        0.000        0.000        0.000        0.000        0.000        0.000        2.000        0.000        0.000        0.000        0.000        0.000        0.000        0.000        0.000        0.000        0.000        0.000        0.000        0.000        0.000        0.000        4.000        0.000        4.494        0.000       95.506        0.000        0.000        1.845        1.891        2.706
     230.000  -235666.170    23480.446    14735.800    33998.205      135.613  -352767.181    44750.948       25.617       25.473        2.560        3.288        2.586        2.609        2.604        2.973        2.631        2.529        3.268        2.548        3.191        2.564        3.087        2.987        2.482        2.588        0.484        0.000        1.000        0.000        0.000        2.000        0.000        0.000        0.000        0.000        0.000        0.000        0.000        0.000        0.000        0.000        3.000        0.000        0.000        0.000        0.000        0.000        0.000        0.000        0.000        0.000        2.000        0.000        0.000        0.000        0.000        0.000        3.000        0.000        0.000        0.000      100.000        0.000        0.000        1.938        1.983        2.696
     240.000  -235477.909    24449.919    14730.980    34041.789      116.592  -351614.894    42797.705       25.741       25.794        2.520        3.218        2.605        2.610        2.645        3.009        2.612        2.528        3.241        2.633        3.101        2.534        3.133        2.976        2.475        2.587        0.486        0.000        1.000        0.000        0.000        2.000        0.000        0.000        0.000        0.000        0.000        0.000        0.000        0.000        0.000        0.000        1.000        0.000        0.000        0.000        0.000        0.000        0.000        0.000        0.000        0.000        0.000        0.000        0.000        0.000        0.000        0.000        2.000        0.000        0.000        0.000      100.000        0.000        0.000        2.019        2.031        2.662
     250.000  -235071.060    23986.809    14129.945    34090.076      129.830  -350735.885    43328.164       25.393       25.570        2.572        3.264        2.501        2.601        2.627        3.031        2.586        2.537        3.224        2.548        3.181        2.550        3.110        3.003        2.478        2.639        0.490        0.000        1.000        0.000        0.000        2.000        0.000        0.000        0.000        0.000        0.000        0.000        0.000        0.000        0.000        0.000        0.000        0.000        0.000        0.000        0.000        0.000        0.000        0.000        0.000        0.000        0.000        0.000        0.000        0.000        0.000        0.000        2.000        0.000        0.000        0.000      100.000        0.000        0.000        1.656        1.697        2.431
     260.000  -235440.132    24439.200    14222.034    34226.979      137.893  -351642.528    43176.290       25.622       25.502        2.562        3.247        2.530        2.606        2.624        3.014        2.610        2.522        3.227        2.579        3.225        2.499        3.057        2.949        2.528        2.622        0.502        0.000        1.000        0.000        0.000        2.000        0.000        0.000        0.000        0.000        0.000        0.000        0.000        0.000        0.000        0.000        2.000        0.000        0.000        0.000        0.000        0.000        0.000        0.000        0.000        0.000        0.000        0.000        0.000        0.000        0.000        0.000        1.000        0.000        0.000        0.000      100.000        0.000        0.000        1.965        2.004        2.527
     270.000  -233923.436    24179.752    14414.487    34020.586      106.830  -349186.538    42541.448       25.568       25.604        2.617        3.249        2.490        2.604        2.674        3.078        2.587        2.524        3.280        2.620        3.175        2.532        3.085        2.994        2.559        2.633        0.490        0.000        1.000        0.000        0.000        2.000        0.000        0.000        0.000        0.000        0.000        0.000        0.000        0.000        0.000        0.000        2.000        0.000        0.000        0.000        0.000        0.000        0.000        0.000        0.000        0.000        0.000        0.000        0.000        0.000        0.000        0.000        2.000        0.000        0.000        0.000      100.000        0.000        0.000        2.077        2.061        2.454
     280.000  -234045.405    23496.167    14391.792    33949.301      141.620  -349187.586    43163.301       25.727       25.417        2.615        3.236        2.543        2.568        2.624        2.985        2.642        2.521        3.261        2.676        3.165        2.517        3.066        3.023        2.474        2.613        0.493        0.000        1.000        0.000        0.000        2.000        0.000        0.000        0.000        0.000        0.000        0.000        0.000        0.000        0.000        0.000        1.000        0.000        0.000        0.000        0.000        0.000        0.000        0.000        0.000        0.000        2.000        0.000        0.000        1.000        0.000        0.000        1.000        0.000        0.000        0.000      100.000        0.000        0.000        2.120        2.117        2.499
     290.000  -234455.108    24655.786    14366.725    33897.175      116.418  -349843.277    42352.066       25.842       25.528        2.622        3.203        2.500        2.591        2.665        3.024        2.716        2.602        3.270        2.566        3.117        2.506        3.050        3.104        2.512        2.631        0.500        0.000        1.000        0.000        0.000        2.000        0.000        0.000        0.000        0.000        0.000        0.000        0.000        0.000        0.000        0.000        1.000        0.000        0.000        0.000        0.000        0.000        0.000        0.000        0.000        0.000        1.000        0.000        0.000        0.000        0.000        0.000        4.000        0.000        0.000        0.000      100.000        0.000        0.000        2.151        2.166        2.575
     300.000  -235050.289    23635.381    14567.792    34005.857      138.494  -350386.012    42988.199       25.820       25.711        2.631        3.281        2.527        2.512        2.666        2.979        2.644        2.497        3.246        2.647        3.186        2.536        3.023        3.026        2.538        2.645        0.500        0.000        1.000        0.000        0.000        2.000        0.000        0.000        0.000        0.000        0.000        0.000        0.000        0.000        0.000        0.000        1.000        0.000        0.000        0.000        0.000        0.000        0.000        0.000        0.000        0.000        1.000        0.000        0.000        2.000        0.000        0.000        3.000        0.000        0.000        0.000      100.000        0.000        0.000        2.049        2.043        2.474
     310.000  -234516.486    24232.435    14433.804    33799.810      149.975  -349617.120    42484.610       25.574       25.755        2.629        3.210        2.481        2.563        2.633        3.083        2.660        2.501        3.254        2.598        3.219        2.555        3.126        3.086        2.498        2.555        0.482        0.000        1.000        0.000        0.000        2.000        0.000        0.000        0.000        0.000        0.000        0.000        0.000        0.000        0.000        0.000        0.000        0.000        0.000        0.000        0.000        0.000        0.000        0.000        0.000        0.000        0.000        0.000        0.000        0.000        0.000        0.000        3.000        0.000        4.494        0.000       95.506        0.000        0.000        2.095        2.062        2.595
     320.000  -234491.155    24390.500    14156.349    34047.037      140.981  -350435.312    43209.290       25.952       26.003        2.590        3.239        2.488        2.575        2.659        2.971        2.645        2.471        3.251        2.655        3.224        2.542        3.054        3.048        2.500        2.618        0.495        0.000        1.000        0.000        0.000        2.000        0.000        0.000        0.000        0.000        0.000        0.000        0.000        0.000        0.000        0.000        1.000        0.000        0.000        0.000        0.000        0.000        0.000        0.000        0.000        1.000        2.000        0.000        0.000        0.000        0.000        0.000        1.000        0.000        0.000        0.000      100.000        0.000        0.000        2.109        2.104        2.535
     330.000  -234862.026    24216.835    14279.427    33766.002      105.799  -349348.410    42118.321       25.810       25.770        2.626        3.248        2.493        2.599        2.658        2.939        2.671        2.480        3.254        2.562        3.165        2.539        3.102        3.042        2.456        2.589        0.492        0.000        1.000        0.000        0.000        2.000        0.000        0.000        0.000        0.000        0.000        0.000        0.000        0.000        0.000        0.000        2.000        0.000        0.000        0.000        0.000        0.000        0.000        0.000        0.000        0.000        0.000        0.000        0.000        0.000        0.000        0.000        5.000        0.000        4.494        0.000       95.506        0.000        0.000        2.135        2.120        2.815
     340.000  -234880.045    24018.433    14330.093    34042.096      127.025  -349937.483    42539.791       25.446       25.367        2.641        3.213        2.506        2.521        2.648        3.012        2.696        2.490        3.188        2.604        3.218        2.493        3.008        2.999        2.471        2.579        0.475        0.000        1.000        0.000        0.000        2.000        0.000        0.000        0.000        0.000        0.000        0.000        0.000        0.000        0.000        0.000        1.000        0.000        0.000        0.000        0.000        0.000        0.000        0.000        0.000        1.000        0.000        0.000        0.000        0.000        0.000        0.000        2.000        0.000        4.494        0.000       95.506        0.000        0.000        2.052        2.068        2.761
     350.000  -234710.833    24299.774    14707.257    33859.921      110.399  -350798.408    43110.224       25.868       25.887        2.626        3.232        2.570        2.529        2.602        3.004        2.647        2.493        3.173        2.635        3.220        2.583        3.074        3.022        2.507        2.598        0.489        0.000        1.000        0.000        0.000        2.000        0.000        0.000        0.000        0.000        0.000        0.000        0.000        0.000        0.000        0.000        3.000        0.000        0.000        0.000        0.000        0.000        0.000        0.000        0.000        0.000        0.000        0.000        0.000        0.000        0.000        0.000        2.000        0.000        0.000        0.000      100.000        0.000        0.000        2.540        2.545        3.123
     360.000  -234193.532    23797.659    14792.862    33825.249      120.940  -349457.081    42726.839       25.973       25.600        2.633        3.256        2.498        2.531        2.657        2.948        2.640        2.496        3.307        2.609        3.163        2.547        3.082        3.035        2.522        2.639        0.479        0.000        1.000        0.000        0.000        2.000        0.000        0.000        0.000        0.000        0.000        0.000        0.000        0.000        0.000        0.000        3.000        0.000        0.000        0.000        0.000        0.000        0.000        0.000        0.000        1.000        0.000        0.000        0.000        0.000        0.000        0.000        1.000        0.000        4.494        0.000       95.506        0.000        0.000        2.242        2.272        2.935
     370.000  -234664.421    22867.796    14392.954    33965.955      127.768  -349836.857    43817.963       26.047       25.880        2.648        3.235        2.489        2.581        2.598        2.973        2.610        2.578        3.257        2.606        3.215        2.553        3.074        3.035        2.481        2.580        0.485        1.000        1.000        0.000        0.000        2.000        0.000        0.000        0.000        0.000        0.000        0.000        0.000        0.000        0.000        0.000        3.000        0.000        0.000        0.000        0.000        0.000        0.000        0.000        0.000        0.000        0.000        0.000        0.000        0.000        0.000        0.000        2.000        0.000        0.000        0.000      100.000        0.000        0.000        1.947        1.974        2.628
     380.000  -234610.436    24372.396    14462.705    33847.150      140.407  -349236.589    41803.495       25.842       25.780        2.633        3.301        2.481        2.574        2.636        2.941        2.650        2.585        3.300        2.652        3.191        2.601        3.096        3.069        2.499        2.618        0.489        0.000        1.000        0.000        0.000        2.000        0.000        0.000        0.000        0.000        1.000        0.000        0.000        0.000        0.000        0.000        3.000        0.000        0.000        0.000        0.000        0.000        0.000        0.000        0.000        0.000        2.000        0.000        0.000        0.000        0.000        0.000        1.000        0.000        0.000        0.000      100.000        0.000        0.000        1.933        1.949        2.529
     390.000  -235179.802    23821.989    14205.236    34097.839      122.956  -350999.972    43572.150       25.628       25.413        2.682        3.226        2.460        2.548        2.643        2.960        2.647        2.570        3.274        2.606        3.155        2.510        3.098        3.081        2.504        2.565        0.486        0.000        1.000        0.000        0.000        2.000        0.000        0.000        0.000        0.000        0.000        0.000        0.000        0.000        0.000        0.000        2.000        0.000        0.000        0.000        0.000        0.000        0.000        0.000        0.000        0.000        0.000        0.000        0.000        0.000        0.000        0.000        2.000        0.000        0.000        0.000      100.000        0.000        0.000        1.994        2.026        2.594
     400.000  -234756.335    23652.257    14059.689    34130.095      122.306  -350698.978    43978.295       25.716       25.527        2.637        3.273        2.477        2.546        2.659        2.989        2.628        2.476        3.190        2.599        3.202        2.534        3.074        3.025        2.507        2.620        0.489        0.000        1.000        0.000        0.000        2.000        0.000        0.000        0.000        0.000        1.000        0.000        0.000        0.000        0.000        0.000        4.000        0.000        0.000        0.000        0.000        0.000        0.000        0.000        0.000        0.000        1.000        0.000        0.000        0.000        0.000        0.000        2.000        0.000        0.000        0.000      100.000        0.000        0.000        2.229        2.265        2.763
     410.000  -234147.178    24474.834    14058.722    34112.470      132.710  -348471.106    41545.192       25.602       25.599        2.605        3.251        2.468        2.552        2.629        3.036        2.645        2.548        3.236        2.655        3.172        2.576        3.140        3.059        2.480        2.613        0.485        0.000        1.000        0.000        0.000        2.000        0.000        0.000        0.000        0.000        0.000        0.000        0.000        0.000        0.000        0.000        0.000        0.000        0.000        0.000        0.000        0.000        0.000        0.000        0.000        1.000        2.000        0.000        0.000        0.000        0.000        0.000        2.000        0.000        4.494        0.000       95.506        0.000        0.000        1.474        1.508        2.317
     420.000  -234712.341    24174.277    14457.142    33957.779      133.530  -349280.135    41845.065       25.918       26.035        2.633        3.262        2.467        2.553        2.615        3.005        2.648        2.490        3.312        2.599        3.195        2.496        3.074        3.070        2.522        2.624        0.489        0.000        1.000        0.000        0.000        2.000        0.000        0.000        1.000        0.000        0.000        0.000        0.000        0.000        0.000        0.000        4.000        0.000        0.000        0.000        0.000        0.000        0.000        0.000        0.000        0.000        1.000        0.000        0.000        0.000        0.000        0.000        2.000        0.000        0.000        0.000      100.000        0.000        0.000        1.832        1.848        2.511
     430.000  -234506.512    24252.541    14251.673    34101.633      123.464  -349116.768    41880.945       25.754       25.899        2.662        3.244        2.477        2.560        2.648        2.955        2.633        2.478        3.249        2.619        3.175        2.558        3.043        3.020        2.477        2.629        0.493        0.000        1.000        0.000        0.000        2.000        0.000        0.000        1.000        0.000        0.000        0.000        0.000        0.000        0.000        0.000        1.000        0.000        0.000        0.000        0.000        0.000        0.000        0.000        0.000        1.000        0.000        0.000        0.000        0.000        0.000        0.000        1.000        0.000        0.000        0.000      100.000        0.000        0.000        1.744        1.777        2.523
     440.000  -234878.921    23938.230    14297.285    34008.131      130.840  -349905.497    42652.089       25.623       26.012        2.675        3.238        2.454        2.601        2.654        2.993        2.674        2.502        3.271        2.666        3.169        2.524        3.054        3.075        2.505        2.569        0.483        0.000        1.000        0.000        0.000        2.000        0.000        0.000        0.000        0.000        0.000        0.000        0.000        0.000        0.000        0.000        1.000        0.000        0.000        0.000        0.000        0.000        0.000        0.000        0.000        0.000        1.000        0.000        0.000        0.000        0.000        0.000        2.000        0.000        0.000        0.000      100.000        0.000        0.000        1.761        1.788        2.457
     450.000  -234374.837    24068.511    14450.263    34198.294      137.191  -349030.213    41801.116       25.629       25.670        2.676        3.218        2.495        2.525        2.613        3.005        2.690        2.564        3.220        2.643        3.176        2.594        3.067        3.011        2.500        2.616        0.487        0.000        1.000        0.000        0.000        1.000        0.000        0.000        1.000        0.000        0.000        0.000        0.000        0.000        0.000        0.000        3.000        0.000        0.000        0.000        0.000        0.000        0.000        0.000        0.000        0.000        1.000        0.000        0.000        0.000        0.000        0.000        4.000        0.000        0.000        0.000      100.000        0.000        0.000        1.954        1.976        2.683
     460.000  -234639.841    23993.529    14127.397    34038.788      109.666  -349981.520    43072.299       25.890       26.208        2.614        3.215        2.438        2.557        2.677        2.987        2.673        2.565        3.263        2.681        3.176        2.539        3.095        3.064        2.499        2.582        0.520        0.000        1.000        0.000        0.000        2.000        0.000        0.000        0.000        0.000        0.000        0.000        0.000        0.000        0.000        0.000        3.000        0.000        0.000        0.000        0.000        0.000        0.000        0.000        0.000        0.000        0.000        0.000        0.000        0.000        0.000        0.000        2.000        0.000        0.000        0.000      100.000        0.000        0.000        1.916        1.940        2.535
     470.000  -234786.542    24246.105    14122.316    33925.656      130.849  -349992.463    42780.996       25.879       26.296        2.651        3.248        2.415        2.555        2.711        2.966        2.622        2.535        3.280        2.653        3.155        2.506        3.084        3.053        2.498        2.637        0.496        0.000        1.000        0.000        0.000        2.000        0.000        0.000        0.000        0.000        0.000        0.000        0.000        0.000        0.000        0.000        3.000        0.000        0.000        0.000        0.000        0.000        0.000        0.000        0.000        1.000        1.000        0.000        0.000        0.000        0.000        0.000        3.000        0.000        0.000        0.000      100.000        0.000        0.000        1.957        1.981        2.522
     480.000  -234306.161    23982.970    14056.170    33760.986      121.942  -347690.050    41461.822       25.989       26.208        2.634        3.255        2.464        2.600        2.620        2.905        2.624        2.534        3.195        2.702        3.205        2.534        3.079        3.027        2.528        2.653        0.507        0.000        1.000        0.000        0.000        2.000        0.000        0.000        0.000        0.000        0.000        0.000        0.000        0.000        0.000        0.000        4.000        0.000        0.000        0.000        0.000        0.000        0.000        0.000        0.000        0.000        2.000        0.000        0.000        0.000        0.000        0.000        2.000        0.000        4.494        0.000       95.506        0.000        0.000        1.909        1.926        2.459
     490.000  -233793.917    23412.434    14405.419    34036.694      119.416  -349642.621    43874.740       25.793       25.978        2.640        3.205        2.474        2.496        2.651        3.009        2.600        2.506        3.195        2.664        3.218        2.541        3.020        3.055        2.465        2.619        0.497        0.000        1.000        0.000        0.000        2.000        0.000        0.000        0.000        0.000        0.000        0.000        0.000        0.000        0.000        0.000        3.000        0.000        0.000        0.000        0.000        0.000        0.000        0.000        0.000        1.000        2.000        0.000        0.000        0.000        0.000        0.000        1.000        0.000        0.000        0.000      100.000        0.000        0.000        1.734        1.760        2.563
     500.000  -234403.407    22927.570    14265.257    33972.652      141.633  -350783.563    45073.045       26.089       26.080        2.645        3.240        2.450        2.574        2.625        2.951        2.650        2.553        3.202        2.633        3.209        2.555        3.058        3.039        2.495        2.614        0.499        0.000        1.000        0.000        0.000        2.000        0.000        0.000        0.000        0.000        0.000        0.000        0.000        0.000        0.000        0.000        1.000        0.000        0.000        0.000        0.000        0.000        0.000        0.000        0.000        0.000        0.000        0.000        0.000        0.000        0.000        0.000        4.000        0.000        0.000        0.000      100.000        0.000        0.000        1.873        1.885        2.571
     510.000  -233778.899    23424.762    14693.922    33884.700      156.802  -348442.762    42503.677       25.918       25.858        2.642        3.225        2.487        2.563        2.635        3.016        2.656        2.478        3.231        2.667        3.181        2.624        3.097        3.011        2.487        2.621        0.481        0.000        1.000        0.000        0.000        2.000        0.000        0.000        0.000        0.000        0.000        0.000        0.000        0.000        0.000        0.000        2.000        0.000        0.000        0.000        0.000        0.000        0.000        0.000        0.000        0.000        0.000        0.000        0.000        0.000        0.000        0.000        5.000        0.000        0.000        0.000      100.000        0.000        0.000        1.615        1.612        2.326
     520.000  -233602.299    23670.351    14200.506    34117.959      149.714  -347197.514    41456.684       25.916       25.966        2.655        3.184        2.444        2.551        2.663        2.926        2.634        2.482        3.193        2.585        3.202        2.536        3.111        3.057        2.463        2.607        0.477        0.000        1.000        0.000        0.000        2.000        0.000        0.000        0.000        0.000        0.000        0.000        0.000        0.000        0.000        0.000        2.000        0.000        0.000        0.000        0.000        0.000        0.000        0.000        0.000        1.000        0.000        0.000        0.000        0.000        0.000        0.000        2.000        0.000        0.000        0.000      100.000        0.000        0.000        1.662        1.661        2.421
     530.000  -233364.378    22558.587    14353.223    34209.399      145.631  -347562.139    42930.922       25.727       25.657        2.638        3.281        2.462        2.563        2.648        2.945        2.674        2.472        3.280        2.660        3.204        2.514        3.108        3.038        2.489        2.626        0.495        0.000        1.000        0.000        0.000        1.000        0.000        0.000        0.000        0.000        0.000        0.000        0.000        0.000        0.000        0.000        3.000        0.000        0.000        0.000        0.000        0.000        0.000        0.000        0.000        0.000        0.000        0.000        0.000        0.000        0.000        0.000        4.000        0.000        4.494        0.000       95.506        0.000        0.000        1.527        1.563        2.193
     540.000  -233770.297    23714.771    14548.096    33877.197      149.768  -348732.461    42672.332       25.921       25.793        2.694        3.172        2.437        2.594        2.623        3.009        2.635        2.583        3.259        2.588        3.170        2.510        3.095        3.045        2.474        2.621        0.492        0.000        1.000        0.000        0.000        2.000        0.000        0.000        0.000        0.000        0.000        0.000        0.000        0.000        0.000        0.000        3.000        0.000        0.000        0.000        0.000        0.000        0.000        0.000        0.000        0.000        1.000        0.000        0.000        0.000        0.000        0.000        2.000        0.000        4.494        0.000       95.506        0.000        0.000        1.784        1.813        2.443
     550.000  -233670.121    23190.802    14119.871    34020.923      113.480  -347511.714    42396.516       25.709       25.543        2.679        3.227        2.494        2.549        2.635        2.912        2.676        2.494        3.283        2.623        3.169        2.505        3.066        3.069        2.494        2.602        0.468        0.000        1.000        0.000        0.000        2.000        0.000        0.000        0.000        0.000        0.000        0.000        0.000        0.000        0.000        0.000        1.000        0.000        0.000        0.000        0.000        0.000        0.000        0.000        0.000        0.000        3.000        0.000        0.000        0.000        0.000        0.000        3.000        0.000        0.000        0.000      100.000        0.000        0.000        1.746        1.760        2.454
     560.000  -233100.599    23201.062    14090.909    34208.742      137.486  -348391.760    43652.962       25.521       25.674        2.630        3.254        2.436        2.551        2.508        2.918        2.652        2.566        3.250        2.596        3.227        2.512        3.086        3.026        2.524        2.606        0.495        0.000        1.000        0.000        0.000        2.000        0.000        0.000        0.000        0.000        0.000        0.000        0.000        0.000        0.000        0.000        2.000        0.000        0.000        0.000        0.000        0.000        0.000        0.000        0.000        0.000        0.000        0.000        0.000        1.000        0.000        0.000        5.000        0.000        0.000        0.000      100.000        0.000        0.000        1.605        1.609        2.358
     570.000  -234485.131    24113.871    13955.338    34173.078      131.424  -348233.968    41375.126       25.905       25.885        2.700        3.259        2.447        2.603        2.543        2.978        2.628        2.573        3.280        2.623        3.190        2.431        3.103        3.021        2.497        2.632        0.496        0.000        1.000        0.000        0.000        2.000        0.000        0.000        1.000        0.000        0.000        0.000        0.000        0.000        0.000        0.000        2.000        0.000        0.000        0.000        0.000        0.000        0.000        0.000        0.000        0.000        1.000        0.000        0.000        0.000        0.000        0.000        2.000        0.000        4.494        0.000       95.506        0.000        0.000        1.430        1.454        2.223
     580.000  -233776.208    23294.016    14260.581    34182.104      152.838  -348451.963    42786.215       25.888       25.797        2.659        3.282        2.416        2.585        2.534        2.948        2.623        2.550        3.238        2.654        3.165        2.493        3.122        3.030        2.474        2.648        0.490        0.000        1.000        0.000        0.000        2.000        0.000        0.000        0.000        0.000        0.000        0.000        0.000        0.000        0.000        0.000        2.000        0.000        0.000        0.000        0.000        0.000        0.000        0.000        0.000        1.000        4.000        0.000        0.000        0.000        0.000        0.000        2.000        0.000        4.494        0.000       95.506        0.000        0.000        1.539        1.531        2.459
     590.000  -233594.748    23879.542    14407.535    34048.387      111.983  -347599.931    41557.736       26.122       26.177        2.710        3.277        2.436        2.541        2.523        2.965        2.683        2.556        3.269        2.650        3.197        2.525        3.119        3.020        2.517        2.600        0.478        0.000        1.000        0.000        0.000        2.000        0.000        0.000        0.000        0.000        1.000        0.000        0.000        0.000        0.000        0.000        3.000        0.000        0.000        0.000        0.000        0.000        0.000        0.000        0.000        1.000        1.000        0.000        0.000        0.000        0.000        0.000        1.000        0.000        0.000        0.000      100.000        0.000        0.000        1.658        1.642        2.599
     600.000  -233524.564    24378.939    14160.460    33980.881      135.583  -348868.105    42687.678       26.270       25.999        2.714        3.242        2.464        2.576        2.520        3.082        2.634        2.524        3.252        2.542        3.236        2.551        3.105        2.997        2.518        2.682        0.482        0.000        1.000        0.000        0.000        2.000        0.000        0.000        0.000        0.000        1.000        0.000        0.000        0.000        0.000        0.000        2.000        0.000        0.000        0.000        0.000        0.000        0.000        0.000        0.000        1.000        2.000        0.000        0.000        1.000        0.000        0.000        7.000        0.000        4.494        0.000       95.506        0.000        0.000        1.818        1.810        2.738
     610.000  -234065.121    23907.916    14010.301    34118.040      127.579  -347714.307    41485.349       26.057       26.253        2.699        3.228        2.445        2.591        2.542        3.024        2.644        2.490        3.268        2.592        3.141        2.499        3.148        3.034        2.506        2.638        0.490        1.000        1.000        0.000        0.000        1.000        0.000        0.000        0.000        0.000        0.000        0.000        0.000        0.000        0.000        0.000        3.000        0.000        0.000        0.000        0.000        0.000        0.000        0.000        0.000        0.000        2.000        0.000        0.000        1.000        0.000        0.000        4.000        0.000        0.000        0.000      100.000        0.000        0.000        1.940        1.930        2.888
     620.000  -233882.703    24108.760    14138.732    34280.842      140.598  -348518.504    41966.869       25.683       25.992        2.682        3.270        2.461        2.556        2.511        2.913        2.659        2.461        3.264        2.589        3.180        2.544        3.075        3.016        2.530        2.663        0.474        0.000        1.000        0.000        0.000        2.000        0.000        0.000        0.000        0.000        0.000        0.000        0.000        0.000        0.000        0.000        3.000        0.000        0.000        0.000        0.000        0.000        0.000        0.000        0.000        1.000        0.000        0.000        0.000        0.000        0.000        0.000        3.000        0.000        0.000        0.000      100.000        0.000        0.000        1.738        1.712        2.696
     630.000  -234303.860    23657.710    14160.346    34126.957      115.180  -348933.846    42569.793       26.080       26.149        2.643        3.273        2.467        2.572        2.598        2.850        2.658        2.458        3.278        2.603        3.223        2.497        3.111        3.020        2.493        2.599        0.474        0.000        1.000        0.000        0.000        2.000        0.000        0.000        0.000        0.000        0.000        0.000        0.000        0.000        0.000        0.000        4.000        0.000        0.000        0.000        0.000        0.000        0.000        0.000        0.000        0.000        1.000        0.000        0.000        0.000        0.000        0.000        1.000        0.000        4.494        0.000       95.506        0.000        0.000        1.926        1.912        2.840
     640.000  -234672.598    23199.444    14246.288    34215.128      144.254  -349252.980    42775.268       25.854       26.191        2.662        3.217        2.477        2.575        2.521        2.938        2.612        2.474        3.266        2.601        3.154        2.486        3.069        3.005        2.497        2.638        0.480        0.000        1.000        0.000        0.000        2.000        0.000        0.000        0.000        0.000        0.000        0.000        0.000        0.000        0.000        0.000        0.000        0.000        0.000        0.000        0.000        0.000        0.000        0.000        0.000        1.000        2.000        0.000        0.000        0.000        0.000        0.000        1.000        0.000        0.000        0.000      100.000        0.000        0.000        1.643        1.678        2.539
     650.000  -234305.671    23935.204    14443.215    33939.019      131.950  -348748.434    41993.376       25.808       26.082        2.702        3.231        2.481        2.577        2.555        2.955        2.612        2.524        3.254        2.603        3.210        2.582        3.109        3.017        2.527        2.668        0.469        0.000        1.000        0.000        0.000        2.000        0.000        0.000        1.000        0.000        1.000        0.000        0.000        0.000        0.000        0.000        5.000        0.000        0.000        0.000        0.000        0.000        0.000        0.000        0.000        0.000        1.000        0.000        0.000        2.000        0.000        0.000        5.000        0.000        4.494        0.000       95.506        0.000        0.000        1.622        1.634        2.576
     660.000  -234774.899    23887.762    13962.467    33993.781      139.702  -349534.599    42775.988       25.838       25.992        2.697        3.203        2.470        2.563        2.661        2.983        2.642        2.540        3.276        2.584        3.112        2.496        3.029        2.966        2.512        2.619        0.446        0.000        1.000        0.000        0.000        2.000        0.000        0.000        0.000        0.000        0.000        0.000        0.000        0.000        0.000        0.000        5.000        0.000        0.000        0.000        0.000        0.000        0.000        0.000        0.000        0.000        1.000        0.000        0.000        0.000        0.000        0.000        2.000        0.000        0.000        0.000      100.000        0.000        0.000        2.120        2.140        2.803
     670.000  -234190.481    23188.321    13759.139    34071.200      129.859  -348629.260    43290.260       25.740       25.827        2.591        3.159        2.477        2.516        2.545        3.088        2.615        2.497        3.221        2.589        3.192        2.550        3.129        3.019        2.497        2.637        0.487        0.000        1.000        0.000        0.000        2.000        0.000        0.000        0.000        0.000        0.000        0.000        0.000        0.000        0.000        0.000        3.000        0.000        0.000        0.000        0.000        0.000        0.000        0.000        0.000        0.000        2.000        0.000        0.000        1.000        0.000        0.000        2.000        0.000        4.494        0.000       95.506        0.000        0.000        2.616        2.659        3.163
     680.000  -234404.462    22707.115    13838.179    34054.384      120.045  -348162.613    43038.427       26.304       26.038        2.683        3.209        2.454        2.567        2.567        3.014        2.639        2.533        3.280        2.560        3.145        2.524        3.024        2.983        2.524        2.610        0.500        0.000        1.000        0.000        0.000        2.000        0.000        0.000        0.000        0.000        0.000        0.000        0.000        0.000        0.000        0.000        5.000        0.000        0.000        0.000        0.000        0.000        0.000        0.000        0.000        0.000        0.000        0.000        0.000        0.000        0.000        0.000        5.000        0.000        0.000        0.000      100.000        0.000        0.000        2.380        2.414        2.894
     690.000  -234231.622    23507.315    14104.142    33939.572      128.198  -348363.614    42452.766       26.012       26.022        2.637        3.191        2.480        2.577        2.635        3.087        2.651        2.470        3.259        2.566        3.201        2.523        3.066        2.986        2.472        2.630        0.507        0.000        1.000        0.000        0.000        2.000        0.000        0.000        0.000        0.000        0.000        0.000        0.000        0.000        0.000        0.000        3.000        0.000        0.000        0.000        0.000        0.000        0.000        0.000        0.000        1.000        2.000        0.000        0.000        0.000        0.000        0.000        5.000        0.000        4.494        0.000       95.506        0.000        0.000        2.180        2.218        2.922
     700.000  -233940.160    23222.913    14080.652    34281.470      115.580  -347832.753    42191.978       25.950       25.965        2.638        3.229        2.469        2.587        2.636        2.969        2.684        2.519        3.271        2.521        3.133        2.566        3.149        2.945        2.520        2.615        0.478        0.000        1.000        0.000        0.000        2.000        0.000        0.000        0.000        0.000        1.000        0.000        0.000        0.000        0.000        0.000        2.000        0.000        0.000        0.000        0.000        0.000        0.000        0.000        0.000        1.000        1.000        0.000        0.000        0.000        0.000        0.000        2.000        0.000        0.000        0.000      100.000        0.000        0.000        1.956        1.974        2.889
     710.000  -234078.122    22917.878    14468.466    34218.037      130.791  -349555.225    43741.931       25.717       25.797        2.632        3.196        2.448        2.636        2.632        2.985        2.643        2.521        3.204        2.582        3.172        2.462        3.132        3.023        2.474        2.629        0.483        0.000        1.000        0.000        0.000        2.000        0.000        0.000        0.000        0.000        0.000        0.000        0.000        0.000        0.000        0.000        4.000        0.000        0.000        0.000        0.000        0.000        0.000        0.000        0.000        0.000        1.000        0.000        0.000        0.000        0.000        0.000        4.000        0.000        0.000        0.000      100.000        0.000        0.000        2.110        2.119        3.073
     720.000  -234118.054    23553.376    14403.777    34037.694      117.323  -348366.850    42136.626       25.957       25.759        2.644        3.210        2.493        2.582        2.617        3.016        2.629        2.492        3.248        2.607        3.186        2.489        3.013        2.978        2.491        2.638        0.504        0.000        1.000        0.000        0.000        2.000        0.000        0.000        0.000        0.000        1.000        0.000        0.000        0.000        0.000        0.000        1.000        0.000        0.000        0.000        0.000        0.000        0.000        0.000        0.000        0.000        0.000        0.000        0.000        1.000        0.000        0.000        4.000        0.000        0.000        0.000      100.000        0.000        0.000        2.217        2.251        3.017
     730.000  -234303.496    22719.584    14752.980    34128.917      118.274  -349394.575    43371.324       25.987       25.820        2.624        3.229        2.458        2.593        2.614        2.894        2.673        2.515        3.188        2.642        3.185        2.464        3.061        2.980        2.475        2.622        0.499        0.000        1.000        0.000        0.000        2.000        0.000        0.000        0.000        0.000        0.000        0.000        0.000        0.000        0.000        0.000        2.000        0.000        0.000        0.000        0.000        0.000        0.000        0.000        0.000        2.000        0.000        0.000        0.000        0.000        0.000        0.000        5.000        0.000        0.000        0.000      100.000        0.000        0.000        2.318        2.314        3.050
     740.000  -233820.748    23140.351    14753.387    34163.731      127.768  -349779.529    43773.544       25.835       25.665        2.655        3.261        2.442        2.582        2.573        2.794        2.647        2.578        3.237        2.650        3.160        2.488        3.145        2.942        2.508        2.566        0.486        0.000        1.000        0.000        0.000        2.000        0.000        0.000        0.000        0.000        0.000        0.000        0.000        0.000        0.000        0.000        1.000        0.000        0.000        0.000        0.000        0.000        0.000        0.000        0.000        1.000        1.000        0.000        0.000        0.000        0.000        0.000        5.000        0.000        0.000        0.000      100.000        0.000        0.000        2.332        2.354        3.262
     750.000  -234470.319    23044.111    14517.744    34314.957      131.229  -349264.383    42786.023       25.847       25.755        2.658        3.211        2.464        2.598        2.543        2.978        2.630        2.594        3.153        2.592        3.203        2.516        3.049        3.044        2.537        2.552        0.498        0.000        1.000        0.000        0.000        2.000        0.000        0.000        0.000        0.000        0.000        0.000        0.000        0.000        0.000        0.000        0.000        0.000        0.000        0.000        0.000        0.000        0.000        0.000        0.000        0.000        0.000        0.000        0.000        0.000        0.000        0.000        2.000        0.000        0.000        0.000      100.000        0.000        0.000        1.597        1.651        2.687
     760.000  -234519.021    24170.390    14103.938    34223.137      142.164  -349311.072    42152.423       25.778       25.740        2.633        3.214        2.504        2.586        2.561        2.907        2.655        2.539        3.237        2.619        3.173        2.500        3.015        3.049        2.526        2.590        0.479        0.000        1.000        0.000        0.000        2.000        0.000        0.000        0.000        0.000        0.000        0.000        0.000        0.000        0.000        0.000        3.000        0.000        0.000        0.000        0.000        0.000        0.000        0.000        0.000        0.000        0.000        0.000        0.000        0.000        0.000        0.000        2.000        0.000        0.000        0.000      100.000        0.000        0.000        1.502        1.536        2.861
     770.000  -234092.402    23774.080    14210.453    34266.917      138.362  -350495.273    44013.058       25.828       25.634        2.619        3.172        2.484        2.558        2.574        2.848        2.665        2.491        3.210        2.624        3.132        2.481        3.043        2.948        2.459        2.629        0.513        0.000        1.000        0.000        0.000        2.000        0.000        0.000        1.000        0.000        0.000        0.000        0.000        0.000        0.000        0.000        2.000        0.000        0.000        0.000        0.000        0.000        0.000        0.000        0.000        0.000        1.000        0.000        0.000        0.000        0.000        0.000        4.000        0.000        0.000        0.000      100.000        0.000        0.000        1.705        1.731        3.149
     780.000  -234541.654    23318.579    14149.808    34155.704      120.810  -348683.990    42397.436       25.904       25.798        2.593        3.223        2.446        2.601        2.584        2.913        2.657        2.484        3.248        2.636        3.124        2.536        3.068        2.948        2.506        2.555        0.502        0.000        1.000        0.000        0.000        2.000        0.000        0.000        1.000        0.000        0.000        0.000        0.000        0.000        0.000        0.000        3.000        0.000        0.000        0.000        0.000        0.000        0.000        0.000        0.000        0.000        1.000        0.000        0.000        1.000        0.000        0.000        2.000        0.000        0.000        0.000      100.000        0.000        0.000        1.328        1.362        2.669
     790.000  -233805.916    23550.437    14051.505    34315.536      148.636  -349991.275    44119.245       25.568       25.709        2.570        3.269        2.477        2.596        2.537        2.866        2.640        2.477        3.226        2.588        3.114        2.478        3.105        3.011        2.492        2.629        0.489        0.000        1.000        0.000        0.000        2.000        0.000        0.000        0.000        0.000        0.000        0.000        0.000        0.000        0.000        0.000        0.000        0.000        0.000        0.000        0.000        0.000        0.000        0.000        0.000        0.000        2.000        0.000        0.000        0.000        0.000        0.000        3.000        0.000        0.000        0.000      100.000        0.000        0.000        1.646        1.657        2.960
     800.000  -234008.404    24449.698    14114.138    34103.314      148.802  -347728.855    40904.498       26.156       26.045        2.644        3.274        2.413        2.598        2.562        2.918        2.708        2.565        3.263        2.590        3.178        2.548        3.021        3.040        2.498        2.619        0.495        0.000        1.000        0.000        0.000        3.000        0.000        0.000        1.000        0.000        1.000        0.000        0.000        0.000        0.000        0.000        4.000        0.000        0.000        0.000        0.000        0.000        0.000        0.000        0.000        0.000        0.000        0.000        0.000        0.000        0.000        0.000        3.000        0.000        0.000        0.000      100.000        0.000        0.000        2.001        2.023        3.204
     810.000  -234306.447    23647.526    14532.328    34237.077      112.820  -348901.484    42065.286       25.890       26.094        2.637        3.177        2.467        2.593        2.552        2.867        2.633        2.562        3.188        2.620        3.110        2.487        3.064        3.011        2.487        2.565        0.479        0.000        1.000        0.000        0.000        2.000        0.000        0.000        1.000        0.000        0.000        0.000        0.000        0.000        0.000        0.000        2.000        0.000        0.000        0.000        0.000        0.000        0.000        0.000        0.000        0.000        0.000        0.000        0.000        0.000        0.000        0.000        2.000        0.000        0.000        0.000      100.000        0.000        0.000        1.730        1.723        3.407
     820.000  -234212.500    23228.945    14157.403    34206.336      120.729  -348281.590    42355.678       25.896       26.165        2.634        3.176        2.466        2.561        2.653        2.878        2.632        2.512        3.217        2.637        3.109        2.478        3.092        3.018        2.486        2.579        0.479        0.000        1.000        0.000        0.000        3.000        0.000        0.000        1.000        0.000        0.000        0.000        0.000        0.000        0.000        0.000        1.000        0.000        0.000        0.000        0.000        0.000        0.000        0.000        0.000        1.000        0.000        0.000        0.000        1.000        0.000        0.000        4.000        0.000        0.000        0.000      100.000        0.000        0.000        1.928        1.896        3.470
     830.000  -233512.299    22506.387    14231.843    34306.660      142.026  -348183.208    43483.994       26.198       26.358        2.591        3.200        2.484        2.535        2.598        2.844        2.655        2.493        3.203        2.602        3.143        2.450        2.972        2.987        2.464        2.558        0.483        0.000        1.000        0.000        0.000        3.000        0.000        0.000        0.000        0.000        1.000        0.000        0.000        0.000        0.000        0.000        1.000        0.000        0.000        0.000        0.000        0.000        0.000        0.000        0.000        0.000        1.000        0.000        0.000        0.000        0.000        0.000        4.000        0.000        0.000        0.000      100.000        0.000        0.000        1.854        1.854        3.576
     840.000  -233491.695    22744.656    14419.838    34397.586      134.360  -348115.947    42927.811       25.821       26.169        2.630        3.123        2.501        2.585        2.620        2.847        2.676        2.510        3.236        2.536        3.174        2.528        2.997        3.001        2.488        2.541        0.499        1.000        1.000        0.000        0.000        2.000        0.000        0.000        0.000        0.000        0.000        0.000        0.000        0.000        0.000        0.000        2.000        0.000        0.000        0.000        0.000        0.000        0.000        0.000        0.000        0.000        0.000        0.000        0.000        0.000        0.000        0.000        8.000        0.000        0.000        0.000      100.000        0.000        0.000        1.621        1.604        3.455
     850.000  -234000.414    23426.451    13991.191    34240.162      114.464  -347569.643    41796.962       25.847       25.940        2.676        3.159        2.469        2.578        2.630        2.945        2.627        2.470        3.191        2.606        3.192        2.467        3.025        3.033        2.500        2.583        0.496        0.000        1.000        0.000        0.000        3.000        0.000        0.000        1.000        0.000        1.000        0.000        0.000        0.000        0.000        0.000        4.000        0.000        0.000        0.000        0.000        0.000        0.000        0.000        0.000        0.000        2.000        0.000        0.000        0.000        0.000        0.000        5.000        0.000        0.000        0.000      100.000        0.000        0.000        1.556        1.532        3.156
     860.000  -233571.091    22856.480    14591.569    34160.116      149.530  -348173.335    42844.550       25.779       26.181        2.640        3.198        2.453        2.539        2.627        2.875        2.648        2.440        3.191        2.671        3.175        2.555        3.048        2.967        2.481        2.572        0.502        0.000        1.000        0.000        0.000        3.000        0.000        0.000        1.000        0.000        0.000        0.000        0.000        0.000        0.000        0.000        4.000        0.000        0.000        0.000        0.000        0.000        0.000        0.000        0.000        0.000        0.000        0.000        0.000        0.000        0.000        0.000        8.000        0.000        0.000        0.000      100.000        0.000        0.000        1.540        1.515        3.235
     870.000  -234448.819    24066.823    14468.434    34143.124      135.705  -348667.791    41404.885       26.174       26.334        2.585        3.200        2.470        2.565        2.514        2.895        2.626        2.454        3.189        2.653        3.098        2.541        3.052        3.047        2.495        2.614        0.501        0.000        1.000        0.000        0.000        3.000        0.000        0.000        1.000        0.000        0.000        0.000        0.000        0.000        0.000        0.000        2.000        0.000        0.000        0.000        0.000        0.000        0.000        0.000        0.000        0.000        0.000        0.000        0.000        1.000        0.000        0.000        3.000        0.000        0.000        0.000      100.000        0.000        0.000        1.774        1.758        3.127
     880.000  -233866.510    23249.122    14119.021    34184.335      116.574  -349374.961    43839.398       26.033       26.187        2.609        3.202        2.458        2.519        2.610        2.864        2.647        2.478        3.240        2.608        3.095        2.517        3.052        3.054        2.482        2.623        0.496        0.000        1.000        0.000        0.000        2.000        0.000        0.000        0.000        0.000        0.000        0.000        0.000        0.000        0.000        0.000        2.000        0.000        0.000        0.000        0.000        0.000        0.000        0.000        0.000        0.000        0.000        0.000        0.000        0.000        0.000        0.000        0.000        0.000        0.000        0.000      100.000        0.000        0.000        1.606        1.581        3.075
     890.000  -233780.702    23139.284    14305.089    34152.302      141.351  -348011.368    42492.640       25.816       25.869        2.674        3.163        2.407        2.594        2.553        2.911        2.603        2.465        3.276        2.615        3.262        2.505        3.049        3.014        2.511        2.641        0.485        1.000        1.000        0.000        0.000        2.000        0.000        0.000        1.000        0.000        0.000        0.000        0.000        1.000        0.000        0.000        5.000        0.000        0.000        0.000        0.000        0.000        0.000        0.000        0.000        0.000        3.000        0.000        0.000        0.000        0.000        0.000        2.000        0.000        0.000        0.000      100.000        0.000        0.000        1.819        1.813        3.151
     900.000  -234468.641    24101.051    13710.250    34202.157      112.265  -348154.680    41560.316       26.128       26.323        2.618        3.242        2.446        2.625        2.550        2.937        2.641        2.487        3.205        2.601        3.179        2.534        3.087        3.059        2.493        2.578        0.470        0.000        1.000        0.000        0.000        0.000        0.000        0.000        0.000        0.000        1.000        0.000        0.000        0.000        0.000        0.000        4.000        0.000        0.000        0.000        0.000        0.000        0.000        0.000        0.000        0.000        0.000        0.000        0.000        0.000        0.000        0.000        0.000        0.000        0.000        0.000      100.000        0.000        0.000        1.958        1.923        3.525
     910.000  -234507.087    24228.193    13998.108    34024.993      134.361  -349294.065    42401.323       26.070       25.948        2.641        3.281        2.515        2.662        2.571        3.033        2.675        2.566        3.222        2.635        3.162        2.499        3.114        3.028        2.527        2.571        0.494        0.000        1.000        0.000        0.000        1.000        0.000        0.000        0.000        0.000        1.000        0.000        0.000        0.000        0.000        0.000        4.000        0.000        0.000        0.000        0.000        0.000        0.000        0.000        0.000        1.000        1.000        0.000        0.000        0.000        0.000        0.000        2.000        0.000        0.000        0.000      100.000        0.000        0.000        2.313        2.301        3.865
     920.000  -233377.960    24149.657    13983.665    33983.780      146.484  -346808.077    41166.532       26.242       26.249        2.644        3.254        2.481        2.647        2.531        2.945        2.640        2.557        3.227        2.641        3.166        2.515        3.076        3.009        2.509        2.514        0.476        0.000        1.000        0.000        0.000        1.000        0.000        0.000        0.000        0.000        0.000        0.000        0.000        0.000        0.000        0.000        3.000        0.000        0.000        0.000        0.000        0.000        0.000        0.000        0.000        1.000        0.000        0.000        0.000        0.000        0.000        0.000        4.000        0.000        0.000        0.000      100.000        0.000        0.000        2.274        2.258        3.633
     930.000  -233921.699    23596.530    14040.444    34139.505      127.928  -348929.482    43103.377       26.099       26.156        2.622        3.251        2.425        2.609        2.613        3.072        2.641        2.521        3.280        2.591        3.172        2.535        3.119        3.006        2.456        2.587        0.473        0.000        1.000        0.000        0.000        2.000        0.000        0.000        1.000        0.000        0.000        0.000        0.000        0.000        0.000        0.000        2.000        0.000        0.000        0.000        0.000        0.000        0.000        0.000        0.000        1.000        0.000        0.000        0.000        0.000        0.000        0.000        4.000        0.000        0.000        0.000      100.000        0.000        0.000        2.194        2.156        3.632
     940.000  -234006.062    24210.374    13983.871    34111.029      149.599  -348270.274    41809.341       26.065       26.216        2.613        3.214        2.468        2.625        2.544        2.891        2.657        2.493        3.260        2.578        3.165        2.526        3.093        2.954        2.472        2.544        0.503        0.000        1.000        0.000        0.000        2.000        0.000        0.000        1.000        0.000        0.000        0.000        0.000        0.000        0.000        0.000        6.000        0.000        0.000        0.000        0.000        0.000        0.000        0.000        0.000        0.000        2.000        0.000        0.000        0.000        0.000        0.000        9.000        0.000        0.000        0.000      100.000        0.000        0.000        2.164        2.179        3.797
     950.000  -233448.403    23211.716    14300.076    34053.090      133.697  -347299.673    42152.693       25.975       26.138        2.642        3.210        2.471        2.606        2.517        2.958        2.666        2.603        3.279        2.660        3.176        2.524        3.107        2.972        2.505        2.555        0.496        0.000        1.000        0.000        0.000        2.000        0.000        0.000        1.000        0.000        0.000        0.000        0.000        1.000        0.000        0.000        4.000        0.000        0.000        0.000        0.000        0.000        0.000        0.000        0.000        0.000        0.000        0.000        0.000        0.000        0.000        0.000        6.000        0.000        0.000        0.000      100.000        0.000        0.000        2.185        2.171        3.607
     960.000  -233684.195    23645.571    14202.923    34109.127      110.301  -347655.749    41903.632       26.178       26.234        2.597        3.221        2.459        2.644        2.574        2.949        2.644        2.570        3.271        2.669        3.108        2.523        3.105        3.029        2.476        2.567        0.486        0.000        1.000        0.000        0.000        2.000        0.000        0.000        1.000        0.000        0.000        0.000        0.000        0.000        0.000        0.000        3.000        0.000        0.000        0.000        0.000        0.000        0.000        0.000        0.000        1.000        2.000        0.000        0.000        0.000        0.000        0.000        2.000        0.000        0.000        0.000      100.000        0.000        0.000        2.356        2.361        3.664
     970.000  -234179.489    22998.464    14260.923    34029.934      134.665  -348365.431    42761.956       26.111       25.971        2.613        3.268        2.485        2.598        2.544        2.867        2.703        2.550        3.229        2.608        3.175        2.450        3.094        3.032        2.460        2.549        0.482        0.000        1.000        0.000        0.000        2.000        0.000        0.000        1.000        0.000        1.000        0.000        0.000        0.000        0.000        0.000        6.000        0.000        0.000        0.000        0.000        0.000        0.000        0.000        0.000        0.000        4.000        0.000        0.000        0.000        0.000        0.000        7.000        0.000        0.000        0.000      100.000        0.000        0.000        2.273        2.274        3.504
     980.000  -233206.294    23329.659    14272.985    34091.770      116.301  -346923.662    41906.652       25.956       26.015        2.641        3.230        2.484        2.623        2.547        3.053        2.670        2.597        3.224        2.646        3.167        2.575        2.999        2.985        2.488        2.556        0.490        0.000        1.000        0.000        0.000        2.000        0.000        0.000        1.000        0.000        0.000        0.000        0.000        0.000        0.000        0.000        4.000        0.000        0.000        0.000        0.000        0.000        0.000        0.000        0.000        0.000        1.000        0.000        0.000        0.000        0.000        0.000        2.000        0.000        0.000        0.000      100.000        0.000        0.000        1.946        1.944        3.548
     990.000  -233481.283    23153.281    14410.555    34037.978      164.492  -347813.364    42565.775       26.131       26.376        2.620        3.232        2.432        2.637        2.570        2.995        2.643        2.549        3.184        2.650        3.187        2.497        3.060        2.999        2.537        2.566        0.474        0.000        1.000        0.000        0.000        2.000        0.000        0.000        1.000        0.000        0.000        0.000        0.000        1.000        0.000        0.000        3.000        0.000        0.000        0.000        0.000        0.000        0.000        0.000        0.000        0.000        0.000        0.000        0.000        0.000        0.000        0.000        4.000        0.000        0.000        0.000      100.000        0.000        0.000        1.782        1.768        3.605
    1000.000  -233132.130    24380.560    14164.373    33881.390      127.027  -347347.942    41662.464       26.144       26.361        2.696        3.227        2.489        2.677        2.551        3.005        2.630        2.515        3.259        2.571        3.221        2.551        3.072        2.955        2.522        2.563        0.477        0.000        1.000        0.000        0.000        2.000        0.000        0.000        0.000        0.000        0.000        0.000        0.000        0.000        0.000        0.000        0.000        0.000        0.000        0.000        0.000        0.000        0.000        0.000        0.000        0.000        1.000        0.000        0.000        0.000        0.000        0.000        7.000        0.000        0.000        0.000      100.000        0.000        0.000        2.047        2.019        3.892
     Average  -235716.233    23922.475    14300.974    34052.531      128.063  -351456.744    43336.468       25.899       25.863        2.639        3.233        2.501        2.579        2.605        2.978        2.644        2.519        3.245        2.613        3.184        2.523        3.075        3.007        2.499        2.605        0.489        0.040        1.000        0.000        0.000        1.891        0.000        0.000        0.248        0.000        0.129        0.000        0.000        0.030        0.000        0.000        2.574        0.000        0.000        0.000        0.000        0.000        0.000        0.000        0.000        0.297        0.950        0.000        0.000        0.228        0.000        0.000        2.990        0.000        0.756        0.000       99.244        0.000        0.000        1.861        1.878        2.715

